,AF3,F7,F3,FC5,T7,P7,O1,O2,P8,T8,FC6,F4,F8,AF4
0,4474.358974,4523.076923,4531.282051,4252.307692,4501.025641,4194.871794,4443.076923,4226.153846,4234.358974,4486.153846,4213.846153,4650.769230,3983.589744,4064.102564
1,4476.923076,4518.974358,4530.256410,4245.641025,4506.153846,4192.820512,4445.128205,4233.846153,4232.820512,4489.743589,4209.743589,4649.743589,3990.769231,4063.589743
2,4475.897435,4521.538461,4530.769230,4247.179487,4506.153846,4194.871794,4445.128205,4233.333333,4236.923076,4497.948717,4201.538461,4649.743589,3995.384616,4066.153846
3,4474.358974,4537.435897,4534.871794,4250.769230,4501.538461,4191.794871,4443.076923,4231.794871,4244.102564,4501.025641,4205.128205,4650.769230,3992.307693,4071.794871
4,4479.487179,4545.128205,4537.948717,4250.256410,4501.538461,4191.282051,4444.615384,4241.538461,4250.769230,4497.948717,4207.179487,4654.871794,3992.307693,4073.333333
5,4487.692307,4538.461538,4536.923076,4249.230769,4503.076923,4194.871794,4450.256410,4246.666666,4253.333333,4497.435897,4211.282051,4659.487179,3996.923077,4072.307692
6,4488.205128,4540.512820,4538.461538,4249.743589,4498.461538,4193.333333,4451.282051,4242.051282,4246.153846,4496.923076,4211.794871,4660.512820,4001.538461,4072.307692
7,4480.000000,4552.820512,4539.487179,4249.230769,4497.435897,4192.307692,4446.666666,4237.948717,4240.512820,4491.794871,4206.666666,4655.897435,4004.615384,4072.820512
8,4473.333333,4556.410256,4536.410256,4249.230769,4497.948717,4194.358974,4444.615384,4237.948717,4238.461538,4491.282051,4210.256410,4654.358974,4006.153846,4071.794871
9,4479.487179,4553.333333,4537.948717,4247.692307,4495.897435,4194.871794,4444.102564,4236.410256,4239.487179,4493.333333,4213.846153,4660.000000,4006.153846,4078.974358
10,4491.794871,4551.282051,4544.615384,4246.153846,4494.871794,4193.333333,4444.102564,4234.358974,4243.076923,4489.743589,4204.615384,4662.051282,4003.589743,4083.589743
11,4493.846153,4547.179487,4544.102564,4255.384615,4494.871794,4191.282051,4444.615384,4234.358974,4244.615384,4490.769230,4203.076923,4659.487179,4002.564102,4075.897435
12,4485.128205,4551.794871,4541.538461,4263.076923,4497.948717,4190.769230,4446.153846,4234.358974,4241.538461,4494.871794,4211.282051,4660.000000,4008.717948,4073.846153
13,4475.384615,4559.487179,4542.051282,4254.358974,4500.000000,4195.384615,4442.051282,4231.794871,4234.358974,4488.717948,4217.948717,4662.564102,4010.769230,4081.025641
14,4476.410256,4557.435897,4544.102564,4246.666666,4500.512820,4197.948717,4441.025641,4234.871794,4237.948717,4489.230769,4227.692307,4662.051282,4008.717948,4084.615384
15,4480.000000,4554.871794,4545.641025,4250.256410,4501.025641,4197.948717,4450.256410,4241.025641,4249.743589,4500.512820,4226.666666,4665.128205,4012.820512,4082.051282
16,4476.923076,4554.871794,4543.589743,4255.384615,4502.051282,4204.102564,4452.307692,4238.461538,4250.256410,4500.512820,4216.410256,4668.205128,4015.897435,4080.512820
17,4474.871794,4555.897435,4542.051282,4257.948717,4503.076923,4204.615384,4447.692307,4237.948717,4244.102564,4501.025641,4217.948717,4667.692307,4013.846153,4086.666666
18,4473.333333,4560.512820,4546.666666,4260.512820,4502.051282,4200.512820,4450.769230,4244.615384,4249.230769,4508.205128,4218.461538,4666.666666,4012.820512,4088.717948
19,4463.589743,4557.435897,4545.128205,4260.000000,4496.410256,4200.512820,4451.282051,4241.025641,4251.794871,4496.410256,4205.128205,4663.589743,4007.692307,4078.461538
20,4457.948717,4552.307692,4537.435897,4259.487179,4497.948717,4200.000000,4443.589743,4229.230769,4243.076923,4480.512820,4203.589743,4659.487179,4003.076923,4070.256410
21,4463.076923,4548.717948,4537.435897,4257.435897,4503.076923,4198.461538,4443.589743,4228.205128,4238.974358,4485.641025,4221.538461,4660.000000,4005.641025,4075.897435
22,4460.512820,4540.000000,4541.538461,4251.794871,4498.461538,4198.974358,4447.179487,4230.769230,4237.435897,4496.410256,4224.615384,4661.025641,4007.692307,4077.435897
23,4444.102564,4535.384615,4537.435897,4249.743589,4494.871794,4198.974358,4443.589743,4226.666666,4230.769230,4489.743589,4209.743589,4656.410256,3999.487180,4067.179487
24,4436.410256,4538.974358,4531.282051,4248.717948,4497.435897,4191.282051,4442.051282,4227.179487,4228.205128,4480.000000,4200.000000,4649.743589,3989.230770,4060.000000
25,4447.692307,4536.923076,4533.846153,4248.717948,4493.846153,4187.179487,4444.615384,4230.769230,4237.948717,4486.153846,4205.128205,4653.846153,3992.307693,4061.538461
26,4456.410256,4534.358974,4541.025641,4256.410256,4490.769230,4187.179487,4446.153846,4234.871794,4250.769230,4496.923076,4216.410256,4664.102564,4004.615384,4068.205128
27,4447.692307,4538.974358,4543.076923,4265.641025,4494.871794,4184.615384,4448.205128,4236.923076,4251.794871,4499.487179,4222.051282,4669.743589,4009.743589,4073.333333
28,4438.974358,4540.000000,4539.487179,4258.461538,4496.410256,4181.025641,4449.230769,4234.358974,4245.128205,4495.384615,4215.897435,4667.692307,4002.051282,4070.769230
29,4441.025641,4538.974358,4535.384615,4245.128205,4491.282051,4177.948717,4446.666666,4232.307692,4240.000000,4492.307692,4205.641025,4662.051282,3998.461539,4066.153846
30,4445.641025,4539.487179,4537.435897,4252.820512,4489.230769,4176.923076,4443.076923,4233.333333,4240.512820,4493.333333,4210.256410,4662.564102,4004.102564,4068.717948
31,4447.179487,4539.487179,4545.128205,4264.102564,4492.820512,4183.076923,4444.615384,4234.358974,4241.538461,4496.923076,4218.974358,4665.641025,4008.717948,4073.333333
32,4447.692307,4543.076923,4545.128205,4256.923076,4497.435897,4188.717948,4447.179487,4231.282051,4241.025641,4495.384615,4220.000000,4667.179487,4007.692307,4075.384615
33,4445.128205,4545.128205,4539.487179,4253.333333,4499.487179,4183.589743,4444.615384,4229.230769,4240.000000,4488.717948,4218.974358,4666.666666,3998.974359,4072.820512
34,4440.512820,4540.512820,4538.461538,4265.128205,4498.974358,4182.564102,4443.589743,4230.769230,4238.461538,4487.692307,4215.897435,4663.589743,3995.384616,4063.076923
35,4439.487179,4540.512820,4537.948717,4267.692307,4498.974358,4185.641025,4444.102564,4231.282051,4242.564102,4494.358974,4209.230769,4662.564102,4002.051282,4058.461538
36,4443.589743,4538.974358,4538.461538,4261.538461,4501.025641,4183.589743,4444.615384,4227.179487,4244.615384,4498.974358,4205.128205,4666.153846,4002.564102,4065.128205
37,4444.102564,4527.179487,4538.974358,4261.538461,4497.948717,4185.641025,4445.128205,4226.153846,4241.025641,4497.948717,4210.256410,4664.615384,3995.897436,4066.666666
38,4433.333333,4526.666666,4534.358974,4256.923076,4489.230769,4184.615384,4444.102564,4231.794871,4245.641025,4495.384615,4217.435897,4656.410256,3994.871795,4058.461538
39,4429.230769,4534.871794,4532.307692,4247.179487,4490.256410,4175.384615,4442.564102,4233.846153,4250.256410,4494.871794,4222.564102,4655.897435,3993.333334,4054.358974
40,4438.461538,4536.410256,4540.512820,4252.307692,4492.820512,4173.846153,4442.564102,4232.307692,4243.589743,4492.307692,4218.461538,4664.615384,3991.282052,4062.051282
41,4445.128205,4533.846153,4545.128205,4263.076923,4490.769230,4183.589743,4445.128205,4230.256410,4237.948717,4489.230769,4211.794871,4667.692307,4004.102564,4071.282051
42,4445.128205,4538.461538,4543.076923,4263.589743,4492.307692,4185.641025,4448.205128,4227.179487,4237.435897,4490.256410,4216.923076,4664.615384,4013.333333,4069.743589
43,4445.128205,4545.641025,4545.128205,4262.051282,4495.384615,4181.538461,4448.205128,4227.179487,4236.410256,4494.871794,4223.589743,4661.538461,4004.615384,4060.512820
44,4440.512820,4546.666666,4546.153846,4269.743589,4494.358974,4184.615384,4446.666666,4227.692307,4241.538461,4500.000000,4221.025641,4662.564102,4000.512820,4062.051282
45,4432.307692,4541.538461,4537.948717,4271.282051,4494.871794,4185.128205,4445.128205,4220.512820,4244.615384,4496.923076,4210.769230,4659.487179,3995.897436,4064.102564
46,4435.897435,4533.846153,4533.333333,4262.051282,4498.461538,4182.051282,4443.076923,4215.384615,4238.461538,4487.692307,4207.179487,4655.897435,3988.205129,4061.538461
47,4446.153846,4534.871794,4538.974358,4266.666666,4501.025641,4186.153846,4444.102564,4223.589743,4236.410256,4489.743589,4214.871794,4661.025641,3994.871795,4061.538461
48,4446.666666,4547.179487,4544.102564,4276.923076,4504.615384,4189.230769,4450.769230,4232.307692,4242.051282,4501.538461,4219.487179,4666.666666,4006.153846,4067.179487
49,4439.487179,4553.846153,4546.153846,4269.230769,4502.564102,4186.153846,4451.282051,4233.846153,4247.179487,4506.153846,4214.871794,4664.615384,4008.717948,4070.769230
50,4434.358974,4540.512820,4543.589743,4258.974358,4494.358974,4182.564102,4446.153846,4231.794871,4246.153846,4496.923076,4211.282051,4658.974358,4000.512820,4066.666666
51,4440.000000,4529.743589,4540.000000,4269.743589,4492.820512,4183.589743,4443.589743,4230.769230,4243.589743,4488.205128,4214.871794,4659.487179,3986.153847,4060.512820
52,4447.179487,4537.948717,4541.025641,4279.487179,4493.846153,4184.615384,4447.179487,4232.820512,4244.102564,4489.743589,4211.794871,4665.128205,3985.641026,4062.564102
53,4437.948717,4543.589743,4544.615384,4273.333333,4494.358974,4186.666666,4451.282051,4234.358974,4243.589743,4499.487179,4207.692307,4666.153846,4002.051282,4068.205128
54,4431.794871,4535.384615,4542.564102,4272.307692,4497.948717,4188.205128,4456.410256,4233.333333,4245.641025,4504.615384,4215.384615,4663.076923,4007.179487,4067.692307
55,4439.487179,4527.692307,4541.025641,4276.410256,4499.487179,4191.282051,4460.000000,4233.333333,4250.769230,4501.538461,4221.538461,4662.564102,3998.974359,4062.564102
56,4444.615384,4530.769230,4544.102564,4275.897435,4498.974358,4195.897435,4456.410256,4233.846153,4248.717948,4496.923076,4218.974358,4661.538461,3994.358975,4060.000000
57,4443.589743,4542.564102,4544.102564,4274.871794,4504.102564,4194.871794,4454.871794,4230.769230,4244.102564,4495.897435,4220.000000,4658.461538,3991.794872,4060.512820
58,4438.974358,4543.589743,4542.564102,4278.974358,4506.153846,4194.871794,4460.000000,4233.846153,4248.717948,4497.948717,4218.461538,4660.512820,3994.358975,4065.641025
59,4437.435897,4533.333333,4546.666666,4284.102564,4504.102564,4197.435897,4462.051282,4245.128205,4255.384615,4504.102564,4209.743589,4665.128205,4004.615384,4070.256410
60,4442.051282,4541.025641,4551.282051,4287.179487,4507.692307,4202.564102,4463.589743,4251.282051,4259.487179,4510.256410,4218.974358,4666.153846,4012.820512,4070.256410
61,4446.153846,4553.846153,4550.256410,4284.102564,4508.205128,4205.641025,4470.769230,4248.205128,4258.974358,4509.230769,4230.769230,4665.128205,4004.615384,4066.666666
62,4445.128205,4543.589743,4549.230769,4278.974358,4506.666666,4203.076923,4474.358974,4247.179487,4254.358974,4507.179487,4224.615384,4665.641025,3991.794872,4069.230769
63,4445.128205,4536.923076,4552.820512,4281.025641,4508.205128,4208.205128,4474.358974,4256.410256,4257.435897,4513.333333,4227.692307,4667.692307,3995.384616,4074.871794
64,4443.076923,4546.153846,4549.230769,4282.564102,4507.179487,4214.871794,4476.923076,4260.000000,4265.128205,4514.871794,4237.948717,4668.205128,4004.102564,4071.794871
65,4440.000000,4544.102564,4541.538461,4279.487179,4508.205128,4210.256410,4476.923076,4251.282051,4264.102564,4507.179487,4222.051282,4663.589743,3997.948718,4066.153846
66,4443.589743,4536.410256,4542.051282,4281.025641,4512.307692,4207.692307,4474.358974,4245.641025,4256.923076,4502.051282,4202.564102,4660.000000,3987.692308,4060.512820
67,4441.025641,4535.384615,4543.589743,4280.512820,4510.769230,4212.820512,4469.743589,4245.641025,4249.743589,4505.128205,4211.794871,4661.025641,3986.153847,4054.871794
68,4433.846153,4532.820512,4542.051282,4273.846153,4508.205128,4211.282051,4466.153846,4246.153846,4248.205128,4507.692307,4229.743589,4663.076923,3991.282052,4059.487179
69,4435.897435,4531.794871,4545.641025,4270.256410,4511.282051,4209.230769,4470.769230,4250.256410,4257.435897,4510.769230,4230.256410,4664.615384,3996.410257,4066.666666
70,4443.076923,4538.461538,4547.179487,4273.846153,4513.846153,4216.923076,4475.384615,4253.846153,4268.205128,4510.769230,4219.487179,4668.205128,3997.435898,4064.102564
71,4445.641025,4541.538461,4544.615384,4276.923076,4512.820512,4219.487179,4472.307692,4250.256410,4266.666666,4507.179487,4212.820512,4670.256410,3995.384616,4065.641025
72,4445.128205,4533.333333,4547.692307,4271.794871,4506.666666,4212.820512,4472.307692,4248.205128,4257.435897,4510.256410,4217.435897,4667.179487,3988.205129,4070.769230
73,4443.076923,4525.128205,4548.205128,4268.717948,4505.641025,4211.282051,4476.923076,4250.256410,4251.282051,4510.769230,4225.641025,4663.076923,3983.589744,4065.128205
74,4442.051282,4529.230769,4544.102564,4274.358974,4511.794871,4214.871794,4474.871794,4247.179487,4251.282051,4504.102564,4226.153846,4663.076923,3988.205129,4059.487179
75,4444.102564,4540.512820,4545.128205,4280.512820,4514.871794,4212.820512,4467.179487,4239.487179,4249.743589,4505.641025,4225.641025,4665.128205,3988.205129,4062.564102
76,4440.000000,4542.051282,4541.025641,4280.512820,4507.179487,4204.615384,4459.487179,4232.820512,4244.102564,4508.205128,4218.461538,4660.512820,3978.461539,4058.974358
77,4430.769230,4530.769230,4533.333333,4272.307692,4502.051282,4200.512820,4450.769230,4230.256410,4240.512820,4493.846153,4203.589743,4651.282051,3974.358975,4050.256410
78,4427.179487,4522.051282,4534.871794,4267.179487,4508.717948,4207.692307,4449.743589,4233.846153,4244.102564,4488.205128,4197.435897,4650.769230,3974.871795,4047.692307
79,4428.717948,4525.128205,4539.487179,4270.769230,4515.897435,4214.871794,4455.384615,4240.512820,4251.794871,4505.128205,4195.897435,4656.410256,3972.307693,4049.230769
80,4425.641025,4526.153846,4539.487179,4271.794871,4514.358974,4213.846153,4461.025641,4246.666666,4257.948717,4518.461538,4199.487179,4655.897435,3974.358975,4049.230769
81,4424.615384,4515.384615,4535.897435,4264.102564,4509.743589,4208.717948,4460.512820,4248.717948,4255.897435,4509.230769,4215.897435,4651.794871,3974.871795,4044.615384
82,4428.205128,4507.692307,4531.794871,4263.076923,4504.102564,4205.128205,4453.333333,4236.410256,4238.974358,4486.153846,4214.358974,4648.205128,3965.128206,4041.538461
83,4421.025641,4514.358974,4531.282051,4270.256410,4496.923076,4201.538461,4446.153846,4222.051282,4226.153846,4473.846153,4188.205128,4644.102564,3957.435898,4043.589743
84,4413.846153,4523.589743,4535.897435,4270.769230,4499.487179,4198.974358,4444.615384,4222.564102,4232.820512,4482.051282,4188.717948,4645.128205,3957.435898,4043.589743
85,4418.974358,4521.025641,4534.871794,4266.153846,4504.615384,4199.487179,4446.153846,4227.179487,4235.897435,4482.564102,4207.692307,4648.205128,3957.435898,4038.974358
86,4424.102564,4513.846153,4529.743589,4262.051282,4499.487179,4197.435897,4443.076923,4218.461538,4223.589743,4470.769230,4196.923076,4642.564102,3951.282052,4033.846153
87,4423.589743,4516.410256,4532.307692,4262.564102,4499.487179,4196.923076,4440.512820,4211.794871,4217.948717,4471.282051,4188.717948,4640.000000,3947.692308,4037.435897
88,4426.666666,4525.641025,4540.000000,4264.615384,4509.230769,4201.538461,4442.564102,4221.538461,4230.256410,4484.615384,4203.589743,4648.205128,3961.025642,4049.743589
89,4428.717948,4526.153846,4546.153846,4265.128205,4509.743589,4201.025641,4445.128205,4230.256410,4241.025641,4492.820512,4201.025641,4654.871794,3973.846154,4052.820512
90,4426.153846,4523.589743,4541.538461,4268.205128,4506.666666,4200.512820,4446.666666,4232.307692,4242.564102,4489.743589,4190.769230,4652.307692,3967.692308,4041.538461
91,4425.641025,4524.102564,4534.871794,4270.769230,4506.666666,4202.564102,4446.153846,4235.384615,4244.615384,4487.179487,4208.205128,4649.230769,3956.410257,4041.538461
92,4434.358974,4522.051282,4538.461538,4276.923076,4506.153846,4200.000000,4444.102564,4233.333333,4244.102564,4491.282051,4225.128205,4651.794871,3957.435898,4055.384615
93,4441.538461,4522.564102,4542.051282,4276.410256,4506.666666,4197.948717,4443.589743,4230.769230,4238.461538,4498.461538,4212.820512,4654.871794,3967.179488,4060.000000
94,4444.615384,4523.076923,4542.051282,4269.230769,4505.641025,4202.564102,4446.153846,4240.000000,4246.153846,4506.153846,4207.692307,4656.923076,3978.461539,4056.410256
95,4446.666666,4522.564102,4545.128205,4269.743589,4506.153846,4205.641025,4446.666666,4246.666666,4258.974358,4508.717948,4216.923076,4658.974358,3981.538462,4056.923076
96,4447.179487,4522.564102,4542.051282,4269.743589,4508.205128,4202.564102,4444.102564,4235.384615,4247.179487,4501.538461,4210.256410,4655.897435,3969.230770,4056.410256
97,4449.743589,4522.564102,4535.384615,4268.717948,4506.153846,4201.025641,4445.128205,4226.666666,4230.256410,4498.461538,4204.615384,4650.769230,3958.461539,4053.846153
98,4456.410256,4524.615384,4541.538461,4275.384615,4505.641025,4203.076923,4447.179487,4231.794871,4238.974358,4506.666666,4216.923076,4655.384615,3965.128206,4060.000000
99,4461.538461,4532.307692,4548.205128,4282.051282,4513.846153,4207.692307,4447.179487,4234.871794,4249.230769,4508.205128,4224.615384,4663.589743,3979.487180,4066.153846
100,4460.000000,4535.384615,4545.641025,4279.487179,4516.923076,4210.256410,4447.692307,4233.333333,4246.153846,4506.666666,4215.897435,4660.512820,3983.589744,4061.538461
101,4451.794871,4526.153846,4542.564102,4272.820512,4510.769230,4205.641025,4447.179487,4235.384615,4245.641025,4504.102564,4201.025641,4651.282051,3967.692308,4052.820512
102,4450.769230,4517.435897,4538.461538,4264.615384,4504.615384,4197.948717,4443.076923,4234.871794,4240.512820,4490.769230,4199.487179,4648.717948,3952.307693,4052.820512
103,4455.897435,4515.897435,4535.897435,4260.000000,4500.512820,4197.435897,4441.025641,4229.230769,4233.846153,4486.666666,4215.384615,4651.282051,3956.923077,4057.435897
104,4452.820512,4517.948717,4535.384615,4264.102564,4502.051282,4201.538461,4440.000000,4223.589743,4232.820512,4493.846153,4216.923076,4645.641025,3963.076924,4052.307692
105,4440.000000,4518.461538,4532.820512,4262.051282,4500.512820,4198.461538,4440.000000,4218.974358,4228.205128,4489.743589,4190.769230,4636.410256,3960.512821,4040.000000
106,4440.000000,4511.282051,4532.820512,4261.025641,4497.435897,4193.333333,4443.076923,4215.384615,4221.538461,4481.538461,4183.589743,4637.948717,3959.487180,4040.512820
107,4454.358974,4506.666666,4534.871794,4266.666666,4501.538461,4197.948717,4443.589743,4218.974358,4221.538461,4484.615384,4201.538461,4639.487179,3957.435898,4053.846153
108,4456.923076,4516.410256,4533.846153,4265.641025,4502.051282,4201.538461,4443.589743,4222.051282,4229.230769,4491.794871,4208.205128,4638.974358,3954.871795,4057.435897
109,4450.769230,4527.692307,4534.871794,4265.128205,4498.461538,4198.461538,4445.128205,4218.461538,4234.358974,4495.384615,4203.076923,4643.076923,3957.948718,4051.794871
110,4451.794871,4519.487179,4534.358974,4261.538461,4497.948717,4193.333333,4437.948717,4212.307692,4227.179487,4490.256410,4197.948717,4639.487179,3961.025642,4048.717948
111,4459.487179,4508.205128,4528.717948,4249.743589,4497.435897,4190.256410,4432.820512,4211.282051,4222.051282,4481.538461,4198.461538,4636.410256,3959.487180,4051.282051
112,4462.051282,4515.384615,4530.256410,4250.769230,4497.435897,4194.358974,4443.076923,4219.487179,4232.307692,4486.666666,4210.256410,4649.743589,3960.512821,4056.923076
113,4457.948717,4525.641025,4540.000000,4263.589743,4505.641025,4202.564102,4449.230769,4232.307692,4240.512820,4490.769230,4213.333333,4654.358974,3966.666667,4062.564102
114,4457.948717,4526.666666,4542.564102,4266.153846,4508.717948,4203.076923,4445.641025,4236.410256,4236.410256,4487.692307,4204.615384,4645.641025,3977.435898,4064.615384
115,4456.410256,4529.230769,4535.897435,4260.512820,4503.589743,4198.461538,4448.717948,4230.769230,4239.487179,4496.410256,4207.179487,4645.641025,3976.923077,4061.538461
116,4461.025641,4537.948717,4534.358974,4262.564102,4503.589743,4198.461538,4454.358974,4232.820512,4251.282051,4507.692307,4218.974358,4651.794871,3972.307693,4062.564102
117,4473.333333,4548.717948,4545.641025,4270.256410,4510.256410,4204.615384,4457.948717,4242.051282,4253.846153,4508.717948,4223.589743,4653.846153,3980.512821,4073.333333
118,4468.717948,4553.333333,4546.153846,4269.743589,4511.794871,4207.179487,4455.384615,4240.000000,4243.589743,4505.128205,4221.538461,4651.794871,3983.076924,4071.794871
119,4452.307692,4548.717948,4530.769230,4261.025641,4502.564102,4201.025641,4443.589743,4227.692307,4234.871794,4500.000000,4209.743589,4643.076923,3976.923077,4055.897435
120,4460.512820,4548.205128,4530.256410,4258.974358,4497.948717,4196.923076,4437.948717,4226.666666,4237.435897,4496.410256,4198.974358,4642.564102,3981.538462,4057.435897
121,4477.948717,4553.333333,4545.128205,4267.179487,4504.615384,4202.564102,4444.102564,4233.846153,4241.025641,4500.512820,4213.333333,4653.846153,3988.717949,4072.307692
122,4467.692307,4551.794871,4543.589743,4265.128205,4507.692307,4202.564102,4447.179487,4231.282051,4237.948717,4500.512820,4221.538461,4650.769230,3981.025642,4066.153846
123,4447.692307,4545.128205,4527.692307,4254.871794,4501.025641,4196.410256,4443.589743,4226.153846,4234.871794,4489.743589,4200.512820,4637.948717,3962.564103,4046.153846
124,4454.871794,4540.000000,4530.256410,4258.974358,4501.025641,4199.487179,4444.615384,4231.282051,4235.384615,4491.282051,4196.410256,4642.564102,3958.974359,4049.743589
125,4474.871794,4543.076923,4543.589743,4268.717948,4510.256410,4207.692307,4453.333333,4234.358974,4234.871794,4497.948717,4216.410256,4656.410256,3981.538462,4071.282051
126,4475.384615,4553.333333,4544.615384,4266.666666,4512.820512,4205.128205,4455.897435,4231.794871,4235.384615,4494.871794,4220.000000,4657.435897,3995.384616,4077.435897
127,4467.179487,4556.410256,4543.589743,4263.076923,4512.307692,4204.615384,4450.769230,4235.897435,4246.153846,4502.564102,4217.435897,4655.897435,3985.641026,4069.743589
128,4471.794871,4554.871794,4552.307692,4274.358974,4515.897435,4211.282051,4453.846153,4241.538461,4256.923076,4517.948717,4232.307692,4664.615384,3985.641026,4074.358974
129,4480.000000,4558.461538,4556.410256,4282.564102,4517.948717,4212.307692,4460.000000,4240.000000,4255.897435,4511.794871,4232.307692,4668.717948,3997.435898,4082.564102
130,4477.948717,4557.948717,4549.230769,4270.256410,4513.333333,4206.153846,4452.307692,4232.307692,4245.641025,4500.000000,4211.794871,4661.025641,3996.410257,4076.923076
131,4470.769230,4548.717948,4543.076923,4259.487179,4502.564102,4197.948717,4441.538461,4221.538461,4235.384615,4501.538461,4212.820512,4653.333333,3983.076924,4067.179487
132,4463.589743,4546.153846,4540.512820,4264.615384,4500.512820,4194.871794,4441.025641,4216.923076,4231.794871,4502.051282,4224.102564,4652.307692,3980.512821,4063.589743
133,4457.948717,4545.641025,4540.512820,4268.717948,4510.256410,4197.435897,4448.205128,4223.076923,4235.897435,4496.410256,4216.410256,4654.871794,3986.153847,4063.076923
134,4463.076923,4541.538461,4542.051282,4264.102564,4514.358974,4201.538461,4456.410256,4229.743589,4238.974358,4497.948717,4211.794871,4654.358974,3985.128206,4065.641025
135,4474.871794,4547.692307,4545.128205,4267.179487,4511.794871,4205.641025,4460.000000,4236.410256,4242.051282,4505.641025,4228.205128,4661.025641,3984.615385,4072.307692
136,4480.000000,4552.820512,4550.256410,4273.333333,4514.358974,4208.717948,4463.076923,4243.076923,4250.256410,4510.769230,4236.410256,4671.282051,3993.846154,4074.358974
137,4467.692307,4545.128205,4549.230769,4269.230769,4517.435897,4206.153846,4463.076923,4238.461538,4250.256410,4507.692307,4226.666666,4666.153846,3994.871795,4066.153846
138,4457.435897,4542.564102,4543.076923,4266.666666,4512.820512,4199.487179,4457.948717,4228.205128,4240.000000,4500.000000,4222.051282,4656.923076,3985.128206,4060.512820
139,4462.564102,4548.717948,4541.538461,4271.282051,4508.717948,4202.564102,4456.923076,4231.282051,4237.435897,4499.487179,4222.051282,4658.974358,3983.076924,4066.153846
140,4465.641025,4545.641025,4540.512820,4263.076923,4505.641025,4202.051282,4459.487179,4237.435897,4243.589743,4503.076923,4212.820512,4658.974358,3979.487180,4063.589743
141,4455.897435,4532.820512,4532.820512,4252.307692,4503.076923,4196.923076,4455.384615,4225.641025,4236.923076,4498.461538,4200.512820,4649.743589,3965.128206,4046.666666
142,4451.282051,4528.717948,4528.717948,4259.487179,4500.512820,4196.923076,4452.820512,4213.333333,4223.076923,4490.769230,4205.128205,4650.256410,3965.641026,4043.589743
143,4457.948717,4534.358974,4533.846153,4270.256410,4501.538461,4200.000000,4455.897435,4218.974358,4228.205128,4496.410256,4215.897435,4657.435897,3979.487180,4056.923076
144,4458.461538,4538.461538,4537.435897,4265.641025,4508.717948,4201.538461,4457.435897,4226.153846,4241.538461,4505.641025,4209.743589,4658.974358,3980.000000,4059.487179
145,4462.051282,4533.846153,4538.461538,4262.051282,4507.692307,4201.025641,4456.923076,4225.641025,4241.538461,4501.538461,4204.615384,4658.974358,3972.820513,4050.769230
146,4469.230769,4532.307692,4542.051282,4271.794871,4503.589743,4202.564102,4458.461538,4229.743589,4237.948717,4494.358974,4214.871794,4662.051282,3978.461539,4052.820512
147,4464.615384,4541.538461,4545.128205,4274.871794,4510.769230,4206.666666,4463.076923,4234.871794,4240.000000,4499.487179,4224.615384,4666.666666,3987.179488,4063.589743
148,4461.025641,4546.666666,4545.641025,4269.743589,4517.435897,4205.641025,4462.564102,4231.794871,4234.871794,4504.102564,4222.564102,4668.205128,3987.692308,4067.179487
149,4470.256410,4542.051282,4545.128205,4270.769230,4511.282051,4200.000000,4455.384615,4228.717948,4230.256410,4498.461538,4210.769230,4665.641025,3983.589744,4059.487179
150,4477.435897,4540.000000,4549.230769,4275.897435,4510.256410,4204.102564,4458.974358,4235.897435,4244.102564,4503.076923,4207.179487,4666.666666,3980.512821,4057.948717
151,4475.897435,4545.641025,4557.435897,4279.487179,4517.435897,4215.897435,4471.282051,4244.102564,4252.820512,4516.410256,4221.538461,4671.282051,3984.102565,4068.205128
152,4472.820512,4547.692307,4558.974358,4280.000000,4517.948717,4218.461538,4469.743589,4241.025641,4242.564102,4514.358974,4229.230769,4670.769230,3987.692308,4075.897435
153,4469.230769,4538.461538,4549.230769,4270.769230,4512.820512,4214.871794,4458.974358,4229.743589,4234.871794,4500.000000,4221.025641,4667.179487,3987.179488,4068.205128
154,4469.743589,4532.820512,4542.564102,4261.025641,4510.769230,4210.769230,4455.897435,4228.717948,4239.487179,4498.461538,4213.846153,4667.692307,3987.692308,4056.923076
155,4476.923076,4541.538461,4548.717948,4264.615384,4515.897435,4211.282051,4460.000000,4236.410256,4244.102564,4507.692307,4220.000000,4670.769230,3984.102565,4061.538461
156,4476.923076,4547.179487,4553.333333,4267.179487,4518.974358,4213.846153,4464.615384,4241.538461,4247.692307,4511.794871,4228.717948,4671.282051,3982.564103,4071.282051
157,4469.230769,4538.974358,4548.717948,4264.102564,4514.358974,4211.282051,4462.564102,4239.487179,4247.692307,4514.358974,4221.538461,4669.743589,3990.256411,4069.230769
158,4464.615384,4533.333333,4545.641025,4264.102564,4507.692307,4207.179487,4457.435897,4233.333333,4236.410256,4506.666666,4208.717948,4668.717948,3990.256411,4058.461538
159,4466.153846,4537.948717,4547.692307,4266.666666,4510.769230,4206.153846,4456.923076,4231.794871,4231.794871,4489.743589,4204.102564,4666.153846,3980.512821,4055.897435
160,4461.538461,4539.487179,4545.641025,4266.666666,4508.717948,4204.615384,4456.923076,4231.794871,4240.000000,4490.769230,4205.641025,4660.000000,3977.948718,4062.564102
161,4458.974358,4537.435897,4543.589743,4265.128205,4502.564102,4205.641025,4454.358974,4230.769230,4246.153846,4510.256410,4216.410256,4660.000000,3981.538462,4066.666666
162,4466.666666,4537.948717,4546.153846,4264.615384,4508.717948,4208.205128,4456.923076,4235.384615,4244.615384,4517.435897,4232.307692,4664.102564,3983.076924,4062.564102
163,4464.102564,4533.333333,4541.538461,4264.615384,4509.743589,4204.615384,4459.487179,4234.358974,4236.410256,4501.025641,4217.435897,4657.435897,3976.410257,4050.256410
164,4453.333333,4525.641025,4533.846153,4263.589743,4503.589743,4199.487179,4452.820512,4223.589743,4227.179487,4487.692307,4192.307692,4647.179487,3965.128206,4044.102564
165,4457.435897,4529.230769,4537.435897,4264.102564,4504.615384,4202.051282,4451.282051,4221.025641,4228.717948,4492.820512,4208.205128,4652.307692,3970.769231,4055.384615
166,4463.589743,4537.435897,4547.692307,4266.153846,4508.205128,4207.692307,4458.974358,4231.282051,4239.487179,4506.153846,4232.820512,4665.128205,3986.153847,4065.128205
167,4461.025641,4541.025641,4547.692307,4267.179487,4507.179487,4207.692307,4459.487179,4237.435897,4243.589743,4509.743589,4227.179487,4666.666666,3983.076924,4057.948717
168,4462.051282,4540.000000,4543.589743,4265.128205,4506.666666,4203.076923,4454.358974,4233.846153,4238.461538,4503.076923,4214.358974,4658.461538,3974.871795,4055.384615
169,4462.564102,4534.358974,4546.666666,4267.179487,4502.051282,4198.461538,4453.846153,4230.256410,4235.384615,4496.923076,4212.820512,4657.948717,3979.487180,4064.615384
170,4460.000000,4530.256410,4550.256410,4272.820512,4496.923076,4197.435897,4451.794871,4232.820512,4235.384615,4494.871794,4215.384615,4665.641025,3986.153847,4067.692307
171,4458.461538,4531.282051,4549.230769,4273.846153,4500.000000,4194.871794,4445.128205,4232.307692,4232.820512,4495.897435,4223.076923,4664.102564,3978.974359,4060.512820
172,4460.000000,4528.717948,4546.153846,4269.230769,4498.974358,4188.205128,4442.051282,4223.589743,4228.205128,4500.000000,4228.717948,4660.000000,3972.820513,4057.435897
173,4463.076923,4526.666666,4546.666666,4264.615384,4495.384615,4189.230769,4446.153846,4223.076923,4231.794871,4501.538461,4221.538461,4663.076923,3981.538462,4060.512820
174,4464.102564,4530.256410,4547.179487,4267.692307,4502.051282,4194.358974,4448.205128,4230.769230,4238.974358,4497.435897,4211.794871,4662.564102,3983.589744,4061.538461
175,4461.025641,4531.794871,4546.666666,4274.358974,4510.256410,4196.923076,4447.179487,4230.769230,4240.512820,4498.461538,4209.230769,4660.000000,3979.487180,4062.051282
176,4458.974358,4523.076923,4543.589743,4272.820512,4508.205128,4196.923076,4452.307692,4229.230769,4239.487179,4501.025641,4208.717948,4657.948717,3985.128206,4060.512820
177,4458.461538,4518.974358,4540.000000,4265.641025,4501.538461,4192.820512,4454.871794,4230.769230,4242.051282,4496.923076,4211.794871,4653.333333,3981.538462,4054.871794
178,4460.000000,4524.615384,4540.512820,4263.076923,4503.076923,4190.769230,4449.743589,4232.820512,4245.641025,4502.051282,4222.564102,4654.871794,3970.769231,4057.435897
179,4465.128205,4521.538461,4540.512820,4265.641025,4503.076923,4195.384615,4448.717948,4235.384615,4246.153846,4513.333333,4225.641025,4661.538461,3981.025642,4066.666666
180,4455.897435,4508.717948,4534.358974,4264.102564,4498.461538,4194.871794,4446.666666,4230.769230,4239.487179,4508.205128,4215.897435,4654.871794,3988.205129,4061.025641
181,4440.512820,4507.692307,4529.230769,4263.076923,4498.974358,4184.615384,4437.435897,4221.538461,4230.256410,4496.410256,4205.128205,4644.615384,3972.820513,4046.666666
182,4446.153846,4517.948717,4532.307692,4266.153846,4500.512820,4183.589743,4437.435897,4225.128205,4229.230769,4495.897435,4212.820512,4653.333333,3975.384616,4051.282051
183,4464.615384,4523.076923,4541.025641,4269.230769,4498.974358,4189.230769,4446.153846,4235.897435,4236.923076,4506.153846,4224.102564,4666.153846,3993.333334,4065.641025
184,4464.615384,4521.025641,4543.076923,4267.179487,4502.051282,4190.769230,4444.615384,4232.307692,4239.487179,4514.358974,4217.435897,4662.051282,3986.666667,4061.025641
185,4445.641025,4514.871794,4535.384615,4263.076923,4503.076923,4190.256410,4441.025641,4220.512820,4233.333333,4507.179487,4211.794871,4650.256410,3971.794872,4046.153846
186,4444.615384,4512.307692,4535.384615,4266.666666,4501.025641,4187.179487,4443.076923,4221.025641,4227.692307,4497.435897,4217.948717,4652.820512,3974.871795,4048.205128
187,4460.512820,4517.948717,4546.666666,4273.333333,4501.025641,4186.666666,4444.102564,4226.153846,4232.820512,4498.974358,4218.974358,4665.128205,3983.589744,4061.538461
188,4461.538461,4519.487179,4545.641025,4271.794871,4500.512820,4186.153846,4440.512820,4226.153846,4237.948717,4498.461538,4215.384615,4664.102564,3977.948718,4058.974358
189,4449.230769,4516.410256,4535.384615,4265.128205,4496.410256,4183.589743,4437.435897,4225.641025,4232.820512,4492.820512,4213.846153,4653.846153,3967.692308,4047.692307
190,4445.128205,4513.846153,4535.384615,4265.641025,4495.384615,4184.102564,4436.410256,4224.615384,4230.769230,4500.000000,4211.794871,4653.333333,3970.256411,4052.307692
191,4446.666666,4511.282051,4537.435897,4267.692307,4499.487179,4186.666666,4438.461538,4226.666666,4233.333333,4507.692307,4212.820512,4656.923076,3974.358975,4059.487179
192,4447.179487,4511.794871,4534.871794,4261.025641,4501.538461,4185.641025,4440.000000,4229.743589,4232.307692,4501.538461,4212.820512,4651.794871,3971.282052,4054.871794
193,4451.282051,4515.384615,4535.384615,4260.000000,4498.461538,4184.615384,4434.871794,4225.128205,4234.871794,4496.923076,4214.871794,4649.743589,3971.794872,4052.820512
194,4450.256410,4511.282051,4533.846153,4268.205128,4494.358974,4184.102564,4432.307692,4219.487179,4238.974358,4498.974358,4223.076923,4654.871794,3976.410257,4053.846153
195,4440.000000,4500.512820,4527.179487,4260.512820,4493.333333,4181.538461,4432.820512,4218.974358,4229.743589,4500.512820,4216.410256,4650.769230,3971.282052,4046.153846
196,4433.846153,4496.410256,4524.102564,4246.153846,4493.846153,4181.025641,4430.769230,4215.897435,4216.410256,4493.846153,4204.102564,4639.487179,3960.000000,4038.974358
197,4444.615384,4503.589743,4531.794871,4253.846153,4495.384615,4184.102564,4433.333333,4220.000000,4226.153846,4494.871794,4210.256410,4643.076923,3962.564103,4048.717948
198,4462.051282,4511.794871,4539.487179,4268.205128,4497.948717,4189.743589,4444.102564,4233.333333,4240.512820,4510.769230,4221.025641,4657.948717,3976.923077,4064.615384
199,4458.461538,4508.205128,4537.948717,4266.153846,4494.871794,4192.307692,4444.102564,4233.333333,4234.871794,4510.769230,4223.589743,4660.000000,3987.692308,4064.615384
200,4439.487179,4501.025641,4530.256410,4258.974358,4492.820512,4188.205128,4431.794871,4222.051282,4228.205128,4495.384615,4215.384615,4650.256410,3980.512821,4053.333333
201,4433.333333,4498.974358,4524.615384,4254.871794,4493.846153,4183.589743,4424.615384,4219.487179,4232.307692,4493.846153,4202.051282,4642.564102,3964.615385,4047.179487
202,4439.487179,4502.564102,4523.076923,4252.307692,4490.256410,4182.564102,4423.589743,4220.000000,4228.205128,4498.461538,4201.025641,4640.512820,3957.435898,4047.179487
203,4446.666666,4508.717948,4525.128205,4255.897435,4488.717948,4184.102564,4426.153846,4218.974358,4221.025641,4497.435897,4209.230769,4641.538461,3960.000000,4046.153846
204,4441.538461,4507.692307,4528.717948,4261.025641,4494.871794,4189.743589,4428.717948,4223.076923,4225.128205,4501.025641,4208.717948,4641.025641,3965.641026,4049.743589
205,4430.769230,4503.589743,4528.205128,4254.871794,4497.435897,4189.743589,4423.589743,4222.564102,4231.282051,4501.538461,4205.128205,4636.923076,3967.179488,4051.282051
206,4433.333333,4507.692307,4526.666666,4246.153846,4494.871794,4188.717948,4420.512820,4217.948717,4231.282051,4494.358974,4206.666666,4636.410256,3967.179488,4046.153846
207,4445.641025,4508.205128,4528.205128,4254.358974,4495.897435,4193.846153,4428.717948,4222.564102,4229.743589,4493.333333,4210.769230,4643.076923,3963.076924,4043.589743
208,4447.692307,4504.615384,4530.769230,4266.153846,4497.435897,4193.846153,4435.897435,4227.179487,4224.615384,4498.461538,4198.974358,4646.666666,3960.000000,4045.128205
209,4435.384615,4505.128205,4530.769230,4258.461538,4498.461538,4191.282051,4430.769230,4222.564102,4223.076923,4493.846153,4187.692307,4643.076923,3966.153847,4045.641025
210,4430.769230,4502.564102,4528.717948,4247.179487,4500.000000,4194.871794,4426.666666,4223.076923,4226.666666,4486.666666,4202.564102,4641.025641,3971.282052,4048.205128
211,4437.948717,4496.923076,4528.205128,4251.282051,4499.487179,4196.410256,4429.230769,4229.743589,4232.820512,4491.282051,4217.435897,4643.076923,3965.128206,4050.769230
212,4445.641025,4500.512820,4529.230769,4257.948717,4496.923076,4192.820512,4429.230769,4229.743589,4231.282051,4498.974358,4207.179487,4643.076923,3960.000000,4046.666666
213,4442.564102,4507.692307,4528.717948,4260.512820,4494.871794,4189.743589,4425.128205,4223.589743,4224.615384,4496.410256,4198.461538,4640.512820,3966.666667,4045.128205
214,4429.230769,4506.666666,4525.641025,4261.538461,4496.923076,4190.769230,4421.538461,4216.410256,4223.076923,4494.358974,4198.461538,4640.512820,3971.282052,4047.692307
215,4428.717948,4505.641025,4523.589743,4262.051282,4499.487179,4191.794871,4423.589743,4212.307692,4223.589743,4497.948717,4196.410256,4643.589743,3969.230770,4046.666666
216,4441.538461,4506.666666,4528.205128,4263.076923,4496.923076,4190.256410,4427.692307,4216.410256,4223.589743,4495.897435,4202.051282,4645.641025,3968.717949,4046.666666
217,4448.205128,4505.128205,4533.846153,4263.076923,4497.435897,4186.666666,4429.230769,4222.051282,4223.589743,4495.384615,4202.051282,4646.153846,3969.743590,4052.307692
218,4442.051282,4507.692307,4534.358974,4263.589743,4501.538461,4188.717948,4430.256410,4222.051282,4222.564102,4500.512820,4195.384615,4645.128205,3971.282052,4055.384615
219,4440.000000,4511.794871,4533.333333,4268.205128,4498.974358,4188.717948,4431.282051,4223.589743,4223.589743,4503.589743,4207.692307,4646.666666,3971.794872,4057.435897
220,4444.615384,4505.641025,4532.820512,4267.692307,4495.384615,4184.102564,4430.769230,4226.666666,4230.256410,4501.025641,4217.948717,4647.692307,3973.846154,4056.923076
221,4440.512820,4491.282051,4527.692307,4263.076923,4495.384615,4185.641025,4427.692307,4224.615384,4228.205128,4492.820512,4200.000000,4640.000000,3969.230770,4043.589743
222,4436.923076,4494.358974,4524.615384,4266.666666,4495.897435,4186.666666,4423.076923,4216.923076,4212.820512,4483.589743,4189.743589,4632.820512,3960.000000,4037.435897
223,4440.512820,4513.333333,4529.230769,4271.282051,4499.487179,4184.102564,4423.076923,4216.923076,4213.846153,4490.256410,4211.282051,4637.948717,3965.641026,4052.820512
224,4442.564102,4516.410256,4533.846153,4270.256410,4504.102564,4188.205128,4429.230769,4227.179487,4230.769230,4506.666666,4227.692307,4646.153846,3982.564103,4064.102564
225,4441.538461,4506.666666,4533.333333,4264.102564,4503.076923,4195.384615,4431.282051,4232.820512,4233.333333,4506.666666,4218.974358,4648.205128,3981.538462,4055.384615
226,4442.051282,4503.589743,4528.717948,4252.307692,4497.435897,4192.307692,4424.615384,4225.128205,4224.615384,4495.897435,4202.564102,4643.076923,3965.128206,4046.666666
227,4443.589743,4509.743589,4526.666666,4252.307692,4496.923076,4185.641025,4422.564102,4216.923076,4227.179487,4495.897435,4193.333333,4636.923076,3960.000000,4050.769230
228,4442.051282,4517.435897,4528.717948,4261.025641,4498.974358,4185.641025,4426.153846,4216.410256,4228.205128,4498.974358,4194.871794,4636.410256,3968.717949,4057.948717
229,4438.461538,4524.615384,4530.256410,4257.948717,4497.948717,4189.230769,4429.230769,4218.461538,4221.025641,4497.435897,4206.153846,4638.974358,3977.948718,4056.410256
230,4438.974358,4532.820512,4531.282051,4253.333333,4496.923076,4191.282051,4430.769230,4222.051282,4223.589743,4499.487179,4214.358974,4642.051282,3984.615385,4053.846153
231,4445.641025,4538.974358,4532.820512,4255.384615,4497.948717,4190.769230,4421.538461,4221.538461,4225.128205,4500.512820,4211.282051,4642.564102,3985.641026,4056.923076
232,4446.666666,4540.000000,4531.282051,4251.282051,4499.487179,4186.666666,4412.307692,4218.461538,4226.666666,4502.564102,4209.230769,4640.000000,3983.076924,4058.974358
233,4443.076923,4538.461538,4530.769230,4251.794871,4498.461538,4183.076923,4420.000000,4226.666666,4241.025641,4513.846153,4212.307692,4640.000000,3986.153847,4063.589743
234,4444.102564,4546.153846,4533.333333,4259.487179,4500.000000,4188.717948,4431.794871,4237.435897,4249.230769,4517.435897,4205.641025,4645.128205,3992.820513,4065.641025
235,4445.128205,4556.410256,4533.333333,4252.820512,4503.589743,4196.923076,4430.769230,4236.410256,4240.000000,4507.692307,4203.589743,4647.179487,3994.871795,4058.461538
236,4443.589743,4549.743589,4531.282051,4246.153846,4504.615384,4193.846153,4427.692307,4233.333333,4235.384615,4502.051282,4212.307692,4643.076923,3989.743590,4056.923076
237,4443.076923,4543.076923,4530.769230,4249.743589,4500.512820,4189.230769,4427.692307,4232.307692,4237.435897,4501.538461,4211.794871,4641.538461,3980.512821,4061.025641
238,4445.128205,4546.153846,4531.794871,4250.769230,4498.461538,4192.820512,4425.641025,4228.717948,4230.256410,4499.487179,4206.666666,4643.589743,3980.000000,4060.000000
239,4442.051282,4547.179487,4534.871794,4252.820512,4502.564102,4193.333333,4428.205128,4232.307692,4227.179487,4498.461538,4208.205128,4647.179487,3991.282052,4055.384615
240,4432.820512,4546.666666,4534.358974,4258.461538,4503.076923,4191.282051,4431.282051,4233.846153,4229.230769,4490.256410,4203.589743,4645.128205,3991.282052,4051.794871
241,4435.897435,4549.743589,4531.282051,4262.051282,4506.153846,4196.410256,4429.230769,4229.230769,4229.230769,4483.076923,4201.025641,4643.076923,3974.358975,4053.846153
242,4455.384615,4547.692307,4536.923076,4263.589743,4508.717948,4198.974358,4433.333333,4236.410256,4233.846153,4496.410256,4210.256410,4652.307692,3975.384616,4068.717948
243,4465.128205,4548.205128,4544.615384,4266.153846,4507.179487,4198.461538,4441.025641,4246.153846,4237.435897,4513.333333,4215.897435,4663.589743,4000.512820,4078.974358
244,4453.333333,4556.410256,4543.076923,4265.641025,4507.692307,4201.025641,4441.025641,4240.000000,4235.384615,4514.871794,4220.000000,4663.076923,4008.205128,4067.692307
245,4443.589743,4555.384615,4537.435897,4266.666666,4507.692307,4201.025641,4437.948717,4232.820512,4235.897435,4510.256410,4220.512820,4655.384615,3990.769231,4058.974358
246,4448.717948,4548.205128,4534.871794,4264.615384,4504.615384,4198.461538,4435.384615,4233.333333,4240.512820,4507.179487,4213.846153,4653.846153,3984.102565,4065.128205
247,4449.230769,4543.589743,4529.743589,4252.820512,4502.051282,4195.384615,4429.230769,4228.717948,4235.897435,4502.564102,4206.153846,4650.256410,3982.564103,4064.102564
248,4432.820512,4537.435897,4521.538461,4250.256410,4498.461538,4190.256410,4424.615384,4219.487179,4227.179487,4497.435897,4200.000000,4639.487179,3968.205129,4045.128205
249,4425.128205,4534.358974,4521.538461,4262.051282,4501.025641,4190.769230,4427.179487,4222.051282,4229.743589,4496.923076,4203.589743,4640.000000,3968.717949,4042.051282
250,4440.000000,4538.461538,4528.717948,4267.179487,4506.153846,4198.461538,4430.769230,4231.282051,4237.948717,4501.538461,4211.282051,4649.743589,3989.230770,4057.435897
251,4449.230769,4548.205128,4530.769230,4260.000000,4501.538461,4199.487179,4428.717948,4231.282051,4235.897435,4501.538461,4202.564102,4650.769230,3992.307693,4060.000000
252,4443.076923,4550.256410,4530.256410,4261.538461,4497.948717,4194.871794,4428.717948,4226.666666,4234.871794,4496.410256,4192.820512,4647.179487,3980.512821,4053.333333
253,4442.564102,4540.000000,4533.333333,4266.153846,4505.128205,4196.923076,4432.820512,4229.743589,4241.025641,4497.948717,4204.615384,4653.333333,3977.948718,4053.846153
254,4444.102564,4535.384615,4534.358974,4254.358974,4504.615384,4202.564102,4432.820512,4234.358974,4241.025641,4506.666666,4214.358974,4658.461538,3984.102565,4056.410256
255,4437.435897,4540.512820,4531.282051,4246.153846,4498.974358,4198.974358,4430.769230,4230.769230,4236.923076,4506.666666,4202.051282,4653.333333,3989.743590,4055.384615
256,4436.410256,4534.871794,4528.717948,4254.358974,4498.461538,4194.871794,4434.358974,4229.743589,4237.435897,4500.512820,4195.897435,4649.230769,3987.179488,4054.358974
257,4445.641025,4528.717948,4527.692307,4257.435897,4497.948717,4199.487179,4437.948717,4234.871794,4235.384615,4500.000000,4203.589743,4652.307692,3977.435898,4049.230769
258,4440.512820,4532.820512,4527.692307,4250.256410,4495.384615,4200.512820,4436.410256,4233.333333,4231.794871,4503.076923,4204.615384,4655.897435,3974.358975,4044.102564
259,4427.179487,4532.307692,4525.128205,4247.692307,4495.384615,4197.948717,4432.307692,4228.717948,4227.692307,4501.538461,4198.974358,4652.307692,3978.461539,4046.666666
260,4432.307692,4529.230769,4524.615384,4250.256410,4497.948717,4198.974358,4434.871794,4229.230769,4228.205128,4498.974358,4201.025641,4648.205128,3983.589744,4055.384615
261,4446.153846,4531.282051,4528.717948,4256.410256,4498.461538,4200.000000,4436.923076,4232.307692,4240.000000,4503.076923,4210.256410,4653.333333,3983.076924,4054.358974
262,4447.179487,4531.282051,4531.794871,4260.000000,4497.948717,4201.025641,4432.307692,4235.384615,4246.666666,4504.615384,4212.307692,4660.000000,3980.512821,4045.128205
263,4435.384615,4523.589743,4529.743589,4257.948717,4496.410256,4201.025641,4433.846153,4238.974358,4238.974358,4497.948717,4209.743589,4655.384615,3985.128206,4044.615384
