,AF3,F7,F3,FC5,T7,P7,O1,O2,P8,T8,FC6,F4,F8,AF4
0,4406.153846,4508.205128,4549.230769,4300.000000,4462.564102,4158.461538,4443.589743,4222.564102,4234.358974,4510.769230,4229.743589,4633.333333,4007.692307,4064.615384
1,4398.974358,4506.153846,4541.025641,4294.358974,4460.000000,4154.871794,4440.000000,4212.820512,4230.769230,4509.230769,4235.897435,4632.307692,4004.102564,4056.410256
2,4404.615384,4507.179487,4541.538461,4295.384615,4460.512820,4155.384615,4441.025641,4214.871794,4234.358974,4525.128205,4238.974358,4635.384615,4009.230769,4063.076923
3,4405.641025,4514.358974,4546.666666,4297.435897,4466.153846,4157.435897,4443.076923,4221.025641,4233.333333,4527.692307,4234.871794,4633.333333,4005.128205,4065.128205
4,4404.615384,4518.974358,4544.102564,4297.435897,4471.794871,4160.000000,4441.538461,4216.410256,4234.871794,4517.948717,4229.230769,4630.256410,3996.923077,4057.948717
5,4412.307692,4525.128205,4542.051282,4304.102564,4467.692307,4161.025641,4441.538461,4216.923076,4241.538461,4521.025641,4228.205128,4635.897435,4006.666666,4060.512820
6,4413.846153,4535.897435,4546.153846,4304.615384,4466.153846,4161.538461,4443.076923,4224.615384,4243.076923,4524.102564,4231.794871,4639.487179,4016.923076,4065.128205
7,4410.769230,4539.487179,4545.641025,4294.871794,4467.692307,4161.025641,4441.025641,4219.487179,4236.923076,4521.538461,4232.307692,4633.846153,4010.256410,4060.512820
8,4413.846153,4540.000000,4544.102564,4292.307692,4464.615384,4159.487179,4442.051282,4216.923076,4235.897435,4524.102564,4228.205128,4635.897435,4006.666666,4059.487179
9,4414.871794,4546.153846,4548.717948,4296.410256,4464.102564,4158.461538,4442.564102,4225.641025,4236.923076,4524.102564,4232.820512,4642.051282,4004.102564,4062.564102
10,4413.333333,4548.205128,4551.282051,4295.897435,4467.179487,4158.461538,4436.923076,4223.589743,4230.769230,4516.923076,4236.923076,4638.461538,3996.410257,4058.974358
11,4412.820512,4545.641025,4545.641025,4296.410256,4461.025641,4153.333333,4437.948717,4214.871794,4226.153846,4508.717948,4224.102564,4631.282051,3998.974359,4053.846153
12,4410.769230,4543.589743,4541.538461,4296.923076,4456.410256,4150.769230,4438.974358,4213.333333,4222.564102,4505.641025,4210.256410,4631.282051,4000.512820,4052.307692
13,4408.717948,4542.051282,4541.025641,4290.256410,4460.000000,4153.846153,4430.256410,4210.769230,4221.538461,4509.230769,4217.435897,4631.282051,3991.282052,4050.256410
14,4408.205128,4542.564102,4540.512820,4286.666666,4461.025641,4152.820512,4429.230769,4209.743589,4222.564102,4511.794871,4229.743589,4629.743589,3992.820513,4052.307692
15,4411.794871,4545.128205,4540.512820,4295.384615,4464.615384,4153.846153,4435.897435,4214.358974,4222.564102,4506.153846,4225.128205,4633.333333,4006.153846,4058.461538
16,4415.384615,4547.692307,4542.051282,4300.000000,4466.153846,4154.871794,4432.820512,4215.384615,4223.589743,4508.205128,4218.974358,4636.923076,4008.717948,4060.000000
17,4411.794871,4551.794871,4544.102564,4293.333333,4459.487179,4152.820512,4430.256410,4211.794871,4225.641025,4516.410256,4226.153846,4635.897435,3998.974359,4058.974358
18,4414.358974,4555.897435,4545.128205,4291.794871,4459.487179,4152.820512,4440.000000,4217.948717,4234.871794,4522.051282,4240.000000,4639.487179,4001.025641,4066.153846
19,4425.641025,4555.384615,4548.205128,4296.923076,4463.076923,4153.846153,4445.641025,4228.205128,4244.615384,4530.256410,4248.205128,4647.692307,4020.512820,4072.820512
20,4424.102564,4551.282051,4549.230769,4292.820512,4459.487179,4151.282051,4441.025641,4226.153846,4242.051282,4531.794871,4245.128205,4647.692307,4026.666666,4070.769230
21,4416.410256,4548.717948,4547.692307,4291.282051,4462.564102,4153.846153,4436.410256,4222.051282,4236.923076,4522.051282,4238.461538,4641.538461,4013.333333,4065.128205
22,4421.025641,4551.794871,4546.666666,4298.974358,4471.794871,4162.051282,4437.948717,4226.153846,4240.512820,4520.000000,4232.307692,4642.051282,4010.769230,4065.641025
23,4421.538461,4554.871794,4543.076923,4297.948717,4468.717948,4160.000000,4434.358974,4223.589743,4240.512820,4525.128205,4230.256410,4642.564102,4013.333333,4063.076923
24,4412.307692,4552.820512,4540.512820,4291.282051,4460.000000,4151.794871,4427.692307,4213.846153,4230.256410,4520.000000,4235.897435,4636.410256,4006.153846,4056.923076
25,4411.794871,4549.743589,4540.000000,4292.307692,4460.000000,4152.820512,4429.230769,4214.871794,4229.743589,4517.435897,4237.948717,4632.820512,4002.564102,4060.000000
26,4413.846153,4543.076923,4535.897435,4291.794871,4462.051282,4155.897435,4434.358974,4219.487179,4233.333333,4524.615384,4222.051282,4632.307692,4002.564102,4062.051282
27,4408.717948,4538.974358,4532.307692,4288.717948,4460.000000,4151.794871,4437.435897,4217.435897,4230.256410,4520.000000,4212.820512,4630.256410,3998.974359,4054.358974
28,4409.230769,4540.512820,4533.846153,4292.820512,4460.512820,4152.307692,4441.538461,4220.000000,4230.769230,4512.820512,4227.692307,4630.256410,4005.641025,4054.358974
29,4412.307692,4544.102564,4537.948717,4295.384615,4466.153846,4161.025641,4444.102564,4224.102564,4234.358974,4520.000000,4235.384615,4631.794871,4014.871794,4061.538461
30,4413.333333,4546.153846,4541.025641,4295.384615,4468.205128,4164.102564,4444.102564,4222.051282,4234.871794,4524.615384,4233.333333,4634.358974,4008.717948,4060.000000
31,4420.000000,4544.615384,4545.128205,4300.000000,4465.128205,4163.076923,4444.615384,4224.102564,4235.384615,4522.564102,4234.358974,4639.487179,4006.153846,4061.538461
32,4429.230769,4549.743589,4550.769230,4304.102564,4471.282051,4167.692307,4444.615384,4229.230769,4240.000000,4530.256410,4233.333333,4644.102564,4012.307692,4071.282051
33,4427.179487,4554.871794,4553.333333,4303.589743,4472.820512,4166.153846,4443.076923,4226.666666,4236.410256,4532.307692,4242.051282,4648.205128,4013.333333,4071.282051
34,4417.435897,4545.641025,4549.743589,4305.128205,4463.589743,4161.025641,4441.025641,4217.948717,4227.179487,4519.487179,4251.794871,4646.666666,4012.820512,4066.666666
35,4416.410256,4536.923076,4547.692307,4306.153846,4463.076923,4161.538461,4441.025641,4215.384615,4224.102564,4507.692307,4241.538461,4640.512820,4014.358974,4071.282051
36,4423.076923,4540.000000,4547.179487,4307.179487,4467.692307,4164.615384,4442.564102,4217.435897,4226.153846,4508.205128,4228.205128,4640.512820,4012.820512,4075.897435
37,4425.641025,4545.641025,4547.179487,4309.230769,4467.179487,4163.589743,4442.564102,4215.897435,4226.666666,4515.384615,4229.743589,4644.615384,4012.307692,4072.307692
38,4423.589743,4548.205128,4550.256410,4306.153846,4469.230769,4162.564102,4438.974358,4215.384615,4225.641025,4520.000000,4234.871794,4644.102564,4016.923076,4073.333333
39,4421.025641,4545.641025,4550.256410,4300.512820,4467.692307,4160.512820,4435.384615,4215.384615,4222.564102,4515.897435,4236.410256,4640.000000,4011.794871,4075.384615
40,4415.384615,4537.948717,4544.102564,4300.512820,4458.974358,4154.358974,4430.256410,4211.282051,4216.923076,4508.205128,4230.769230,4634.358974,4000.000000,4067.179487
41,4409.743589,4535.384615,4537.435897,4295.897435,4455.384615,4149.743589,4427.179487,4203.589743,4214.358974,4502.051282,4228.717948,4630.256410,3995.384616,4063.589743
42,4417.948717,4542.564102,4541.025641,4292.307692,4457.948717,4155.384615,4433.846153,4205.641025,4222.051282,4508.717948,4249.743589,4635.897435,4002.564102,4072.307692
43,4429.743589,4547.179487,4550.256410,4301.025641,4462.051282,4166.666666,4441.538461,4216.410256,4238.461538,4526.666666,4270.256410,4643.589743,4015.384615,4081.025641
44,4430.256410,4547.179487,4550.256410,4308.717948,4467.692307,4167.179487,4442.564102,4216.410256,4238.974358,4527.692307,4266.666666,4642.564102,4017.435897,4075.897435
45,4425.641025,4545.641025,4543.076923,4308.717948,4470.256410,4163.076923,4441.538461,4211.794871,4228.205128,4516.923076,4262.564102,4640.512820,4013.846153,4072.307692
46,4423.589743,4544.615384,4542.051282,4306.153846,4469.230769,4169.743589,4444.615384,4216.923076,4231.282051,4520.512820,4267.179487,4638.974358,4013.333333,4078.461538
47,4420.000000,4540.512820,4544.102564,4300.000000,4462.051282,4170.256410,4445.128205,4223.076923,4235.897435,4524.102564,4267.179487,4635.897435,4006.153846,4074.358974
48,4414.871794,4532.820512,4537.435897,4294.358974,4457.948717,4157.948717,4442.564102,4221.538461,4232.307692,4514.358974,4266.666666,4631.794871,3999.487180,4064.102564
49,4412.307692,4532.307692,4535.384615,4298.461538,4461.538461,4157.948717,4443.589743,4220.000000,4231.282051,4511.282051,4269.230769,4632.307692,4005.641025,4068.205128
50,4414.871794,4536.923076,4542.564102,4304.102564,4465.641025,4164.615384,4444.615384,4220.000000,4233.333333,4519.487179,4263.076923,4633.333333,4012.820512,4074.871794
51,4415.897435,4533.846153,4540.512820,4301.538461,4466.153846,4161.025641,4444.102564,4218.974358,4233.846153,4524.102564,4260.512820,4632.307692,4011.794871,4070.256410
52,4411.794871,4529.230769,4535.897435,4295.897435,4461.538461,4158.461538,4442.564102,4217.435897,4234.358974,4523.076923,4271.282051,4631.282051,4006.153846,4064.615384
53,4409.743589,4528.717948,4536.410256,4292.820512,4457.948717,4163.589743,4442.051282,4216.923076,4228.717948,4517.435897,4274.358974,4629.230769,3997.948718,4061.025641
54,4414.358974,4533.846153,4538.461538,4295.897435,4463.589743,4166.153846,4444.615384,4217.435897,4223.076923,4515.384615,4268.717948,4633.846153,3999.487180,4062.564102
55,4414.871794,4532.820512,4539.487179,4297.435897,4467.692307,4164.615384,4443.589743,4214.871794,4223.589743,4515.384615,4264.102564,4636.410256,4009.230769,4068.205128
56,4410.769230,4529.230769,4536.410256,4293.333333,4462.564102,4166.153846,4441.538461,4211.794871,4221.538461,4509.230769,4252.820512,4631.282051,4006.153846,4065.641025
57,4417.435897,4534.871794,4536.410256,4300.000000,4464.615384,4168.205128,4450.769230,4220.000000,4224.102564,4507.179487,4250.769230,4632.820512,4001.538461,4065.641025
58,4428.205128,4538.461538,4545.128205,4312.820512,4469.230769,4169.743589,4459.487179,4230.256410,4232.820512,4516.410256,4266.666666,4642.051282,4006.153846,4074.358974
59,4424.102564,4534.871794,4550.256410,4306.666666,4468.717948,4170.769230,4460.000000,4227.179487,4237.435897,4522.051282,4272.307692,4644.102564,4008.717948,4075.384615
60,4412.820512,4533.846153,4542.051282,4292.820512,4470.769230,4169.743589,4457.435897,4222.051282,4235.384615,4522.051282,4259.487179,4637.435897,4007.179487,4066.666666
61,4412.307692,4531.794871,4535.897435,4293.333333,4468.205128,4169.743589,4452.307692,4221.025641,4226.666666,4517.948717,4258.974358,4632.307692,4004.102564,4060.512820
62,4413.846153,4522.564102,4538.461538,4297.948717,4464.615384,4167.692307,4444.615384,4216.410256,4219.487179,4510.769230,4267.692307,4630.769230,4001.538461,4062.564102
63,4413.846153,4520.512820,4542.564102,4298.974358,4468.205128,4167.179487,4443.589743,4213.333333,4224.102564,4513.333333,4261.025641,4632.307692,4007.692307,4071.794871
64,4413.846153,4527.179487,4542.564102,4298.461538,4467.179487,4168.717948,4445.641025,4216.923076,4237.435897,4525.128205,4255.384615,4634.358974,4011.282051,4070.769230
65,4405.128205,4522.051282,4537.948717,4286.153846,4456.923076,4162.051282,4444.102564,4216.923076,4234.358974,4524.102564,4258.974358,4629.230769,4001.025641,4058.461538
66,4400.512820,4512.307692,4536.923076,4277.435897,4456.923076,4152.307692,4444.615384,4216.410256,4218.974358,4514.358974,4258.461538,4626.666666,3995.897436,4055.384615
67,4410.769230,4514.358974,4538.461538,4288.205128,4461.538461,4158.461538,4445.128205,4219.487179,4219.487179,4507.692307,4256.923076,4630.769230,4001.025641,4061.538461
68,4413.846153,4518.974358,4535.384615,4296.923076,4460.512820,4168.205128,4444.102564,4216.923076,4228.205128,4503.076923,4257.435897,4629.743589,3995.384616,4060.512820
69,4401.025641,4513.846153,4532.307692,4292.307692,4461.025641,4161.538461,4444.102564,4213.333333,4223.589743,4504.102564,4250.256410,4623.589743,3991.282052,4053.846153
70,4397.435897,4511.282051,4533.846153,4288.717948,4460.000000,4156.410256,4443.076923,4214.358974,4219.487179,4514.358974,4239.487179,4620.512820,3996.923077,4052.820512
71,4407.692307,4513.846153,4534.871794,4291.794871,4457.948717,4164.102564,4442.564102,4217.435897,4230.256410,4523.589743,4243.076923,4624.615384,4002.051282,4056.410256
72,4415.384615,4517.948717,4537.435897,4294.358974,4464.102564,4171.282051,4445.128205,4219.487179,4236.923076,4525.641025,4258.974358,4631.794871,4003.589743,4062.564102
73,4412.307692,4514.358974,4540.512820,4292.820512,4470.769230,4169.743589,4446.153846,4218.974358,4232.307692,4522.051282,4265.641025,4633.846153,4001.025641,4064.615384
74,4405.641025,4510.256410,4537.435897,4290.769230,4464.615384,4166.153846,4444.102564,4216.410256,4230.256410,4517.948717,4258.461538,4630.769230,4000.512820,4061.025641
75,4411.282051,4521.025641,4536.410256,4298.974358,4461.025641,4163.589743,4441.538461,4215.897435,4234.871794,4522.564102,4255.384615,4631.794871,4007.179487,4064.102564
76,4421.538461,4531.794871,4545.641025,4307.692307,4467.179487,4165.128205,4443.076923,4217.948717,4241.538461,4533.333333,4265.128205,4642.051282,4012.307692,4074.871794
77,4423.589743,4527.179487,4552.820512,4304.102564,4470.769230,4171.794871,4446.153846,4218.974358,4242.564102,4534.871794,4270.769230,4648.205128,4011.282051,4080.000000
78,4416.410256,4520.512820,4548.205128,4295.897435,4466.153846,4169.230769,4444.615384,4217.948717,4232.820512,4521.025641,4267.179487,4642.564102,4006.153846,4073.846153
79,4405.641025,4519.487179,4537.948717,4292.307692,4462.051282,4155.897435,4440.512820,4208.717948,4220.000000,4505.641025,4253.333333,4631.282051,3993.846154,4062.051282
80,4403.589743,4516.410256,4535.384615,4295.384615,4461.538461,4155.897435,4442.051282,4201.025641,4215.384615,4502.564102,4243.589743,4628.717948,3989.743590,4057.435897
81,4410.256410,4519.487179,4542.051282,4301.538461,4462.564102,4164.615384,4442.564102,4203.589743,4219.487179,4506.153846,4247.692307,4634.871794,4000.000000,4057.948717
82,4404.102564,4518.974358,4538.461538,4300.000000,4461.538461,4160.512820,4433.333333,4199.487179,4220.512820,4509.230769,4243.589743,4629.743589,3993.846154,4050.769230
83,4388.717948,4504.615384,4523.076923,4290.256410,4457.435897,4152.820512,4426.666666,4188.205128,4212.820512,4503.589743,4227.179487,4617.435897,3969.743590,4040.000000
84,4389.743589,4502.564102,4523.076923,4288.717948,4460.512820,4158.461538,4428.717948,4190.769230,4208.717948,4491.794871,4229.230769,4615.384615,3965.641026,4041.538461
85,4398.461538,4509.743589,4533.333333,4294.358974,4464.615384,4161.025641,4432.820512,4203.076923,4218.974358,4497.435897,4242.564102,4619.487179,3980.512821,4048.205128
86,4398.461538,4508.717948,4532.307692,4293.846153,4461.538461,4154.871794,4435.384615,4207.692307,4229.743589,4518.461538,4247.179487,4622.051282,3992.307693,4049.743589
87,4397.435897,4505.128205,4529.743589,4292.307692,4457.948717,4154.871794,4430.256410,4207.692307,4233.333333,4525.641025,4253.333333,4625.641025,3996.923077,4051.794871
88,4402.051282,4505.128205,4534.871794,4293.846153,4457.435897,4154.358974,4428.717948,4212.820512,4234.871794,4521.538461,4257.435897,4629.230769,4002.051282,4056.923076
89,4408.205128,4506.666666,4538.974358,4296.410256,4460.000000,4154.871794,4438.461538,4217.948717,4235.897435,4523.076923,4253.846153,4631.282051,4002.564102,4062.564102
90,4410.256410,4512.307692,4537.948717,4298.461538,4464.102564,4158.974358,4440.000000,4212.307692,4230.769230,4521.538461,4254.358974,4633.846153,3995.384616,4063.076923
91,4403.076923,4515.897435,4535.897435,4295.897435,4462.564102,4158.461538,4429.230769,4200.512820,4220.000000,4512.820512,4253.333333,4631.282051,3992.820513,4060.000000
92,4396.410256,4510.256410,4533.846153,4289.743589,4454.871794,4153.333333,4425.641025,4196.923076,4212.307692,4504.615384,4249.230769,4625.641025,3996.410257,4054.871794
93,4401.538461,4505.641025,4536.410256,4292.307692,4453.333333,4150.769230,4429.743589,4200.000000,4216.923076,4502.051282,4248.717948,4627.692307,3995.897436,4055.897435
94,4406.153846,4507.179487,4541.025641,4299.487179,4457.948717,4154.871794,4430.256410,4200.512820,4225.641025,4505.641025,4244.615384,4631.794871,3993.333334,4058.974358
95,4401.025641,4507.179487,4534.871794,4299.487179,4460.512820,4156.410256,4427.179487,4198.461538,4221.025641,4503.076923,4238.974358,4628.717948,3991.282052,4054.358974
96,4396.410256,4507.179487,4530.769230,4295.384615,4460.000000,4156.923076,4429.743589,4197.435897,4212.307692,4500.000000,4242.051282,4626.153846,3986.153847,4051.794871
97,4400.000000,4503.589743,4537.948717,4287.692307,4454.871794,4155.384615,4438.461538,4202.564102,4216.410256,4507.692307,4249.743589,4631.282051,3987.179488,4060.512820
98,4399.487179,4500.000000,4537.948717,4285.128205,4453.333333,4152.307692,4437.435897,4208.717948,4222.051282,4511.282051,4255.384615,4633.333333,3997.948718,4061.538461
99,4395.897435,4502.564102,4531.794871,4289.230769,4453.333333,4151.794871,4428.717948,4208.205128,4223.076923,4507.179487,4257.435897,4628.205128,4002.051282,4052.820512
100,4393.333333,4502.051282,4532.820512,4289.230769,4450.256410,4154.358974,4428.205128,4203.589743,4222.051282,4507.692307,4240.000000,4621.538461,3993.846154,4051.794871
101,4387.179487,4489.743589,4527.179487,4278.974358,4445.641025,4149.230769,4424.615384,4195.897435,4213.333333,4505.128205,4220.000000,4616.410256,3980.000000,4047.179487
102,4385.641025,4486.666666,4523.076923,4278.461538,4444.615384,4143.589743,4418.974358,4194.358974,4209.230769,4502.564102,4231.794871,4618.974358,3976.923077,4044.102564
103,4392.820512,4501.025641,4532.820512,4289.230769,4451.794871,4151.282051,4425.641025,4202.564102,4222.051282,4514.358974,4251.282051,4624.615384,3991.282052,4053.846153
104,4394.358974,4510.256410,4534.358974,4286.666666,4458.461538,4155.897435,4429.230769,4201.538461,4224.102564,4516.410256,4250.769230,4624.615384,3997.435898,4055.384615
105,4395.897435,4513.333333,4531.282051,4280.000000,4458.461538,4154.871794,4427.179487,4201.025641,4220.000000,4506.153846,4248.717948,4629.743589,3991.794872,4054.871794
106,4404.615384,4519.487179,4540.512820,4284.102564,4456.923076,4158.461538,4433.333333,4213.846153,4233.333333,4514.871794,4252.820512,4641.538461,3998.974359,4065.641025
107,4405.128205,4523.076923,4544.615384,4287.179487,4455.384615,4157.948717,4434.358974,4215.384615,4240.512820,4524.615384,4245.641025,4641.025641,4007.692307,4067.692307
108,4395.897435,4521.025641,4531.794871,4280.512820,4451.282051,4149.743589,4426.666666,4201.025641,4223.076923,4511.282051,4230.769230,4627.692307,3996.410257,4051.794871
109,4394.358974,4518.461538,4528.205128,4277.948717,4452.820512,4150.256410,4425.128205,4198.461538,4212.820512,4497.435897,4228.717948,4623.589743,3982.051283,4044.102564
110,4397.948717,4523.076923,4536.923076,4282.051282,4461.025641,4155.384615,4427.179487,4202.564102,4218.461538,4496.923076,4235.897435,4630.769230,3979.487180,4048.717948
111,4397.948717,4529.743589,4536.410256,4282.051282,4461.025641,4155.384615,4427.692307,4201.025641,4217.948717,4502.051282,4234.871794,4631.282051,3978.461539,4047.179487
112,4393.333333,4528.717948,4527.692307,4275.897435,4452.820512,4152.307692,4426.153846,4200.000000,4213.846153,4503.076923,4227.692307,4620.000000,3974.871795,4040.000000
113,4389.230769,4525.641025,4526.666666,4273.333333,4451.794871,4152.307692,4425.128205,4199.487179,4216.923076,4496.923076,4225.641025,4613.846153,3971.794872,4035.897435
114,4400.000000,4532.307692,4534.358974,4284.615384,4460.000000,4157.435897,4426.153846,4205.641025,4222.564102,4500.512820,4229.230769,4625.128205,3981.025642,4044.615384
115,4413.333333,4540.000000,4537.948717,4291.282051,4464.615384,4158.974358,4429.743589,4214.871794,4224.102564,4509.743589,4242.051282,4637.435897,3994.871795,4056.923076
116,4408.717948,4539.487179,4538.974358,4283.076923,4458.974358,4156.410256,4428.717948,4217.435897,4227.692307,4506.153846,4249.230769,4638.461538,3997.435898,4055.384615
117,4402.564102,4539.487179,4541.025641,4284.102564,4457.435897,4155.897435,4427.692307,4212.820512,4228.717948,4504.615384,4238.461538,4635.384615,3993.333334,4050.769230
118,4403.076923,4540.512820,4534.871794,4288.205128,4460.000000,4156.410256,4430.769230,4207.179487,4222.564102,4509.230769,4238.461538,4632.820512,3991.282052,4051.794871
119,4399.487179,4537.435897,4528.717948,4281.538461,4457.435897,4155.384615,4430.256410,4205.641025,4220.512820,4503.076923,4250.256410,4629.230769,3987.179488,4051.282051
120,4394.871794,4532.820512,4531.282051,4278.974358,4457.435897,4156.923076,4425.128205,4203.589743,4221.025641,4502.051282,4242.051282,4626.666666,3988.205129,4045.641025
121,4397.948717,4531.282051,4531.794871,4281.538461,4460.512820,4157.948717,4426.666666,4206.666666,4224.102564,4511.282051,4229.230769,4630.256410,3996.923077,4045.641025
122,4398.461538,4530.256410,4527.179487,4280.512820,4460.512820,4155.897435,4428.205128,4212.820512,4224.102564,4508.205128,4233.846153,4629.230769,3994.358975,4046.153846
123,4392.307692,4526.153846,4524.102564,4280.512820,4456.923076,4156.410256,4422.564102,4209.230769,4220.512820,4503.076923,4227.692307,4618.974358,3982.564103,4039.487179
124,4388.717948,4519.487179,4524.102564,4277.948717,4454.871794,4155.897435,4420.512820,4206.666666,4223.589743,4511.794871,4222.564102,4614.358974,3978.461539,4035.384615
125,4392.307692,4516.410256,4528.205128,4271.794871,4456.923076,4153.333333,4426.666666,4213.846153,4228.205128,4516.923076,4234.871794,4622.051282,3986.666667,4039.487179
126,4403.076923,4531.794871,4533.333333,4281.025641,4460.000000,4158.974358,4429.230769,4212.307692,4224.102564,4509.743589,4235.897435,4631.794871,3997.948718,4050.769230
127,4408.205128,4547.179487,4531.282051,4295.384615,4461.538461,4163.076923,4426.666666,4198.461538,4220.512820,4503.589743,4225.641025,4633.333333,3995.384616,4055.897435
128,4404.615384,4546.153846,4529.743589,4296.410256,4462.051282,4156.923076,4425.641025,4197.948717,4221.025641,4508.717948,4231.794871,4629.743589,3988.205129,4054.871794
129,4408.205128,4547.692307,4537.435897,4296.923076,4461.538461,4155.897435,4427.692307,4206.153846,4222.051282,4515.384615,4248.717948,4632.820512,3995.897436,4058.974358
130,4413.333333,4552.820512,4542.051282,4303.076923,4461.538461,4165.641025,4428.205128,4204.615384,4226.153846,4512.307692,4247.179487,4638.974358,4002.564102,4061.538461
131,4410.256410,4552.820512,4541.538461,4301.025641,4469.230769,4171.282051,4428.717948,4206.666666,4231.282051,4511.794871,4240.000000,4642.051282,3999.487180,4063.076923
132,4408.205128,4548.205128,4541.025641,4293.333333,4473.333333,4166.153846,4429.743589,4212.307692,4228.205128,4516.923076,4244.615384,4641.538461,3998.461539,4064.102564
133,4410.256410,4546.153846,4539.487179,4292.307692,4464.102564,4160.000000,4428.717948,4214.358974,4230.256410,4521.538461,4250.256410,4641.538461,4000.000000,4062.564102
134,4411.282051,4547.692307,4540.512820,4299.487179,4459.487179,4161.538461,4428.205128,4221.025641,4242.564102,4531.282051,4253.333333,4642.051282,4001.025641,4064.615384
135,4412.307692,4547.692307,4547.179487,4302.564102,4464.615384,4163.076923,4430.769230,4225.641025,4247.692307,4536.923076,4254.871794,4644.102564,4002.051282,4069.743589
136,4413.846153,4541.025641,4549.230769,4296.923076,4462.051282,4157.435897,4431.282051,4222.564102,4240.000000,4529.230769,4254.358974,4645.641025,4001.025641,4066.666666
137,4413.333333,4535.384615,4547.692307,4294.871794,4456.923076,4152.307692,4428.205128,4215.384615,4228.717948,4518.461538,4245.128205,4641.025641,3999.487180,4064.102564
138,4408.717948,4540.512820,4546.153846,4299.487179,4461.025641,4156.923076,4427.692307,4208.205128,4222.051282,4511.794871,4230.769230,4633.333333,3997.435898,4062.051282
139,4398.461538,4540.000000,4538.974358,4296.410256,4460.512820,4161.025641,4427.692307,4204.102564,4221.538461,4505.128205,4230.256410,4628.717948,3989.230770,4052.820512
140,4393.333333,4533.333333,4532.820512,4292.820512,4456.923076,4157.435897,4428.717948,4206.666666,4224.615384,4503.589743,4241.025641,4627.692307,3982.564103,4048.717948
141,4398.461538,4528.205128,4532.307692,4295.897435,4458.974358,4153.333333,4425.641025,4206.153846,4222.564102,4504.102564,4240.512820,4624.615384,3977.948718,4050.769230
142,4396.410256,4522.564102,4528.717948,4287.179487,4460.512820,4153.333333,4420.512820,4198.461538,4213.333333,4496.923076,4226.666666,4618.974358,3973.333334,4049.230769
143,4389.230769,4522.564102,4526.666666,4281.025641,4452.820512,4154.871794,4423.076923,4201.025641,4215.384615,4494.358974,4218.461538,4621.025641,3977.948718,4049.230769
144,4391.282051,4523.589743,4534.358974,4291.794871,4445.641025,4151.282051,4428.205128,4209.743589,4226.153846,4508.205128,4221.538461,4629.230769,3987.692308,4051.282051
145,4398.974358,4523.589743,4538.974358,4291.794871,4452.307692,4151.282051,4430.256410,4215.384615,4232.307692,4521.538461,4234.358974,4633.846153,3993.846154,4056.923076
146,4399.487179,4524.102564,4535.897435,4280.000000,4457.948717,4154.871794,4430.256410,4218.974358,4237.435897,4518.974358,4241.538461,4632.820512,3996.410257,4064.102564
147,4395.897435,4525.641025,4537.948717,4283.589743,4455.384615,4153.846153,4430.256410,4216.410256,4234.358974,4509.743589,4233.333333,4631.794871,3993.846154,4063.076923
148,4396.923076,4527.179487,4537.948717,4294.358974,4452.307692,4153.846153,4428.717948,4208.717948,4223.076923,4508.205128,4229.743589,4631.282051,3989.743590,4057.948717
149,4397.948717,4532.307692,4535.384615,4292.820512,4451.282051,4153.333333,4425.641025,4205.641025,4220.512820,4508.205128,4236.410256,4630.256410,3990.769231,4059.487179
150,4396.410256,4532.820512,4535.897435,4291.794871,4447.692307,4149.743589,4424.102564,4207.179487,4228.205128,4506.666666,4233.333333,4632.820512,3994.871795,4062.051282
151,4395.897435,4527.179487,4536.410256,4295.384615,4446.153846,4150.769230,4426.666666,4206.666666,4225.128205,4510.256410,4221.538461,4630.769230,3993.846154,4057.435897
152,4396.410256,4528.205128,4536.410256,4293.846153,4450.769230,4152.820512,4427.179487,4203.589743,4214.871794,4504.615384,4222.564102,4622.564102,3985.641026,4049.743589
153,4395.897435,4532.820512,4537.948717,4292.307692,4455.384615,4152.820512,4425.128205,4204.102564,4215.384615,4492.820512,4228.717948,4621.538461,3977.948718,4048.205128
154,4394.358974,4530.256410,4534.871794,4296.410256,4457.435897,4152.820512,4427.692307,4203.076923,4221.025641,4496.923076,4223.589743,4627.179487,3980.512821,4053.333333
155,4391.794871,4528.205128,4532.307692,4296.410256,4457.435897,4154.871794,4428.717948,4201.538461,4222.564102,4505.641025,4220.512820,4628.205128,3990.256411,4056.923076
156,4396.923076,4538.461538,4543.076923,4293.333333,4460.000000,4154.358974,4429.230769,4211.282051,4224.615384,4507.179487,4235.384615,4635.384615,3996.923077,4062.564102
157,4410.769230,4545.641025,4550.256410,4300.000000,4461.025641,4154.871794,4439.487179,4222.051282,4232.307692,4515.897435,4248.205128,4649.230769,4001.025641,4071.282051
158,4410.256410,4538.974358,4548.717948,4303.589743,4453.333333,4154.871794,4444.615384,4218.974358,4233.846153,4521.538461,4242.564102,4647.692307,4003.076923,4073.333333
159,4395.897435,4525.641025,4543.589743,4294.358974,4450.769230,4153.846153,4434.871794,4212.307692,4224.102564,4508.205128,4233.333333,4634.871794,3999.487180,4063.589743
160,4389.743589,4519.487179,4535.897435,4291.794871,4454.358974,4153.333333,4427.179487,4210.769230,4217.948717,4497.948717,4224.615384,4629.230769,3988.717949,4053.333333
161,4388.717948,4523.589743,4531.794871,4293.333333,4451.794871,4148.205128,4428.205128,4207.692307,4221.538461,4500.512820,4222.564102,4627.179487,3980.512821,4050.769230
162,4386.153846,4521.025641,4533.333333,4287.179487,4443.076923,4143.589743,4428.205128,4201.538461,4221.538461,4495.384615,4228.717948,4624.102564,3981.538462,4052.307692
163,4385.128205,4517.948717,4533.846153,4284.615384,4441.538461,4148.717948,4428.205128,4198.974358,4215.384615,4486.666666,4224.102564,4626.153846,3981.538462,4053.333333
164,4387.179487,4523.589743,4531.794871,4290.256410,4450.769230,4154.871794,4431.282051,4205.128205,4216.410256,4492.820512,4213.333333,4628.205128,3982.051283,4054.871794
165,4390.769230,4526.153846,4534.358974,4294.871794,4456.410256,4154.358974,4433.846153,4215.384615,4223.589743,4505.641025,4220.000000,4627.692307,3988.717949,4059.487179
166,4391.794871,4520.000000,4534.871794,4290.256410,4450.769230,4150.256410,4431.794871,4212.820512,4225.128205,4504.102564,4226.666666,4625.641025,3991.282052,4061.025641
167,4387.179487,4517.948717,4537.435897,4285.128205,4443.076923,4149.230769,4427.179487,4205.641025,4218.974358,4497.948717,4223.076923,4624.615384,3987.179488,4057.435897
168,4385.128205,4515.897435,4538.461538,4284.102564,4441.538461,4144.615384,4425.641025,4208.205128,4213.846153,4496.410256,4229.230769,4627.179487,3985.128206,4057.948717
169,4389.230769,4512.307692,4536.923076,4288.205128,4441.538461,4139.487179,4427.692307,4212.307692,4218.461538,4495.897435,4232.307692,4630.769230,3985.128206,4060.512820
170,4387.692307,4515.897435,4539.487179,4287.692307,4440.512820,4142.564102,4429.230769,4212.307692,4223.589743,4497.948717,4215.384615,4631.794871,3986.666667,4060.000000
171,4385.128205,4517.435897,4540.512820,4281.538461,4443.076923,4144.102564,4429.230769,4216.410256,4220.000000,4498.974358,4208.205128,4629.743589,3991.282052,4059.487179
172,4391.282051,4514.358974,4536.923076,4283.076923,4443.076923,4142.051282,4430.256410,4216.410256,4220.000000,4495.897435,4224.615384,4631.282051,3990.256411,4060.000000
173,4394.871794,4518.461538,4540.512820,4291.794871,4442.051282,4146.666666,4432.820512,4212.307692,4228.717948,4495.384615,4234.358974,4632.820512,3985.128206,4060.512820
174,4390.769230,4523.589743,4549.230769,4297.948717,4444.615384,4155.897435,4431.282051,4215.897435,4229.230769,4501.538461,4228.205128,4632.307692,3990.256411,4063.589743
175,4391.282051,4521.025641,4545.128205,4296.410256,4444.102564,4154.358974,4432.820512,4217.948717,4223.589743,4500.512820,4219.487179,4632.820512,3995.384616,4064.615384
176,4390.256410,4515.897435,4540.000000,4292.820512,4442.051282,4146.666666,4437.435897,4215.384615,4225.128205,4491.282051,4216.923076,4632.820512,3988.205129,4060.000000
177,4387.179487,4514.358974,4544.102564,4290.769230,4443.589743,4148.205128,4438.461538,4219.487179,4233.846153,4499.487179,4223.589743,4632.307692,3988.205129,4062.564102
178,4392.820512,4518.974358,4546.666666,4295.384615,4447.179487,4154.358974,4439.487179,4222.051282,4235.897435,4514.871794,4227.692307,4635.384615,3999.487180,4069.230769
179,4392.820512,4524.102564,4544.102564,4300.000000,4448.205128,4156.410256,4437.948717,4209.743589,4226.666666,4512.307692,4222.564102,4634.358974,3997.435898,4065.128205
180,4387.692307,4523.589743,4540.512820,4302.564102,4448.205128,4153.333333,4430.769230,4203.076923,4221.538461,4497.948717,4221.538461,4632.820512,3992.820513,4061.538461
181,4391.794871,4522.051282,4544.615384,4305.128205,4447.179487,4153.333333,4428.205128,4212.820512,4231.794871,4502.051282,4229.230769,4637.435897,3998.461539,4067.692307
182,4394.358974,4519.487179,4549.230769,4301.025641,4445.641025,4155.384615,4432.820512,4217.948717,4236.410256,4513.846153,4227.179487,4639.487179,3997.435898,4065.641025
183,4386.666666,4517.948717,4544.615384,4293.333333,4444.615384,4151.794871,4430.256410,4210.769230,4219.487179,4505.641025,4215.384615,4633.846153,3987.692308,4057.948717
184,4383.076923,4517.435897,4535.897435,4293.333333,4438.974358,4143.589743,4426.153846,4202.051282,4203.076923,4491.794871,4214.871794,4627.692307,3987.692308,4057.435897
185,4377.435897,4515.897435,4532.307692,4296.923076,4436.923076,4140.512820,4428.717948,4200.000000,4206.153846,4488.205128,4217.948717,4622.051282,3996.410257,4057.948717
186,4369.230769,4511.282051,4531.282051,4294.358974,4436.410256,4141.025641,4428.205128,4199.487179,4211.282051,4488.717948,4209.230769,4616.923076,3989.230770,4051.282051
187,4373.333333,4511.282051,4528.717948,4290.769230,4430.769230,4137.948717,4423.076923,4197.435897,4206.666666,4481.025641,4204.615384,4616.923076,3973.333334,4046.153846
188,4382.051282,4520.512820,4534.871794,4297.435897,4432.307692,4141.025641,4427.179487,4198.461538,4208.205128,4481.025641,4213.333333,4625.128205,3981.025642,4054.358974
189,4389.230769,4528.205128,4546.153846,4311.794871,4443.589743,4153.846153,4436.410256,4203.589743,4219.487179,4495.897435,4217.948717,4636.410256,4006.153846,4069.743589
190,4391.282051,4531.794871,4547.692307,4312.307692,4446.153846,4156.923076,4436.410256,4207.179487,4225.641025,4500.512820,4217.948717,4638.461538,4008.717948,4071.282051
191,4387.179487,4532.307692,4543.589743,4301.538461,4440.000000,4150.769230,4436.410256,4208.717948,4226.153846,4502.051282,4228.717948,4633.846153,3997.435898,4065.641025
192,4385.641025,4527.692307,4544.102564,4300.512820,4440.512820,4150.256410,4440.000000,4208.717948,4225.128205,4508.717948,4233.333333,4632.307692,3997.435898,4066.153846
193,4384.615384,4520.512820,4541.538461,4301.538461,4436.923076,4146.666666,4432.820512,4202.051282,4219.487179,4503.076923,4216.923076,4626.666666,3993.333334,4064.102564
194,4373.846153,4515.384615,4532.820512,4293.333333,4427.692307,4138.461538,4423.589743,4191.794871,4211.282051,4488.717948,4202.564102,4617.435897,3978.974359,4052.307692
195,4365.128205,4514.358974,4528.717948,4292.820512,4429.230769,4140.000000,4424.102564,4187.692307,4206.153846,4483.076923,4203.076923,4613.333333,3974.871795,4045.641025
196,4372.820512,4516.923076,4537.435897,4301.538461,4437.948717,4148.205128,4428.717948,4195.384615,4207.692307,4484.102564,4212.307692,4618.974358,3985.128206,4051.794871
197,4384.102564,4525.128205,4546.666666,4302.051282,4441.538461,4151.794871,4434.358974,4206.666666,4217.435897,4495.384615,4223.589743,4631.282051,3997.435898,4065.128205
198,4383.076923,4523.589743,4545.641025,4294.871794,4435.897435,4148.205128,4436.410256,4207.692307,4223.589743,4504.102564,4224.615384,4635.384615,3998.974359,4067.692307
199,4374.358974,4513.846153,4537.435897,4295.897435,4426.666666,4140.000000,4428.717948,4202.051282,4223.589743,4495.384615,4220.512820,4628.205128,3991.282052,4056.410256
200,4371.794871,4515.897435,4534.871794,4299.487179,4422.564102,4132.820512,4422.051282,4198.974358,4222.564102,4492.820512,4221.025641,4627.179487,3988.717949,4052.820512
201,4372.307692,4515.897435,4536.923076,4295.384615,4426.153846,4132.307692,4423.076923,4196.410256,4215.384615,4498.461538,4216.923076,4629.230769,3990.769231,4058.461538
202,4371.794871,4508.205128,4536.410256,4293.333333,4428.717948,4136.923076,4425.128205,4198.974358,4212.307692,4493.333333,4213.846153,4627.179487,3993.333334,4060.512820
203,4376.410256,4511.794871,4538.974358,4295.897435,4428.205128,4138.461538,4428.205128,4204.102564,4221.025641,4495.384615,4222.051282,4631.794871,3993.333334,4060.512820
204,4379.487179,4518.974358,4541.025641,4293.846153,4427.179487,4136.410256,4429.743589,4203.076923,4227.692307,4504.615384,4228.717948,4635.384615,3993.846154,4061.538461
205,4376.923076,4514.871794,4542.051282,4297.435897,4426.153846,4136.410256,4429.743589,4205.641025,4227.179487,4500.512820,4221.538461,4631.794871,3999.487180,4061.025641
206,4377.435897,4514.358974,4544.102564,4305.128205,4425.641025,4138.461538,4430.256410,4211.794871,4225.128205,4492.820512,4216.923076,4630.769230,4001.025641,4058.461538
207,4376.923076,4522.051282,4538.974358,4298.974358,4426.153846,4137.948717,4429.743589,4206.666666,4224.102564,4495.384615,4219.487179,4631.794871,3994.358975,4056.410256
208,4372.307692,4522.051282,4535.384615,4290.256410,4425.641025,4135.897435,4428.205128,4198.974358,4223.589743,4493.333333,4217.435897,4629.743589,3989.230770,4055.384615
209,4375.384615,4521.025641,4540.512820,4294.358974,4425.128205,4135.384615,4429.230769,4201.538461,4224.102564,4492.820512,4214.358974,4632.307692,3992.820513,4056.923076
210,4374.358974,4525.641025,4539.487179,4297.435897,4422.564102,4134.871794,4429.230769,4204.615384,4220.512820,4493.846153,4215.384615,4633.333333,3991.282052,4052.307692
211,4366.153846,4529.743589,4534.871794,4292.820512,4421.538461,4133.846153,4427.692307,4206.666666,4217.948717,4486.666666,4220.000000,4627.179487,3987.692308,4045.641025
212,4370.256410,4539.487179,4538.974358,4294.871794,4426.153846,4136.923076,4436.923076,4215.897435,4230.256410,4490.769230,4215.897435,4626.666666,3996.410257,4049.230769
213,4376.410256,4549.230769,4542.051282,4297.948717,4430.256410,4142.564102,4445.641025,4218.461538,4236.923076,4506.666666,4200.000000,4631.794871,3996.923077,4050.769230
214,4372.820512,4549.230769,4541.538461,4294.871794,4429.230769,4143.589743,4442.564102,4214.358974,4229.230769,4506.666666,4201.025641,4632.307692,3987.179488,4045.128205
215,4370.769230,4546.666666,4541.538461,4294.871794,4425.128205,4138.461538,4440.512820,4215.897435,4229.230769,4493.846153,4217.948717,4630.769230,3988.205129,4041.538461
216,4375.384615,4551.282051,4539.487179,4295.897435,4422.564102,4135.897435,4445.128205,4218.461538,4231.794871,4487.179487,4218.461538,4631.282051,3993.846154,4044.615384
217,4378.461538,4557.435897,4543.589743,4295.897435,4426.153846,4138.461538,4447.692307,4218.461538,4224.615384,4491.794871,4211.282051,4634.871794,3991.794872,4046.153846
218,4377.948717,4556.923076,4545.641025,4297.435897,4429.743589,4144.615384,4449.743589,4221.025641,4223.589743,4492.307692,4214.358974,4637.948717,3987.179488,4043.589743
219,4377.435897,4552.820512,4542.564102,4295.384615,4427.179487,4145.641025,4453.333333,4226.666666,4231.794871,4487.692307,4211.794871,4643.076923,3990.256411,4046.153846
220,4381.025641,4554.871794,4547.692307,4296.410256,4428.205128,4143.589743,4452.307692,4232.820512,4235.384615,4495.897435,4216.410256,4649.230769,4001.025641,4052.307692
221,4387.179487,4565.128205,4552.307692,4307.179487,4430.256410,4147.692307,4452.820512,4234.358974,4236.923076,4510.256410,4230.769230,4650.256410,4009.230769,4055.384615
222,4386.153846,4566.153846,4547.179487,4306.153846,4427.179487,4148.205128,4450.769230,4225.128205,4238.461538,4503.589743,4226.666666,4648.205128,4004.615384,4055.897435
223,4387.692307,4557.948717,4547.179487,4297.435897,4426.666666,4144.102564,4445.641025,4220.512820,4233.846153,4494.358974,4216.923076,4653.333333,4005.641025,4061.025641
224,4389.230769,4558.974358,4552.307692,4298.461538,4429.743589,4148.717948,4450.769230,4228.717948,4230.769230,4502.564102,4217.948717,4655.897435,4012.307692,4061.538461
225,4385.641025,4562.051282,4550.769230,4301.025641,4431.794871,4154.871794,4457.435897,4233.846153,4233.846153,4505.641025,4218.461538,4651.282051,4003.076923,4054.358974
226,4383.076923,4555.384615,4549.743589,4303.076923,4432.307692,4153.333333,4456.923076,4231.282051,4234.358974,4499.487179,4217.948717,4651.794871,3991.794872,4053.333333
227,4384.615384,4551.794871,4552.820512,4307.179487,4428.717948,4148.205128,4453.333333,4226.666666,4232.820512,4498.461538,4221.538461,4658.461538,3999.487180,4056.923076
228,4384.615384,4555.384615,4550.769230,4299.487179,4423.589743,4144.102564,4450.769230,4225.128205,4232.307692,4494.871794,4221.025641,4658.461538,4008.717948,4058.974358
229,4378.974358,4552.307692,4545.641025,4286.666666,4424.615384,4141.025641,4445.641025,4226.666666,4235.384615,4489.743589,4216.410256,4651.282051,4003.589743,4056.923076
230,4375.897435,4544.615384,4543.589743,4292.307692,4423.076923,4141.025641,4443.589743,4226.666666,4239.487179,4494.358974,4216.923076,4648.717948,3995.897436,4051.282051
231,4371.794871,4539.487179,4540.512820,4298.461538,4411.282051,4136.923076,4444.102564,4220.512820,4237.948717,4499.487179,4215.897435,4649.743589,3992.820513,4045.128205
232,4362.564102,4536.923076,4533.333333,4286.666666,4406.153846,4130.256410,4440.512820,4215.897435,4228.717948,4490.769230,4204.615384,4646.666666,3987.692308,4042.051282
233,4359.487179,4538.974358,4532.307692,4279.487179,4412.307692,4130.769230,4440.000000,4216.923076,4223.076923,4482.051282,4200.512820,4644.615384,3988.205129,4045.641025
234,4364.615384,4539.487179,4540.000000,4280.512820,4411.794871,4134.358974,4442.051282,4220.512820,4229.743589,4488.205128,4212.820512,4647.692307,3996.410257,4047.179487
235,4364.615384,4538.461538,4540.000000,4280.000000,4407.179487,4134.358974,4444.102564,4222.051282,4233.846153,4491.794871,4221.025641,4646.153846,3992.307693,4041.538461
236,4361.025641,4537.948717,4534.358974,4286.666666,4409.743589,4134.358974,4443.589743,4220.512820,4227.692307,4484.615384,4217.948717,4641.538461,3982.051283,4035.384615
237,4361.025641,4538.461538,4535.384615,4293.846153,4407.179487,4132.820512,4441.025641,4222.564102,4226.153846,4487.692307,4210.769230,4644.102564,3991.282052,4038.461538
238,4359.487179,4540.000000,4537.948717,4284.615384,4403.589743,4130.256410,4441.025641,4222.051282,4231.282051,4492.307692,4207.179487,4648.717948,4002.051282,4045.128205
239,4361.025641,4540.512820,4542.051282,4285.641025,4408.205128,4133.846153,4442.051282,4217.435897,4232.820512,4489.230769,4214.358974,4648.205128,3994.871795,4045.128205
240,4360.512820,4537.948717,4541.538461,4298.461538,4406.666666,4134.358974,4440.512820,4215.384615,4225.641025,4484.102564,4214.871794,4642.564102,3980.512821,4038.974358
241,4352.307692,4537.435897,4532.820512,4292.307692,4401.025641,4128.717948,4440.000000,4216.410256,4224.102564,4477.948717,4204.615384,4635.897435,3975.897436,4033.333333
242,4351.282051,4536.923076,4529.230769,4284.102564,4404.102564,4128.717948,4438.974358,4213.846153,4225.641025,4477.948717,4207.179487,4637.435897,3982.051283,4034.871794
243,4354.358974,4532.820512,4533.846153,4291.282051,4406.153846,4128.717948,4432.307692,4206.666666,4220.512820,4479.487179,4208.205128,4643.589743,3985.128206,4037.948717
244,4352.820512,4530.769230,4536.410256,4293.846153,4402.564102,4126.666666,4432.307692,4205.641025,4221.025641,4476.410256,4195.384615,4644.102564,3981.025642,4037.948717
245,4359.487179,4539.487179,4541.025641,4293.846153,4404.615384,4131.794871,4442.051282,4216.923076,4232.820512,4483.589743,4203.589743,4647.692307,3987.179488,4045.128205
246,4371.282051,4546.153846,4548.717948,4300.512820,4408.205128,4137.435897,4446.666666,4224.102564,4243.076923,4497.948717,4224.102564,4658.974358,4006.666666,4057.948717
247,4366.666666,4540.512820,4545.641025,4299.487179,4401.025641,4132.820512,4444.615384,4217.948717,4241.025641,4492.820512,4221.538461,4660.000000,4009.743589,4055.384615
248,4357.435897,4535.897435,4538.974358,4292.307692,4395.897435,4125.641025,4444.102564,4216.410256,4230.769230,4480.512820,4215.897435,4652.307692,3994.871795,4046.666666
249,4358.974358,4538.461538,4540.000000,4291.794871,4401.538461,4128.205128,4443.076923,4218.461538,4224.102564,4486.153846,4222.564102,4653.333333,3989.230770,4048.717948
250,4360.000000,4536.923076,4542.564102,4296.923076,4402.051282,4130.256410,4442.564102,4217.435897,4228.205128,4487.692307,4215.384615,4654.358974,3993.846154,4050.769230
251,4356.923076,4528.205128,4542.051282,4294.871794,4396.410256,4128.205128,4443.076923,4218.974358,4233.846153,4478.974358,4202.051282,4647.692307,3992.820513,4043.589743
252,4353.846153,4521.538461,4539.487179,4284.615384,4395.897435,4127.179487,4442.564102,4217.948717,4228.717948,4476.410256,4207.179487,4645.641025,3988.205129,4041.538461
253,4350.769230,4521.538461,4536.410256,4280.512820,4395.897435,4125.641025,4444.102564,4218.461538,4229.743589,4481.538461,4216.410256,4647.179487,3990.256411,4045.128205
254,4352.820512,4527.179487,4539.487179,4289.230769,4391.794871,4125.128205,4442.051282,4219.487179,4233.846153,4483.589743,4218.461538,4648.717948,3990.256411,4044.615384
255,4359.487179,4534.871794,4547.692307,4298.974358,4395.897435,4132.307692,4444.615384,4216.410256,4231.794871,4487.179487,4220.512820,4657.948717,3990.256411,4049.230769
256,4363.589743,4535.897435,4552.820512,4304.615384,4404.615384,4139.487179,4454.871794,4220.000000,4236.410256,4494.871794,4216.923076,4669.230769,4000.512820,4058.461538
257,4365.641025,4537.435897,4554.871794,4306.153846,4408.717948,4137.948717,4461.538461,4232.820512,4244.615384,4493.333333,4218.974358,4668.205128,4008.717948,4061.538461
258,4364.615384,4535.897435,4556.410256,4301.025641,4408.717948,4137.948717,4459.487179,4230.769230,4244.102564,4485.128205,4230.769230,4663.589743,4001.538461,4055.384615
259,4353.846153,4529.743589,4548.717948,4296.410256,4401.538461,4135.384615,4453.333333,4222.051282,4233.846153,4480.512820,4229.743589,4661.538461,3990.256411,4045.641025
