,AF3,F7,F3,FC5,T7,P7,O1,O2,P8,T8,FC6,F4,F8,AF4
0,4388.205128,4525.128205,4538.974358,4259.487179,4536.923076,4203.589743,4444.615384,4214.358974,4254.358974,4511.282051,4229.230769,4596.410256,3988.205129,4015.897435
1,4381.025641,4518.974358,4528.205128,4252.820512,4536.410256,4196.923076,4441.025641,4198.461538,4240.000000,4494.358974,4204.615384,4583.589743,3979.487180,4001.538461
2,4378.974358,4507.692307,4524.615384,4251.282051,4529.230769,4195.897435,4441.538461,4197.948717,4229.743589,4489.743589,4195.897435,4581.538461,3973.846154,4001.025641
3,4382.051282,4508.205128,4529.743589,4259.487179,4525.641025,4200.512820,4443.076923,4208.205128,4238.974358,4497.948717,4209.743589,4589.230769,3973.333334,4009.230769
4,4381.025641,4516.410256,4527.692307,4261.025641,4526.153846,4198.461538,4442.564102,4201.538461,4236.923076,4486.666666,4207.692307,4586.666666,3972.820513,4002.051282
5,4379.487179,4516.410256,4525.128205,4250.769230,4528.205128,4195.384615,4442.564102,4202.051282,4229.230769,4477.435897,4194.358974,4586.153846,3976.410257,3996.923077
6,4384.615384,4513.333333,4532.820512,4251.282051,4531.794871,4198.974358,4443.076923,4214.358974,4236.923076,4486.153846,4201.025641,4595.897435,3977.435898,4007.179487
7,4390.256410,4516.923076,4538.974358,4265.128205,4534.358974,4203.076923,4444.615384,4211.794871,4241.025641,4491.794871,4216.410256,4601.538461,3972.307693,4013.333333
8,4390.256410,4520.000000,4536.410256,4267.692307,4533.846153,4201.538461,4446.666666,4204.102564,4236.923076,4492.307692,4218.461538,4601.538461,3976.410257,4011.794871
9,4387.179487,4520.512820,4536.410256,4260.512820,4533.333333,4198.974358,4445.128205,4205.641025,4241.025641,4497.948717,4215.384615,4601.538461,3984.615385,4014.871794
10,4390.256410,4524.615384,4541.538461,4264.102564,4536.923076,4202.051282,4448.205128,4209.743589,4243.076923,4499.487179,4216.410256,4601.538461,3980.512821,4017.435897
11,4395.384615,4526.153846,4545.641025,4266.666666,4537.948717,4207.179487,4455.897435,4213.333333,4242.564102,4493.846153,4216.923076,4603.076923,3978.974359,4017.435897
12,4390.256410,4512.307692,4543.589743,4264.615384,4537.435897,4204.102564,4453.846153,4212.307692,4242.564102,4490.769230,4211.794871,4600.000000,3984.615385,4016.410256
13,4381.538461,4510.256410,4534.358974,4262.564102,4535.897435,4200.512820,4445.128205,4202.564102,4234.358974,4492.307692,4209.230769,4589.743589,3978.461539,4009.230769
14,4383.589743,4529.230769,4532.307692,4260.512820,4535.384615,4203.076923,4448.717948,4202.051282,4231.282051,4496.923076,4214.871794,4588.205128,3970.769231,4003.076923
15,4390.769230,4529.230769,4540.512820,4262.564102,4540.000000,4205.128205,4457.948717,4215.384615,4241.025641,4496.410256,4219.487179,4597.435897,3977.435898,4009.743589
16,4393.846153,4512.307692,4547.179487,4270.769230,4544.615384,4205.128205,4457.435897,4218.461538,4246.153846,4490.769230,4215.897435,4605.128205,3986.666667,4021.025641
17,4397.435897,4520.000000,4548.717948,4273.846153,4545.641025,4203.076923,4457.435897,4216.410256,4247.179487,4498.461538,4213.846153,4609.743589,3991.794872,4025.128205
18,4400.000000,4532.820512,4548.205128,4268.717948,4543.076923,4206.666666,4461.538461,4221.025641,4258.974358,4514.358974,4218.461538,4613.333333,3995.384616,4024.615384
19,4395.384615,4517.435897,4547.179487,4263.589743,4540.000000,4214.358974,4460.512820,4220.512820,4261.538461,4510.769230,4222.051282,4611.282051,3987.692308,4022.051282
20,4390.769230,4509.743589,4545.128205,4264.102564,4538.974358,4210.769230,4458.974358,4209.230769,4246.153846,4497.948717,4214.358974,4607.179487,3977.435898,4022.051282
21,4387.692307,4522.051282,4541.025641,4262.564102,4539.487179,4202.564102,4454.358974,4199.487179,4231.794871,4492.307692,4198.974358,4602.564102,3981.025642,4021.025641
22,4378.974358,4520.000000,4531.794871,4250.769230,4535.897435,4200.512820,4445.128205,4200.000000,4230.769230,4485.641025,4190.256410,4594.871794,3976.923077,4011.794871
23,4370.769230,4506.666666,4525.128205,4244.615384,4529.743589,4196.923076,4441.538461,4202.564102,4235.897435,4481.025641,4196.410256,4589.743589,3961.538462,4004.615384
24,4369.230769,4503.076923,4526.666666,4247.179487,4526.666666,4189.230769,4443.076923,4201.025641,4231.282051,4484.102564,4199.487179,4589.230769,3961.025642,4007.179487
25,4371.282051,4504.615384,4528.205128,4243.589743,4526.153846,4189.743589,4442.051282,4201.025641,4227.179487,4487.692307,4189.743589,4589.743589,3968.717949,4013.846153
26,4376.410256,4509.743589,4532.820512,4246.666666,4528.205128,4195.384615,4442.051282,4205.641025,4236.923076,4492.820512,4194.358974,4597.435897,3973.846154,4021.538461
27,4383.589743,4518.974358,4536.923076,4261.025641,4536.410256,4200.512820,4448.205128,4207.179487,4245.128205,4500.000000,4208.717948,4607.692307,3980.512821,4031.282051
28,4383.076923,4516.923076,4534.358974,4260.000000,4542.051282,4205.641025,4448.205128,4203.076923,4240.000000,4497.948717,4205.641025,4603.589743,3983.589744,4031.794871
29,4374.358974,4505.128205,4528.205128,4245.641025,4537.948717,4200.000000,4436.410256,4198.461538,4233.333333,4494.358974,4195.384615,4592.820512,3977.948718,4022.564102
30,4372.307692,4501.025641,4528.205128,4244.102564,4531.794871,4188.205128,4429.230769,4200.512820,4236.410256,4498.974358,4198.461538,4595.897435,3976.410257,4022.051282
31,4384.615384,4513.846153,4536.923076,4254.358974,4532.307692,4189.743589,4437.948717,4203.589743,4243.076923,4505.641025,4210.769230,4608.205128,3986.666667,4033.846153
32,4394.871794,4529.230769,4544.615384,4264.102564,4537.435897,4200.000000,4445.641025,4201.025641,4241.538461,4506.153846,4213.846153,4611.794871,3992.307693,4040.512820
33,4391.282051,4522.564102,4542.564102,4267.692307,4538.974358,4202.564102,4442.564102,4197.435897,4234.358974,4500.000000,4206.153846,4606.666666,3983.589744,4035.384615
34,4387.179487,4508.717948,4537.435897,4266.153846,4537.435897,4200.000000,4440.512820,4198.974358,4237.948717,4494.871794,4197.948717,4605.128205,3978.461539,4030.256410
35,4387.692307,4509.743589,4535.384615,4260.000000,4536.923076,4196.923076,4444.102564,4202.564102,4240.000000,4491.282051,4202.051282,4603.076923,3983.076924,4027.692307
36,4385.641025,4515.384615,4530.769230,4257.948717,4529.230769,4193.846153,4443.589743,4200.000000,4228.717948,4484.615384,4205.128205,4596.410256,3979.487180,4023.589743
37,4381.538461,4514.358974,4527.692307,4262.051282,4520.000000,4192.820512,4437.948717,4197.948717,4223.076923,4483.589743,4197.948717,4592.307692,3968.717949,4021.538461
38,4376.410256,4512.820512,4527.692307,4257.948717,4520.512820,4189.230769,4432.820512,4200.512820,4227.692307,4492.307692,4197.435897,4591.282051,3967.179488,4022.051282
39,4370.769230,4507.692307,4526.153846,4248.205128,4523.076923,4188.205128,4435.384615,4202.051282,4227.692307,4493.333333,4198.974358,4588.717948,3967.692308,4018.974358
40,4373.846153,4500.512820,4525.128205,4248.205128,4520.512820,4192.307692,4440.000000,4202.564102,4230.769230,4486.666666,4194.871794,4590.256410,3965.641026,4015.897435
41,4383.076923,4508.717948,4527.692307,4250.769230,4525.128205,4195.897435,4442.051282,4205.641025,4237.435897,4492.820512,4200.000000,4594.871794,3971.282052,4021.025641
42,4383.589743,4516.923076,4530.769230,4249.743589,4532.307692,4194.871794,4443.589743,4206.153846,4232.307692,4500.512820,4209.743589,4595.897435,3975.897436,4023.076923
43,4371.794871,4509.230769,4528.205128,4249.743589,4525.641025,4188.717948,4437.948717,4197.948717,4220.512820,4490.256410,4201.025641,4591.794871,3966.666667,4015.384615
44,4365.641025,4502.051282,4526.153846,4247.179487,4522.051282,4188.205128,4431.794871,4195.384615,4220.512820,4479.487179,4189.743589,4588.205128,3958.461539,4015.384615
45,4376.410256,4504.615384,4533.846153,4248.717948,4528.205128,4195.897435,4436.923076,4206.153846,4231.282051,4489.743589,4200.512820,4591.794871,3970.769231,4026.153846
46,4388.205128,4510.769230,4541.538461,4257.435897,4529.230769,4199.487179,4443.589743,4216.410256,4235.384615,4497.435897,4207.179487,4596.923076,3984.102565,4032.307692
47,4386.153846,4518.461538,4538.974358,4263.076923,4524.615384,4196.923076,4443.076923,4219.487179,4234.358974,4489.230769,4197.435897,4595.897435,3976.923077,4031.794871
48,4383.076923,4519.487179,4534.871794,4256.410256,4525.128205,4195.897435,4438.974358,4213.846153,4237.435897,4488.717948,4197.435897,4594.871794,3970.256411,4033.846153
49,4382.564102,4512.307692,4533.846153,4251.282051,4530.256410,4195.897435,4431.282051,4204.615384,4232.820512,4495.897435,4203.076923,4593.333333,3972.820513,4032.307692
50,4381.538461,4512.820512,4533.333333,4255.384615,4533.333333,4195.384615,4425.641025,4202.564102,4226.153846,4491.282051,4195.897435,4590.256410,3975.384616,4026.153846
51,4385.641025,4519.487179,4532.307692,4255.897435,4530.769230,4194.358974,4432.307692,4213.333333,4233.846153,4493.333333,4197.435897,4591.794871,3975.384616,4028.205128
52,4386.666666,4513.846153,4529.230769,4251.794871,4523.076923,4192.820512,4437.948717,4217.948717,4238.461538,4502.051282,4205.128205,4590.256410,3971.282052,4030.256410
53,4380.512820,4507.179487,4527.692307,4253.846153,4521.025641,4192.820512,4432.820512,4207.692307,4225.641025,4493.333333,4191.282051,4581.025641,3967.179488,4024.102564
54,4380.000000,4513.846153,4530.256410,4255.384615,4522.051282,4193.333333,4429.230769,4202.051282,4221.025641,4486.153846,4185.128205,4580.000000,3965.641026,4022.564102
55,4384.102564,4517.948717,4529.743589,4250.769230,4520.000000,4191.794871,4430.256410,4202.051282,4225.641025,4491.794871,4197.948717,4585.128205,3961.538462,4020.000000
56,4380.512820,4509.743589,4526.666666,4247.179487,4522.051282,4192.307692,4435.384615,4202.564102,4221.025641,4484.102564,4195.384615,4582.564102,3958.461539,4011.282051
57,4378.974358,4507.179487,4526.666666,4249.230769,4522.564102,4196.923076,4442.564102,4209.230769,4217.948717,4476.410256,4190.256410,4578.974358,3963.076924,4014.358974
58,4383.589743,4511.794871,4528.205128,4256.923076,4521.025641,4198.974358,4445.128205,4218.461538,4223.076923,4484.615384,4192.820512,4582.051282,3967.179488,4022.051282
59,4382.051282,4510.769230,4528.205128,4264.615384,4523.589743,4197.948717,4443.589743,4222.564102,4225.641025,4488.717948,4188.717948,4581.538461,3967.692308,4018.461538
60,4378.974358,4511.794871,4528.717948,4264.615384,4524.615384,4197.435897,4446.153846,4221.538461,4225.641025,4485.128205,4187.692307,4581.025641,3965.641026,4014.358974
61,4384.615384,4520.512820,4531.282051,4262.564102,4522.051282,4199.487179,4451.282051,4223.076923,4233.333333,4490.769230,4203.589743,4587.692307,3963.589744,4021.025641
62,4388.717948,4518.461538,4532.307692,4255.384615,4523.076923,4199.487179,4449.230769,4223.589743,4237.948717,4494.871794,4210.256410,4593.333333,3970.256411,4026.666666
63,4378.461538,4506.666666,4529.743589,4247.692307,4518.974358,4193.333333,4442.564102,4212.820512,4226.666666,4484.615384,4194.871794,4589.230769,3968.717949,4019.487179
64,4368.717948,4497.948717,4521.538461,4248.205128,4509.230769,4187.179487,4440.000000,4203.589743,4215.897435,4480.512820,4184.615384,4585.128205,3960.000000,4007.692307
65,4374.358974,4498.461538,4517.435897,4248.717948,4512.820512,4190.769230,4443.589743,4204.102564,4218.461538,4483.076923,4190.769230,4588.717948,3964.102565,4010.256410
66,4384.102564,4507.692307,4526.153846,4246.666666,4520.000000,4198.461538,4444.102564,4207.692307,4223.076923,4484.615384,4204.102564,4595.897435,3970.256411,4023.589743
67,4381.538461,4508.717948,4531.794871,4246.153846,4515.897435,4196.923076,4441.025641,4208.717948,4221.538461,4487.692307,4203.589743,4595.384615,3963.076924,4022.051282
68,4377.435897,4502.051282,4528.717948,4246.153846,4513.333333,4191.794871,4442.564102,4211.794871,4224.102564,4483.589743,4189.230769,4592.307692,3963.589744,4015.384615
69,4385.128205,4506.153846,4529.230769,4252.820512,4520.512820,4197.435897,4445.128205,4224.615384,4233.846153,4480.512820,4190.769230,4595.897435,3977.435898,4021.538461
70,4387.692307,4509.743589,4531.794871,4259.487179,4523.589743,4201.538461,4444.102564,4232.307692,4242.051282,4494.871794,4205.641025,4597.435897,3977.948718,4025.641025
71,4380.000000,4501.025641,4527.179487,4252.307692,4519.487179,4193.333333,4441.538461,4222.564102,4245.128205,4503.589743,4198.974358,4593.846153,3970.769231,4020.512820
72,4381.025641,4504.102564,4522.564102,4244.615384,4518.461538,4190.256410,4441.538461,4218.461538,4244.615384,4497.435897,4186.666666,4593.333333,3973.333334,4020.000000
73,4390.769230,4520.512820,4528.717948,4251.282051,4523.076923,4196.923076,4444.615384,4230.769230,4245.641025,4500.512820,4203.076923,4598.461538,3983.076924,4027.179487
74,4392.307692,4518.974358,4532.307692,4256.410256,4525.128205,4198.974358,4446.153846,4229.743589,4241.538461,4504.102564,4213.846153,4600.000000,3984.615385,4029.230769
75,4385.641025,4506.666666,4528.205128,4251.282051,4520.512820,4194.871794,4443.076923,4213.846153,4231.282051,4491.282051,4200.000000,4595.897435,3973.846154,4022.051282
76,4384.615384,4505.128205,4527.179487,4247.692307,4521.025641,4197.948717,4440.512820,4209.230769,4231.282051,4490.256410,4199.487179,4592.820512,3969.743590,4017.435897
77,4387.179487,4513.333333,4528.205128,4248.205128,4525.128205,4202.051282,4441.538461,4212.820512,4233.846153,4495.384615,4201.538461,4592.820512,3980.000000,4020.512820
78,4389.230769,4518.461538,4530.769230,4252.307692,4524.102564,4200.512820,4443.589743,4211.282051,4230.769230,4489.230769,4196.923076,4598.461538,3984.615385,4025.128205
79,4389.743589,4516.410256,4531.794871,4260.000000,4523.076923,4201.025641,4443.589743,4206.153846,4230.256410,4487.692307,4203.076923,4601.025641,3977.948718,4028.717948
80,4388.205128,4511.794871,4530.256410,4264.102564,4525.128205,4200.000000,4444.102564,4206.153846,4231.282051,4491.282051,4205.128205,4596.923076,3973.333334,4026.153846
81,4386.666666,4508.717948,4528.717948,4255.897435,4521.538461,4197.435897,4449.230769,4214.871794,4229.230769,4489.743589,4196.923076,4593.846153,3971.794872,4020.000000
82,4390.256410,4512.820512,4528.717948,4247.179487,4519.487179,4197.435897,4456.410256,4224.615384,4231.794871,4489.743589,4203.076923,4598.974358,3977.948718,4025.128205
83,4396.410256,4518.461538,4532.307692,4250.769230,4526.153846,4200.512820,4460.000000,4230.769230,4240.512820,4500.000000,4212.307692,4606.153846,3987.179488,4033.846153
84,4398.974358,4523.076923,4538.974358,4256.923076,4529.230769,4201.025641,4452.307692,4234.871794,4248.717948,4505.641025,4206.153846,4607.692307,3987.179488,4029.743589
85,4397.948717,4521.538461,4540.000000,4261.538461,4529.743589,4204.615384,4446.666666,4234.358974,4250.769230,4503.076923,4199.487179,4606.153846,3984.102565,4026.666666
86,4396.923076,4517.948717,4536.923076,4264.615384,4528.205128,4208.205128,4452.307692,4230.256410,4245.641025,4500.512820,4202.051282,4604.615384,3989.230770,4031.794871
87,4398.974358,4523.076923,4538.974358,4265.128205,4528.205128,4206.153846,4461.025641,4231.794871,4244.102564,4502.564102,4210.769230,4608.717948,3992.307693,4035.897435
88,4402.564102,4524.615384,4541.538461,4263.589743,4533.846153,4207.179487,4460.512820,4234.358974,4249.743589,4504.102564,4220.000000,4613.333333,3988.205129,4033.846153
89,4400.000000,4514.358974,4535.384615,4258.461538,4532.307692,4208.717948,4452.307692,4226.666666,4241.538461,4495.897435,4215.897435,4608.205128,3986.666667,4029.230769
90,4395.384615,4510.769230,4529.743589,4254.871794,4525.641025,4202.051282,4443.589743,4206.153846,4227.179487,4486.153846,4201.538461,4602.564102,3986.153847,4024.615384
91,4397.435897,4521.538461,4533.333333,4258.974358,4523.589743,4197.948717,4440.000000,4194.358974,4225.128205,4486.666666,4194.871794,4605.128205,3986.153847,4026.153846
92,4403.589743,4527.179487,4540.512820,4264.615384,4526.153846,4201.025641,4443.589743,4203.076923,4230.769230,4492.307692,4207.179487,4610.256410,3987.692308,4032.820512
93,4405.128205,4521.025641,4539.487179,4263.076923,4528.717948,4201.025641,4446.153846,4215.384615,4238.461538,4496.923076,4219.487179,4610.769230,3984.102565,4032.820512
94,4400.000000,4518.461538,4533.333333,4261.538461,4530.256410,4199.487179,4443.076923,4220.000000,4242.051282,4501.025641,4211.282051,4607.179487,3983.076924,4026.153846
95,4398.461538,4524.615384,4533.333333,4265.128205,4531.282051,4204.102564,4443.076923,4218.974358,4242.564102,4504.615384,4198.461538,4604.615384,3994.358975,4024.615384
96,4398.974358,4522.564102,4535.897435,4265.641025,4531.282051,4203.589743,4445.641025,4217.435897,4241.538461,4501.025641,4197.435897,4600.512820,3994.358975,4025.641025
97,4394.358974,4509.230769,4530.256410,4262.564102,4526.153846,4193.333333,4444.102564,4215.897435,4237.435897,4492.820512,4200.000000,4593.333333,3977.435898,4020.000000
98,4398.974358,4512.307692,4527.692307,4260.000000,4524.615384,4189.230769,4440.512820,4214.871794,4237.435897,4496.410256,4208.717948,4596.923076,3976.410257,4018.461538
99,4411.282051,4528.717948,4533.846153,4261.025641,4530.256410,4198.974358,4446.666666,4217.435897,4242.564102,4504.615384,4213.846153,4604.615384,3992.820513,4031.282051
100,4413.333333,4532.820512,4534.871794,4264.102564,4531.282051,4205.641025,4451.282051,4217.948717,4240.512820,4499.487179,4209.743589,4600.000000,3995.897436,4030.769230
101,4408.205128,4526.666666,4530.256410,4264.102564,4527.692307,4198.974358,4445.641025,4209.230769,4229.230769,4490.256410,4206.666666,4590.769230,3979.487180,4017.435897
102,4409.743589,4519.487179,4530.256410,4262.051282,4528.717948,4190.256410,4442.051282,4200.000000,4222.051282,4489.230769,4204.102564,4593.846153,3974.871795,4021.538461
103,4414.358974,4516.923076,4533.846153,4262.564102,4533.846153,4193.333333,4443.076923,4198.974358,4222.051282,4493.333333,4202.564102,4601.025641,3990.256411,4036.410256
104,4414.871794,4521.025641,4536.410256,4264.102564,4534.871794,4195.897435,4441.538461,4201.025641,4225.128205,4496.923076,4211.794871,4601.538461,3997.948718,4035.897435
105,4413.333333,4532.307692,4536.923076,4265.128205,4530.769230,4190.769230,4441.025641,4208.717948,4235.384615,4503.589743,4226.153846,4603.076923,3993.333334,4029.230769
106,4416.923076,4533.846153,4536.923076,4265.641025,4526.153846,4190.256410,4444.102564,4221.025641,4245.641025,4511.794871,4231.794871,4606.153846,3995.384616,4034.871794
107,4426.153846,4522.564102,4539.487179,4265.128205,4530.769230,4199.487179,4444.102564,4224.615384,4254.871794,4517.435897,4227.692307,4606.153846,4004.615384,4041.538461
108,4427.692307,4523.076923,4543.589743,4264.102564,4535.384615,4203.589743,4444.615384,4224.102564,4262.564102,4516.923076,4216.923076,4602.051282,4009.230769,4042.051282
109,4419.487179,4535.897435,4543.076923,4262.564102,4534.871794,4198.461538,4446.153846,4221.538461,4248.717948,4501.025641,4212.820512,4598.461538,4005.128205,4034.871794
110,4410.769230,4531.794871,4537.435897,4262.564102,4538.974358,4196.410256,4441.538461,4212.820512,4227.692307,4487.179487,4217.435897,4592.307692,3988.205129,4024.102564
111,4407.179487,4514.871794,4533.846153,4264.615384,4534.871794,4195.897435,4436.923076,4208.717948,4226.666666,4489.230769,4215.897435,4589.230769,3974.358975,4019.487179
112,4413.846153,4517.948717,4538.461538,4268.717948,4525.128205,4198.974358,4440.000000,4215.384615,4235.384615,4498.974358,4215.384615,4598.461538,3982.564103,4027.179487
113,4425.128205,4534.871794,4547.692307,4271.282051,4530.769230,4201.538461,4445.128205,4221.025641,4239.487179,4504.615384,4221.025641,4609.743589,4002.564102,4040.000000
114,4428.205128,4542.051282,4551.794871,4271.794871,4538.461538,4201.025641,4443.076923,4215.384615,4241.538461,4506.666666,4227.692307,4612.307692,4008.205128,4044.615384
115,4426.666666,4541.538461,4546.666666,4274.871794,4533.846153,4199.487179,4440.512820,4205.128205,4240.000000,4509.743589,4230.769230,4609.743589,4003.589743,4043.589743
116,4428.717948,4538.461538,4547.179487,4277.948717,4532.307692,4200.000000,4441.025641,4209.743589,4240.000000,4513.846153,4233.333333,4610.256410,4008.205128,4044.615384
117,4430.769230,4537.435897,4552.820512,4280.000000,4542.564102,4200.000000,4443.076923,4229.743589,4251.794871,4520.512820,4229.230769,4614.871794,4019.487179,4048.717948
118,4431.282051,4542.051282,4552.307692,4278.974358,4542.564102,4204.102564,4447.179487,4238.461538,4260.000000,4528.717948,4225.641025,4616.923076,4018.461538,4049.743589
119,4432.307692,4548.717948,4553.333333,4276.410256,4535.897435,4210.769230,4452.820512,4236.923076,4263.076923,4531.282051,4238.974358,4618.461538,4008.205128,4049.230769
120,4430.256410,4548.717948,4556.410256,4277.435897,4538.974358,4208.717948,4451.794871,4236.923076,4269.743589,4525.641025,4247.692307,4614.871794,4005.128205,4048.205128
121,4427.179487,4539.487179,4551.794871,4280.512820,4540.000000,4202.051282,4446.153846,4232.820512,4262.051282,4514.358974,4233.333333,4605.641025,4009.230769,4043.076923
122,4427.692307,4532.820512,4546.666666,4280.000000,4534.871794,4198.461538,4442.564102,4228.205128,4248.205128,4514.871794,4223.076923,4602.051282,4009.743589,4042.051282
123,4431.794871,4541.025641,4549.743589,4277.948717,4541.025641,4203.589743,4443.076923,4231.794871,4253.846153,4525.641025,4234.871794,4609.743589,4010.256410,4048.717948
124,4431.794871,4549.743589,4551.794871,4279.487179,4551.794871,4211.282051,4451.794871,4234.871794,4262.051282,4530.256410,4234.358974,4611.794871,4009.743589,4049.743589
125,4425.128205,4542.564102,4544.615384,4280.512820,4547.692307,4210.256410,4458.461538,4226.666666,4252.307692,4521.538461,4219.487179,4600.512820,4002.564102,4040.512820
126,4422.564102,4533.333333,4542.051282,4277.948717,4544.615384,4207.692307,4451.794871,4214.358974,4237.948717,4507.692307,4216.410256,4597.435897,3997.948718,4037.435897
127,4428.717948,4540.000000,4552.820512,4277.435897,4548.717948,4208.717948,4446.153846,4211.282051,4234.871794,4503.076923,4221.538461,4606.666666,4000.000000,4045.128205
128,4432.307692,4545.128205,4558.461538,4280.000000,4547.179487,4206.666666,4448.205128,4214.871794,4240.512820,4510.256410,4221.538461,4612.307692,3998.461539,4048.717948
129,4425.128205,4540.000000,4549.230769,4276.410256,4542.564102,4203.589743,4446.666666,4215.384615,4244.102564,4513.333333,4214.358974,4607.692307,3995.897436,4042.051282
130,4419.487179,4534.358974,4540.000000,4267.179487,4538.974358,4204.615384,4444.102564,4217.435897,4243.076923,4511.794871,4209.743589,4602.564102,3997.435898,4036.410256
131,4421.025641,4534.871794,4540.512820,4266.153846,4537.948717,4205.128205,4447.692307,4226.666666,4242.051282,4507.692307,4217.948717,4604.102564,4000.512820,4038.461538
132,4418.461538,4534.358974,4542.051282,4264.615384,4542.564102,4201.025641,4447.692307,4228.717948,4245.128205,4504.615384,4225.128205,4605.128205,3996.923077,4037.435897
133,4418.461538,4527.179487,4543.076923,4260.512820,4544.615384,4203.076923,4446.153846,4225.128205,4250.256410,4508.205128,4219.487179,4605.128205,3998.974359,4036.923076
134,4426.666666,4530.769230,4549.230769,4269.743589,4541.538461,4207.692307,4448.205128,4232.307692,4256.923076,4518.461538,4217.948717,4609.743589,4011.794871,4046.666666
135,4426.666666,4539.487179,4550.769230,4274.358974,4542.051282,4205.641025,4447.179487,4234.871794,4256.410256,4518.974358,4224.615384,4612.307692,4012.307692,4051.282051
136,4413.846153,4531.794871,4545.128205,4261.025641,4540.512820,4197.435897,4444.615384,4223.076923,4242.051282,4509.230769,4220.512820,4605.641025,3998.461539,4044.615384
137,4411.794871,4529.230769,4544.615384,4256.923076,4537.435897,4197.435897,4445.641025,4216.410256,4235.897435,4503.589743,4213.846153,4602.564102,3994.871795,4045.641025
138,4417.435897,4542.051282,4547.179487,4266.153846,4538.974358,4203.589743,4443.076923,4217.435897,4238.461538,4501.538461,4217.948717,4606.153846,3997.435898,4050.256410
139,4412.307692,4532.820512,4546.666666,4266.666666,4539.487179,4199.487179,4435.384615,4207.179487,4230.769230,4496.410256,4220.512820,4606.153846,3989.743590,4047.179487
140,4407.179487,4513.333333,4544.615384,4263.076923,4534.358974,4190.769230,4435.897435,4200.512820,4227.179487,4493.846153,4213.333333,4602.564102,3982.564103,4049.230769
141,4406.153846,4518.974358,4541.025641,4256.923076,4525.641025,4187.692307,4436.923076,4209.743589,4234.358974,4495.384615,4202.051282,4595.897435,3982.564103,4051.282051
142,4398.461538,4520.000000,4531.794871,4245.128205,4521.025641,4185.128205,4430.256410,4213.846153,4229.743589,4491.282051,4193.846153,4587.179487,3980.512821,4035.897435
143,4392.307692,4509.743589,4527.179487,4243.589743,4523.076923,4184.615384,4427.692307,4210.256410,4223.076923,4489.743589,4198.461538,4584.102564,3979.487180,4028.717948
144,4397.435897,4514.871794,4532.307692,4251.794871,4521.538461,4187.179487,4430.256410,4212.820512,4232.820512,4500.512820,4210.256410,4589.743589,3982.051283,4042.051282
145,4402.051282,4521.538461,4533.846153,4252.820512,4520.000000,4187.179487,4434.871794,4218.461538,4237.948717,4505.128205,4209.743589,4595.384615,3986.153847,4049.743589
146,4401.025641,4514.871794,4530.256410,4251.282051,4530.769230,4191.282051,4441.025641,4217.948717,4233.846153,4501.538461,4202.051282,4595.384615,3989.743590,4046.666666
147,4402.564102,4514.358974,4531.794871,4250.256410,4536.410256,4195.897435,4446.153846,4217.948717,4237.948717,4501.025641,4206.153846,4596.410256,3992.307693,4045.641025
148,4404.615384,4524.615384,4536.410256,4249.230769,4529.230769,4191.794871,4443.589743,4216.410256,4238.461538,4499.487179,4211.794871,4599.487179,3993.846154,4047.692307
149,4407.179487,4524.615384,4535.384615,4255.897435,4528.717948,4189.743589,4436.923076,4205.128205,4225.641025,4495.384615,4210.256410,4600.000000,3989.230770,4048.205128
150,4412.307692,4520.000000,4536.410256,4264.615384,4532.820512,4191.794871,4435.384615,4197.435897,4225.128205,4498.461538,4212.820512,4605.641025,3990.769231,4054.871794
151,4415.897435,4526.666666,4545.128205,4269.230769,4533.333333,4194.358974,4440.512820,4206.153846,4235.897435,4504.615384,4219.487179,4612.307692,4004.615384,4062.564102
152,4414.871794,4533.333333,4546.153846,4260.512820,4535.897435,4196.410256,4443.589743,4213.333333,4232.820512,4502.564102,4216.410256,4605.128205,4008.717948,4060.000000
153,4410.769230,4528.205128,4535.384615,4249.230769,4535.897435,4194.358974,4440.512820,4207.692307,4225.128205,4502.564102,4210.769230,4593.333333,3993.333334,4050.256410
154,4407.692307,4523.076923,4532.307692,4251.282051,4529.743589,4192.820512,4442.051282,4209.230769,4226.666666,4508.205128,4209.230769,4590.769230,3974.358975,4045.641025
155,4403.076923,4518.974358,4534.358974,4254.358974,4527.692307,4192.820512,4446.666666,4212.820512,4226.153846,4502.564102,4201.025641,4588.717948,3968.205129,4042.051282
156,4399.487179,4511.282051,4531.282051,4248.717948,4527.179487,4189.743589,4441.538461,4207.692307,4223.076923,4492.820512,4195.897435,4583.589743,3972.820513,4036.923076
157,4405.128205,4513.846153,4535.897435,4246.153846,4524.102564,4188.717948,4434.871794,4204.102564,4226.153846,4496.410256,4203.589743,4591.282051,3982.051283,4043.589743
158,4413.333333,4523.589743,4547.179487,4249.743589,4524.615384,4192.307692,4440.512820,4207.179487,4231.282051,4507.179487,4212.307692,4605.128205,3992.820513,4056.410256
159,4415.897435,4526.666666,4548.717948,4250.769230,4524.102564,4193.846153,4444.102564,4210.769230,4235.384615,4509.743589,4214.871794,4609.230769,4001.025641,4056.923076
160,4413.846153,4521.538461,4545.128205,4252.820512,4522.564102,4191.794871,4432.820512,4207.692307,4232.820512,4501.538461,4215.897435,4605.128205,4000.000000,4049.743589
161,4408.205128,4510.256410,4543.589743,4253.333333,4524.615384,4189.230769,4426.153846,4201.025641,4223.076923,4489.743589,4209.230769,4598.974358,3992.307693,4045.641025
162,4403.589743,4506.153846,4541.025641,4246.153846,4520.000000,4187.179487,4431.794871,4195.384615,4216.923076,4486.666666,4198.974358,4601.025641,3988.717949,4043.589743
163,4408.205128,4514.358974,4542.051282,4243.589743,4518.974358,4189.230769,4434.358974,4196.923076,4217.948717,4491.794871,4206.153846,4607.692307,3988.717949,4043.589743
164,4415.384615,4520.512820,4545.128205,4249.743589,4524.615384,4193.333333,4432.307692,4202.051282,4222.564102,4495.897435,4218.974358,4611.282051,3992.307693,4046.666666
165,4409.230769,4513.846153,4539.487179,4250.769230,4523.589743,4193.846153,4433.846153,4202.051282,4225.128205,4497.435897,4216.410256,4606.153846,3991.794872,4043.589743
166,4400.000000,4506.153846,4532.820512,4248.717948,4520.000000,4190.769230,4435.384615,4202.051282,4222.051282,4493.846153,4205.641025,4597.948717,3987.179488,4037.948717
167,4396.923076,4505.641025,4533.333333,4248.205128,4522.564102,4186.666666,4432.820512,4205.128205,4217.435897,4488.717948,4200.512820,4593.846153,3985.641026,4037.948717
168,4398.974358,4506.153846,4533.333333,4238.974358,4522.051282,4186.153846,4431.794871,4205.641025,4220.000000,4491.282051,4198.974358,4591.282051,3981.538462,4037.435897
169,4405.128205,4509.230769,4529.230769,4232.820512,4516.923076,4188.717948,4436.923076,4206.666666,4226.153846,4495.384615,4206.666666,4594.871794,3978.974359,4037.948717
170,4410.769230,4514.358974,4534.358974,4245.641025,4519.487179,4192.820512,4443.589743,4213.846153,4228.717948,4494.358974,4220.000000,4603.076923,3983.589744,4043.589743
171,4411.282051,4513.846153,4541.538461,4252.820512,4525.128205,4199.487179,4445.641025,4218.974358,4231.794871,4496.410256,4223.589743,4607.692307,3985.128206,4046.666666
172,4411.282051,4513.333333,4542.051282,4245.641025,4523.589743,4202.564102,4446.153846,4218.974358,4234.358974,4498.974358,4222.564102,4610.256410,3985.641026,4043.076923
173,4415.897435,4522.564102,4545.641025,4246.666666,4521.538461,4202.051282,4447.179487,4214.871794,4230.256410,4497.435897,4222.051282,4616.410256,3989.743590,4048.205128
174,4415.384615,4517.948717,4545.641025,4250.256410,4523.589743,4197.435897,4444.615384,4204.102564,4221.025641,4492.307692,4212.307692,4614.871794,3986.666667,4051.282051
175,4409.743589,4502.564102,4537.435897,4245.128205,4524.615384,4193.846153,4441.025641,4196.410256,4216.923076,4487.692307,4205.128205,4606.666666,3982.051283,4042.051282
176,4410.769230,4507.692307,4536.410256,4245.128205,4520.000000,4195.897435,4443.076923,4201.025641,4220.512820,4490.769230,4208.205128,4607.179487,3984.102565,4041.025641
177,4410.769230,4513.846153,4540.000000,4250.769230,4516.923076,4199.487179,4446.153846,4212.307692,4225.641025,4497.948717,4209.743589,4610.256410,3979.487180,4045.128205
178,4405.128205,4503.589743,4533.333333,4248.717948,4516.923076,4196.410256,4445.128205,4214.871794,4228.205128,4497.948717,4207.692307,4604.615384,3974.358975,4037.948717
179,4401.538461,4505.128205,4526.666666,4240.000000,4517.435897,4189.743589,4441.025641,4209.230769,4223.076923,4494.358974,4207.179487,4598.974358,3976.410257,4031.794871
180,4403.076923,4513.846153,4529.230769,4238.974358,4518.461538,4187.692307,4438.461538,4207.179487,4222.564102,4494.358974,4198.461538,4601.538461,3977.435898,4037.435897
181,4403.589743,4506.666666,4530.256410,4244.102564,4521.538461,4191.794871,4437.948717,4206.666666,4227.692307,4495.384615,4194.871794,4605.128205,3979.487180,4039.487179
182,4403.589743,4501.025641,4528.205128,4249.230769,4523.589743,4188.717948,4437.435897,4207.692307,4228.205128,4494.871794,4206.153846,4601.025641,3981.538462,4037.435897
183,4405.128205,4510.256410,4529.743589,4247.179487,4517.948717,4184.102564,4438.974358,4212.820512,4223.589743,4493.333333,4206.666666,4597.435897,3982.051283,4037.435897
184,4404.615384,4512.307692,4528.717948,4237.948717,4510.769230,4185.641025,4435.384615,4210.256410,4220.000000,4487.692307,4197.948717,4595.384615,3976.923077,4033.846153
185,4401.025641,4505.641025,4525.128205,4235.384615,4515.897435,4184.615384,4430.769230,4197.435897,4211.794871,4482.564102,4195.897435,4589.743589,3969.230770,4030.769230
186,4406.666666,4506.666666,4527.692307,4244.615384,4522.564102,4184.102564,4435.897435,4198.461538,4212.820512,4487.179487,4201.025641,4593.333333,3976.410257,4038.461538
187,4413.333333,4512.307692,4533.846153,4252.307692,4519.487179,4188.205128,4440.000000,4203.589743,4221.025641,4498.974358,4208.205128,4607.179487,3991.794872,4047.692307
188,4406.153846,4512.307692,4531.794871,4244.102564,4518.974358,4185.641025,4437.435897,4195.897435,4215.384615,4498.461538,4212.307692,4609.230769,3985.641026,4042.564102
189,4403.076923,4509.230769,4529.743589,4235.384615,4523.589743,4184.102564,4440.512820,4201.025641,4217.948717,4495.897435,4210.256410,4604.102564,3975.897436,4037.948717
190,4412.307692,4505.641025,4533.333333,4238.974358,4523.589743,4190.256410,4446.666666,4216.923076,4235.384615,4504.615384,4210.256410,4606.666666,3984.615385,4041.025641
191,4414.358974,4504.615384,4534.358974,4247.179487,4520.000000,4189.743589,4442.564102,4218.461538,4231.794871,4507.692307,4216.410256,4606.153846,3984.615385,4039.487179
192,4409.743589,4512.307692,4537.948717,4251.282051,4524.102564,4188.205128,4441.538461,4214.358974,4222.051282,4505.128205,4218.974358,4601.025641,3979.487180,4040.000000
193,4413.333333,4517.948717,4543.589743,4249.230769,4529.743589,4196.923076,4445.641025,4221.538461,4237.435897,4514.358974,4214.871794,4605.128205,3990.256411,4047.179487
194,4415.384615,4513.846153,4538.974358,4247.692307,4525.641025,4194.358974,4443.589743,4222.051282,4242.051282,4512.307692,4207.692307,4606.666666,3994.871795,4045.128205
195,4409.230769,4509.230769,4530.256410,4245.128205,4522.564102,4185.641025,4440.512820,4209.230769,4222.051282,4488.717948,4204.102564,4594.871794,3982.564103,4034.358974
196,4410.256410,4516.410256,4536.410256,4250.256410,4531.794871,4190.256410,4441.025641,4208.205128,4221.538461,4485.641025,4208.717948,4593.846153,3980.512821,4036.410256
197,4425.641025,4528.717948,4552.307692,4268.205128,4540.512820,4200.512820,4444.102564,4217.435897,4234.358974,4508.205128,4220.512820,4612.307692,3993.333334,4053.846153
198,4437.435897,4537.435897,4562.051282,4278.461538,4542.051282,4202.051282,4448.205128,4218.461538,4233.846153,4521.025641,4233.333333,4627.179487,4002.051282,4068.205128
199,4432.820512,4538.974358,4560.512820,4270.256410,4542.051282,4200.000000,4449.743589,4212.307692,4228.205128,4510.256410,4229.230769,4625.641025,4001.538461,4063.589743
200,4425.641025,4528.717948,4550.256410,4260.000000,4541.025641,4204.102564,4451.794871,4211.282051,4226.666666,4498.461538,4212.307692,4618.974358,3994.871795,4053.333333
201,4427.179487,4520.512820,4552.307692,4263.589743,4538.974358,4208.717948,4457.435897,4220.512820,4227.692307,4502.051282,4218.974358,4623.076923,3989.230770,4053.333333
202,4430.256410,4525.128205,4558.461538,4269.230769,4543.076923,4207.179487,4460.512820,4232.307692,4237.948717,4512.307692,4238.461538,4629.230769,3992.820513,4057.948717
203,4428.205128,4524.615384,4552.307692,4265.128205,4544.615384,4204.102564,4457.435897,4232.307692,4248.717948,4516.410256,4234.358974,4626.153846,3999.487180,4056.923076
204,4427.179487,4520.000000,4549.230769,4263.589743,4538.974358,4206.153846,4456.923076,4229.743589,4250.769230,4516.410256,4226.153846,4624.102564,3997.948718,4054.871794
205,4428.205128,4530.769230,4556.410256,4267.179487,4540.512820,4210.256410,4462.051282,4233.333333,4252.820512,4521.025641,4232.307692,4629.230769,3994.871795,4055.897435
206,4428.717948,4537.435897,4561.025641,4267.179487,4546.666666,4213.846153,4463.076923,4233.333333,4254.871794,4519.487179,4233.846153,4632.307692,3998.461539,4057.948717
207,4430.256410,4527.179487,4561.025641,4263.076923,4548.205128,4216.923076,4461.025641,4232.820512,4252.307692,4513.846153,4230.256410,4632.820512,4003.076923,4062.051282
208,4429.743589,4524.615384,4561.538461,4265.128205,4547.179487,4213.333333,4460.000000,4234.871794,4252.307692,4515.897435,4235.897435,4634.871794,3998.974359,4061.538461
209,4428.717948,4537.435897,4560.000000,4275.897435,4549.743589,4212.820512,4460.512820,4231.282051,4252.820512,4525.641025,4243.589743,4633.333333,3996.410257,4060.000000
210,4436.410256,4543.076923,4558.974358,4283.076923,4553.846153,4219.487179,4465.128205,4224.615384,4251.282051,4528.717948,4236.923076,4632.307692,4005.128205,4066.153846
211,4442.564102,4538.461538,4560.512820,4281.538461,4554.358974,4221.025641,4466.666666,4218.461538,4244.615384,4517.435897,4229.230769,4634.871794,4012.820512,4067.692307
212,4436.923076,4535.384615,4558.974358,4276.923076,4549.743589,4218.974358,4461.025641,4215.897435,4238.974358,4509.230769,4233.846153,4633.846153,4010.769230,4060.512820
213,4431.794871,4539.487179,4556.410256,4277.948717,4548.717948,4216.923076,4457.435897,4225.641025,4242.051282,4516.410256,4237.435897,4631.794871,4001.538461,4056.923076
214,4430.769230,4539.487179,4553.333333,4274.358974,4549.743589,4209.230769,4455.384615,4229.230769,4243.076923,4518.461538,4230.769230,4632.307692,3993.333334,4056.923076
215,4427.179487,4532.820512,4547.179487,4265.128205,4545.128205,4202.051282,4444.102564,4217.948717,4235.384615,4508.205128,4227.179487,4628.205128,3992.307693,4054.358974
216,4425.128205,4531.282051,4547.692307,4269.230769,4539.487179,4203.589743,4440.512820,4216.410256,4233.846153,4506.153846,4226.666666,4625.641025,3998.461539,4056.410256
217,4431.282051,4536.410256,4555.897435,4278.974358,4540.000000,4205.641025,4453.333333,4230.256410,4246.666666,4512.820512,4229.743589,4631.282051,4005.641025,4063.076923
218,4437.948717,4543.589743,4560.000000,4276.410256,4544.615384,4208.717948,4460.000000,4234.871794,4256.923076,4513.333333,4240.000000,4636.410256,4006.153846,4066.153846
219,4443.589743,4549.743589,4558.461538,4273.846153,4548.717948,4209.230769,4456.923076,4231.282051,4255.897435,4512.307692,4243.076923,4638.974358,4006.153846,4069.743589
220,4445.641025,4544.102564,4560.000000,4283.076923,4550.256410,4208.205128,4456.410256,4233.846153,4250.769230,4516.923076,4233.846153,4641.025641,4010.769230,4073.333333
221,4440.512820,4532.307692,4561.538461,4286.153846,4549.743589,4210.256410,4456.923076,4232.820512,4245.641025,4515.384615,4228.717948,4638.974358,4009.743589,4070.256410
222,4431.794871,4534.871794,4555.897435,4276.410256,4553.333333,4210.256410,4456.410256,4222.051282,4238.461538,4508.717948,4234.358974,4632.820512,3996.923077,4064.615384
223,4429.743589,4544.102564,4550.769230,4270.256410,4556.410256,4207.692307,4457.948717,4212.307692,4232.307692,4504.615384,4234.871794,4630.256410,3992.307693,4063.589743
224,4430.769230,4538.974358,4552.820512,4273.333333,4550.256410,4212.820512,4459.487179,4209.230769,4233.333333,4504.102564,4224.102564,4630.256410,3998.974359,4063.589743
225,4427.692307,4534.358974,4556.410256,4281.025641,4544.615384,4220.000000,4457.435897,4214.871794,4240.512820,4506.153846,4221.025641,4630.769230,3999.487180,4061.538461
226,4431.282051,4546.666666,4560.000000,4284.615384,4549.230769,4215.897435,4458.974358,4228.205128,4252.820512,4513.846153,4231.794871,4635.897435,3996.923077,4065.128205
227,4438.974358,4555.384615,4561.538461,4280.000000,4557.435897,4215.897435,4462.564102,4237.948717,4260.512820,4527.179487,4238.461538,4641.025641,4000.512820,4069.743589
228,4435.897435,4546.153846,4555.897435,4274.358974,4554.358974,4216.923076,4458.974358,4233.333333,4252.820512,4525.128205,4234.358974,4640.000000,4005.641025,4066.666666
229,4436.410256,4537.435897,4553.846153,4276.410256,4548.205128,4213.846153,4456.410256,4226.153846,4242.564102,4517.948717,4231.794871,4637.435897,4005.641025,4063.076923
230,4444.615384,4544.615384,4562.564102,4288.205128,4557.948717,4215.384615,4458.461538,4230.769230,4248.717948,4522.564102,4236.923076,4637.948717,4007.179487,4068.205128
231,4448.205128,4555.384615,4568.205128,4295.384615,4566.153846,4218.974358,4460.512820,4235.897435,4261.025641,4523.589743,4245.641025,4640.000000,4013.846153,4074.871794
232,4445.641025,4557.435897,4564.615384,4288.205128,4559.487179,4218.461538,4467.179487,4234.358974,4260.512820,4518.461538,4246.153846,4644.102564,4015.384615,4074.358974
233,4443.076923,4555.384615,4560.000000,4282.051282,4553.846153,4217.435897,4470.256410,4233.333333,4254.358974,4523.076923,4232.820512,4647.692307,4009.743589,4071.282051
234,4443.076923,4549.230769,4558.974358,4284.615384,4555.897435,4215.897435,4463.076923,4226.666666,4246.153846,4523.589743,4227.179487,4643.589743,4006.153846,4069.230769
235,4444.102564,4545.128205,4554.358974,4285.128205,4555.384615,4211.282051,4456.923076,4208.717948,4232.307692,4508.717948,4234.358974,4633.846153,4007.179487,4067.692307
236,4443.076923,4549.230769,4553.846153,4282.564102,4552.307692,4208.717948,4456.923076,4201.538461,4226.153846,4506.666666,4234.871794,4630.256410,4008.717948,4066.666666
237,4448.717948,4553.846153,4560.000000,4284.102564,4552.307692,4212.820512,4457.948717,4209.743589,4236.410256,4518.461538,4231.794871,4635.384615,4012.307692,4072.307692
238,4460.000000,4554.871794,4563.076923,4288.205128,4553.333333,4216.410256,4457.948717,4219.487179,4246.153846,4522.564102,4235.384615,4641.025641,4015.897435,4081.025641
239,4454.871794,4555.384615,4562.051282,4286.666666,4550.256410,4212.820512,4453.846153,4225.641025,4245.128205,4517.948717,4237.948717,4641.025641,4016.410256,4075.897435
240,4441.025641,4549.230769,4555.897435,4280.000000,4543.589743,4205.128205,4444.615384,4222.564102,4241.025641,4509.230769,4231.794871,4636.923076,4013.846153,4064.615384
241,4441.025641,4542.051282,4547.179487,4274.871794,4535.897435,4197.948717,4439.487179,4216.923076,4237.948717,4507.179487,4225.641025,4634.358974,4005.641025,4066.153846
242,4447.692307,4546.666666,4550.256410,4275.897435,4534.871794,4195.897435,4439.487179,4223.076923,4242.051282,4513.333333,4230.256410,4641.538461,4000.512820,4071.794871
243,4448.717948,4553.333333,4562.564102,4284.102564,4546.666666,4206.153846,4443.076923,4236.410256,4252.307692,4516.923076,4240.512820,4648.717948,4006.666666,4071.794871
244,4447.692307,4550.256410,4564.615384,4291.282051,4554.871794,4214.358974,4446.666666,4235.384615,4252.307692,4511.282051,4236.410256,4646.666666,4010.256410,4071.282051
245,4442.564102,4543.076923,4555.384615,4288.717948,4545.128205,4209.230769,4445.641025,4222.051282,4237.948717,4502.564102,4225.128205,4639.487179,4002.051282,4066.153846
246,4433.846153,4535.384615,4549.743589,4274.871794,4540.000000,4198.974358,4440.000000,4213.333333,4225.641025,4500.512820,4222.051282,4634.358974,3994.871795,4057.435897
247,4429.230769,4534.871794,4547.692307,4266.153846,4544.615384,4197.948717,4435.897435,4209.743589,4223.589743,4500.000000,4217.948717,4633.333333,3997.948718,4061.025641
248,4428.717948,4541.025641,4550.256410,4275.384615,4542.564102,4201.025641,4436.923076,4203.589743,4230.769230,4497.948717,4217.435897,4636.923076,4001.025641,4071.794871
249,4431.282051,4540.512820,4556.923076,4281.538461,4541.025641,4200.000000,4442.051282,4203.076923,4236.410256,4501.025641,4227.692307,4639.487179,4001.025641,4074.358974
250,4432.307692,4537.435897,4558.461538,4271.794871,4547.179487,4198.974358,4444.102564,4212.820512,4235.384615,4506.666666,4230.769230,4640.512820,4006.666666,4074.358974
251,4428.717948,4539.487179,4552.307692,4268.717948,4543.589743,4199.487179,4442.564102,4220.000000,4235.384615,4509.743589,4227.179487,4642.051282,4012.307692,4073.333333
252,4427.692307,4538.974358,4551.282051,4273.846153,4537.435897,4198.974358,4443.076923,4218.974358,4242.051282,4512.820512,4232.820512,4643.589743,4007.692307,4072.820512
253,4430.769230,4541.025641,4557.948717,4273.333333,4539.487179,4196.923076,4443.589743,4218.974358,4240.000000,4514.871794,4238.461538,4643.589743,4002.051282,4077.948717
254,4432.307692,4547.179487,4556.410256,4271.794871,4540.512820,4197.948717,4440.512820,4221.025641,4236.410256,4514.358974,4229.743589,4642.564102,4004.102564,4082.051282
255,4426.666666,4543.076923,4548.717948,4272.820512,4532.820512,4198.461538,4440.000000,4220.512820,4247.179487,4515.384615,4219.487179,4637.948717,4007.179487,4077.435897
256,4417.948717,4527.179487,4544.102564,4269.230769,4528.717948,4192.307692,4442.051282,4220.000000,4250.769230,4513.846153,4220.512820,4632.820512,4000.512820,4070.769230
257,4408.205128,4520.000000,4538.461538,4258.974358,4530.769230,4185.128205,4436.923076,4215.897435,4230.769230,4505.641025,4216.923076,4626.153846,3980.512821,4062.564102
258,4403.589743,4523.589743,4534.358974,4248.717948,4527.692307,4183.589743,4427.692307,4205.128205,4215.384615,4493.846153,4200.512820,4618.974358,3970.256411,4053.333333
259,4408.205128,4524.615384,4538.461538,4252.307692,4520.512820,4185.128205,4428.205128,4200.512820,4220.000000,4494.358974,4199.487179,4623.076923,3984.615385,4059.487179
