,AF3,F7,F3,FC5,T7,P7,O1,O2,P8,T8,FC6,F4,F8,AF4
0,4386.153846,4527.692307,4485.128205,4279.487179,4494.358974,4198.461538,4440.000000,4203.589743,4278.974358,4501.538461,4232.820512,4674.871794,3944.102565,4092.820512
1,4389.743589,4529.743589,4487.692307,4285.128205,4498.461538,4199.487179,4432.820512,4202.051282,4278.974358,4501.025641,4235.384615,4677.948717,3946.153847,4096.923076
2,4387.179487,4529.230769,4483.589743,4285.641025,4497.435897,4196.923076,4431.794871,4201.025641,4275.897435,4501.538461,4232.307692,4673.333333,3938.974359,4095.897435
3,4378.461538,4520.000000,4478.974358,4278.974358,4488.717948,4186.666666,4427.179487,4192.307692,4265.641025,4493.846153,4222.564102,4663.589743,3928.717949,4084.615384
4,4377.948717,4521.538461,4476.410256,4275.384615,4488.205128,4187.179487,4426.153846,4188.205128,4263.589743,4485.641025,4215.384615,4659.487179,3924.615385,4080.000000
5,4386.153846,4536.410256,4481.538461,4284.102564,4494.871794,4198.974358,4437.948717,4197.948717,4274.871794,4486.666666,4216.923076,4661.025641,3927.692308,4089.230769
6,4389.230769,4540.512820,4485.641025,4288.717948,4493.846153,4205.128205,4446.666666,4203.076923,4280.000000,4495.897435,4224.102564,4661.538461,3933.846154,4092.820512
7,4388.205128,4533.333333,4482.564102,4282.564102,4490.769230,4200.000000,4437.948717,4201.538461,4278.974358,4504.102564,4229.743589,4666.153846,3940.000000,4092.307692
8,4389.743589,4533.846153,4482.051282,4280.512820,4491.794871,4191.794871,4429.743589,4203.589743,4281.025641,4507.692307,4231.794871,4671.794871,3942.564103,4097.435897
9,4392.307692,4538.461538,4490.256410,4284.102564,4491.282051,4186.666666,4431.282051,4202.051282,4280.512820,4503.589743,4229.230769,4671.794871,3941.538462,4100.512820
10,4390.256410,4534.358974,4490.769230,4285.128205,4492.307692,4184.102564,4430.256410,4197.435897,4277.948717,4491.282051,4223.076923,4672.307692,3939.487180,4097.948717
11,4389.743589,4530.256410,4484.615384,4281.025641,4493.846153,4190.769230,4427.179487,4199.487179,4280.000000,4490.769230,4221.025641,4671.794871,3937.435898,4095.384615
12,4390.769230,4534.871794,4478.974358,4279.487179,4493.333333,4198.461538,4433.333333,4201.538461,4280.000000,4503.589743,4221.025641,4667.179487,3937.948718,4092.307692
13,4385.641025,4540.000000,4473.846153,4280.512820,4493.333333,4194.871794,4437.435897,4197.435897,4278.461538,4501.538461,4216.923076,4661.025641,3934.358975,4089.743589
14,4381.025641,4535.897435,4473.333333,4279.487179,4492.307692,4190.769230,4432.307692,4194.871794,4278.974358,4488.205128,4212.820512,4655.897435,3925.641026,4087.179487
15,4382.051282,4526.153846,4474.358974,4276.923076,4490.256410,4192.307692,4429.743589,4194.358974,4272.820512,4489.743589,4214.871794,4652.307692,3923.589744,4083.076923
16,4382.051282,4523.076923,4470.769230,4275.384615,4488.717948,4191.794871,4430.769230,4190.256410,4263.589743,4492.820512,4215.384615,4652.307692,3927.692308,4081.538461
17,4385.128205,4530.769230,4473.846153,4277.435897,4489.230769,4188.717948,4429.743589,4186.153846,4264.615384,4488.717948,4214.871794,4658.461538,3929.230770,4086.153846
18,4394.871794,4538.461538,4485.641025,4279.487179,4491.794871,4192.307692,4431.282051,4186.666666,4269.743589,4496.923076,4220.000000,4663.589743,3928.717949,4090.256410
19,4398.461538,4538.461538,4486.666666,4280.512820,4492.820512,4193.333333,4433.846153,4193.333333,4271.282051,4509.743589,4225.641025,4664.102564,3933.333334,4091.794871
20,4395.897435,4535.384615,4482.564102,4281.025641,4490.769230,4188.717948,4430.769230,4199.487179,4269.743589,4503.076923,4223.589743,4663.076923,3934.871795,4094.358974
21,4397.435897,4530.769230,4484.615384,4279.487179,4488.205128,4186.666666,4427.692307,4201.025641,4267.692307,4493.333333,4219.487179,4663.589743,3931.282052,4095.384615
22,4396.410256,4522.564102,4483.076923,4277.435897,4487.179487,4184.615384,4430.256410,4200.000000,4270.256410,4496.410256,4218.461538,4664.615384,3929.230770,4092.307692
23,4390.769230,4521.538461,4480.512820,4277.435897,4487.692307,4184.102564,4430.769230,4201.538461,4275.897435,4497.948717,4217.435897,4663.076923,3931.282052,4090.256410
24,4393.846153,4530.256410,4480.512820,4281.538461,4490.256410,4186.666666,4429.230769,4203.589743,4280.512820,4500.000000,4224.102564,4664.102564,3935.897436,4092.820512
25,4400.512820,4538.461538,4484.102564,4284.615384,4492.820512,4186.666666,4428.717948,4199.487179,4276.410256,4501.538461,4228.717948,4666.153846,3939.487180,4094.358974
26,4401.025641,4539.487179,4487.179487,4283.076923,4494.358974,4186.666666,4428.717948,4196.410256,4267.179487,4497.435897,4224.102564,4667.179487,3942.051283,4094.871794
27,4401.025641,4537.948717,4485.641025,4279.487179,4495.384615,4192.820512,4430.256410,4197.435897,4265.128205,4496.410256,4223.076923,4665.641025,3941.538462,4095.384615
28,4400.512820,4537.435897,4483.076923,4280.512820,4492.307692,4200.000000,4433.333333,4196.923076,4269.230769,4498.461538,4223.589743,4662.564102,3942.564103,4092.820512
29,4397.435897,4538.461538,4486.153846,4281.025641,4493.846153,4199.487179,4437.948717,4193.333333,4267.692307,4498.461538,4222.564102,4663.076923,3947.692308,4091.282051
30,4400.000000,4540.000000,4487.692307,4279.487179,4503.076923,4200.000000,4442.051282,4195.897435,4263.589743,4501.538461,4228.205128,4668.205128,3953.846154,4092.820512
31,4403.076923,4541.538461,4487.179487,4279.487179,4508.205128,4205.641025,4444.102564,4201.538461,4272.820512,4507.692307,4235.897435,4671.282051,3960.000000,4097.435897
32,4398.461538,4541.025641,4492.820512,4280.512820,4505.641025,4205.128205,4445.128205,4200.512820,4280.000000,4506.153846,4234.358974,4667.692307,3963.076924,4098.974358
33,4395.897435,4539.487179,4494.871794,4278.974358,4498.461538,4202.564102,4444.102564,4197.435897,4272.307692,4502.051282,4228.717948,4664.615384,3960.000000,4093.846153
34,4396.410256,4538.461538,4490.256410,4277.435897,4495.384615,4203.076923,4442.051282,4197.435897,4265.128205,4500.000000,4226.666666,4664.615384,3955.384616,4089.230769
35,4396.410256,4539.487179,4491.282051,4277.948717,4501.538461,4202.564102,4441.025641,4198.461538,4270.256410,4502.051282,4225.641025,4666.666666,3953.333334,4091.282051
36,4400.000000,4541.538461,4503.076923,4281.025641,4508.717948,4202.564102,4442.564102,4202.051282,4281.025641,4509.743589,4233.333333,4675.384615,3961.025642,4100.000000
37,4399.487179,4542.564102,4507.692307,4281.538461,4506.666666,4203.589743,4443.076923,4204.615384,4284.102564,4510.769230,4242.564102,4681.025641,3972.820513,4103.589743
38,4396.410256,4540.000000,4495.897435,4277.948717,4502.051282,4202.051282,4443.589743,4202.051282,4280.512820,4505.641025,4240.000000,4675.384615,3969.743590,4097.435897
39,4394.871794,4540.512820,4489.743589,4277.435897,4506.153846,4201.538461,4445.128205,4201.538461,4281.538461,4506.153846,4230.256410,4668.205128,3961.025642,4091.794871
40,4391.794871,4546.153846,4493.333333,4280.000000,4510.256410,4204.615384,4445.128205,4203.076923,4286.153846,4514.871794,4230.256410,4667.179487,3964.102565,4091.794871
41,4388.717948,4545.641025,4492.307692,4280.000000,4509.230769,4203.076923,4443.076923,4201.025641,4285.128205,4512.820512,4231.282051,4667.692307,3965.641026,4091.794871
42,4387.179487,4538.974358,4488.205128,4276.923076,4503.589743,4198.461538,4436.410256,4197.948717,4278.974358,4496.410256,4224.102564,4665.641025,3956.410257,4089.230769
43,4391.794871,4538.974358,4494.358974,4276.923076,4504.615384,4199.487179,4435.384615,4199.487179,4278.461538,4494.871794,4226.666666,4666.666666,3955.897436,4093.333333
44,4395.384615,4541.025641,4499.487179,4277.948717,4507.692307,4201.538461,4441.538461,4200.512820,4280.000000,4507.692307,4232.307692,4672.307692,3961.538462,4098.974358
45,4392.820512,4537.435897,4498.974358,4276.923076,4502.564102,4200.512820,4444.102564,4200.512820,4282.051282,4509.230769,4230.769230,4675.384615,3958.461539,4098.461538
46,4389.230769,4538.461538,4501.025641,4276.410256,4502.051282,4201.538461,4442.564102,4203.076923,4288.205128,4508.717948,4232.820512,4673.333333,3961.025642,4095.384615
47,4387.692307,4542.051282,4497.435897,4277.435897,4507.692307,4202.564102,4438.974358,4204.615384,4286.666666,4508.717948,4227.179487,4668.717948,3961.025642,4092.307692
48,4380.512820,4536.923076,4493.333333,4275.384615,4500.000000,4198.974358,4432.820512,4195.384615,4277.948717,4495.897435,4211.282051,4665.128205,3952.307693,4090.256410
49,4382.051282,4535.897435,4495.897435,4276.410256,4490.769230,4196.923076,4428.717948,4189.743589,4277.435897,4491.794871,4211.282051,4667.179487,3953.333334,4091.282051
50,4393.333333,4538.974358,4500.512820,4281.025641,4497.435897,4197.435897,4427.692307,4192.820512,4280.000000,4504.102564,4226.666666,4676.923076,3958.974359,4097.435897
51,4392.820512,4538.974358,4503.589743,4282.051282,4506.666666,4197.948717,4428.717948,4190.256410,4277.435897,4507.692307,4232.820512,4680.512820,3956.923077,4099.487179
52,4392.820512,4546.153846,4505.641025,4284.615384,4510.256410,4200.512820,4435.384615,4191.282051,4280.512820,4506.666666,4231.794871,4677.948717,3960.000000,4101.025641
53,4396.410256,4551.794871,4504.102564,4286.666666,4505.641025,4200.000000,4432.820512,4196.410256,4281.538461,4506.666666,4231.282051,4674.871794,3966.666667,4100.000000
54,4390.256410,4544.102564,4498.461538,4283.589743,4497.435897,4196.410256,4424.102564,4195.384615,4276.410256,4502.051282,4230.256410,4672.820512,3961.538462,4094.358974
55,4389.230769,4541.538461,4497.948717,4281.538461,4502.051282,4200.000000,4433.846153,4196.410256,4282.564102,4503.076923,4232.307692,4671.794871,3958.461539,4095.897435
56,4392.820512,4544.102564,4497.435897,4279.487179,4508.717948,4201.025641,4442.051282,4204.615384,4289.230769,4508.717948,4232.820512,4673.333333,3960.000000,4098.461538
57,4385.641025,4537.948717,4491.794871,4276.410256,4496.410256,4192.307692,4430.256410,4205.128205,4281.538461,4509.743589,4227.692307,4670.769230,3950.256411,4093.846153
58,4372.820512,4530.769230,4484.102564,4273.846153,4485.641025,4190.769230,4427.179487,4201.025641,4274.358974,4501.538461,4221.025641,4661.025641,3942.051283,4086.153846
59,4371.282051,4528.717948,4481.025641,4272.307692,4490.256410,4199.487179,4440.512820,4203.076923,4278.974358,4491.282051,4217.948717,4655.897435,3945.641026,4084.102564
60,4371.794871,4527.692307,4482.051282,4267.692307,4490.769230,4202.051282,4445.641025,4203.076923,4283.589743,4496.410256,4218.461538,4656.923076,3947.692308,4082.051282
61,4369.230769,4526.153846,4476.410256,4265.128205,4487.692307,4197.948717,4442.564102,4202.564102,4282.051282,4504.102564,4211.794871,4652.307692,3940.512821,4077.435897
62,4366.666666,4523.589743,4471.282051,4264.102564,4488.205128,4197.948717,4443.589743,4201.538461,4281.025641,4497.435897,4203.076923,4646.153846,3936.923077,4074.358974
63,4362.564102,4520.512820,4472.820512,4261.025641,4487.692307,4201.538461,4444.615384,4201.538461,4281.025641,4493.846153,4205.128205,4646.153846,3937.435898,4074.358974
64,4361.025641,4522.051282,4471.794871,4261.538461,4488.717948,4202.564102,4444.615384,4203.076923,4280.512820,4495.897435,4208.205128,4647.692307,3935.897436,4074.358974
65,4363.589743,4523.589743,4472.820512,4264.615384,4490.256410,4200.512820,4445.641025,4202.051282,4280.000000,4491.282051,4209.743589,4646.153846,3934.358975,4073.846153
66,4365.128205,4523.589743,4475.384615,4265.128205,4485.128205,4200.000000,4445.128205,4201.538461,4282.051282,4491.794871,4211.794871,4646.153846,3936.410257,4076.410256
67,4365.641025,4520.512820,4475.384615,4262.564102,4475.384615,4199.487179,4443.589743,4201.025641,4282.051282,4496.410256,4213.333333,4647.692307,3941.538462,4078.974358
68,4364.102564,4517.435897,4473.846153,4260.000000,4473.846153,4191.282051,4436.923076,4194.358974,4275.897435,4489.230769,4210.769230,4648.205128,3940.000000,4075.897435
69,4361.025641,4519.487179,4472.307692,4262.564102,4476.923076,4184.615384,4427.179487,4185.641025,4267.179487,4487.179487,4207.692307,4646.666666,3935.384616,4073.846153
70,4358.974358,4522.051282,4470.256410,4265.128205,4475.897435,4184.615384,4423.589743,4184.102564,4263.589743,4492.307692,4207.692307,4646.153846,3935.897436,4074.358974
71,4363.589743,4523.589743,4476.923076,4264.615384,4474.871794,4185.128205,4426.666666,4185.641025,4270.256410,4489.743589,4212.820512,4650.769230,3936.410257,4075.897435
72,4371.282051,4524.615384,4482.564102,4266.666666,4477.948717,4183.589743,4426.666666,4189.230769,4277.435897,4488.717948,4216.923076,4656.923076,3934.871795,4081.025641
73,4374.871794,4524.102564,4480.512820,4268.717948,4480.512820,4184.615384,4424.615384,4197.435897,4278.461538,4499.487179,4216.410256,4663.076923,3941.538462,4090.256410
74,4370.256410,4524.102564,4484.615384,4267.179487,4478.974358,4187.692307,4431.282051,4201.025641,4280.512820,4504.615384,4216.410256,4665.641025,3945.641026,4088.717948
75,4362.564102,4522.051282,4486.666666,4264.615384,4476.410256,4188.205128,4435.897435,4193.333333,4281.025641,4494.871794,4214.358974,4660.512820,3930.769231,4076.923076
76,4362.564102,4514.358974,4480.512820,4264.102564,4475.384615,4186.153846,4431.794871,4188.205128,4275.384615,4488.717948,4212.307692,4657.948717,3926.153847,4073.846153
77,4367.179487,4506.153846,4482.051282,4263.589743,4476.410256,4185.128205,4426.666666,4194.358974,4273.846153,4491.794871,4218.461538,4662.051282,3942.051283,4082.564102
78,4366.153846,4507.692307,4490.256410,4262.051282,4473.846153,4186.153846,4426.153846,4201.025641,4277.948717,4496.410256,4222.564102,4663.589743,3946.666667,4085.641025
79,4365.641025,4513.846153,4493.333333,4263.589743,4474.871794,4187.692307,4434.871794,4201.025641,4278.974358,4502.564102,4222.564102,4662.051282,3942.051283,4085.128205
80,4369.743589,4517.948717,4488.717948,4266.666666,4486.153846,4189.230769,4443.589743,4202.564102,4281.025641,4510.769230,4224.615384,4665.128205,3945.128206,4089.230769
81,4369.743589,4516.923076,4482.564102,4264.615384,4486.666666,4188.205128,4435.897435,4198.461538,4276.923076,4504.102564,4223.076923,4664.102564,3945.641026,4085.128205
82,4365.641025,4515.384615,4482.051282,4263.589743,4477.435897,4184.615384,4425.641025,4187.692307,4269.230769,4494.358974,4216.410256,4657.435897,3939.487180,4078.974358
83,4369.230769,4521.538461,4487.179487,4272.307692,4481.025641,4189.743589,4429.743589,4189.230769,4271.282051,4500.000000,4215.384615,4656.923076,3941.538462,4085.641025
84,4374.358974,4526.153846,4487.179487,4276.923076,4490.256410,4197.948717,4431.794871,4200.000000,4277.948717,4508.717948,4218.974358,4658.974358,3947.179488,4093.333333
85,4374.871794,4525.641025,4481.538461,4273.333333,4491.794871,4197.948717,4430.769230,4202.051282,4287.692307,4514.871794,4225.128205,4659.487179,3949.743590,4093.333333
86,4377.948717,4526.666666,4480.512820,4274.871794,4487.692307,4195.384615,4437.948717,4201.538461,4295.897435,4523.076923,4230.769230,4662.051282,3952.820513,4094.358974
87,4382.051282,4528.717948,4486.666666,4278.974358,4480.000000,4198.974358,4443.076923,4203.589743,4291.282051,4521.538461,4234.358974,4667.179487,3957.948718,4095.897435
88,4381.538461,4525.641025,4489.230769,4281.025641,4476.923076,4200.000000,4443.589743,4201.538461,4280.512820,4507.692307,4231.282051,4668.205128,3958.974359,4093.846153
89,4378.974358,4523.076923,4484.102564,4276.923076,4478.974358,4197.948717,4445.641025,4200.000000,4278.461538,4502.051282,4222.564102,4661.025641,3950.256411,4089.230769
90,4373.333333,4523.076923,4476.410256,4267.179487,4476.410256,4196.923076,4444.102564,4198.974358,4279.487179,4506.153846,4214.358974,4653.333333,3940.512821,4084.615384
91,4369.743589,4520.512820,4477.435897,4267.179487,4481.538461,4197.948717,4441.538461,4198.974358,4277.435897,4508.205128,4215.384615,4655.384615,3940.000000,4085.641025
92,4373.333333,4523.076923,4484.615384,4280.000000,4492.820512,4199.487179,4436.923076,4201.025641,4276.923076,4506.666666,4218.974358,4658.974358,3944.102565,4088.717948
93,4373.333333,4526.153846,4482.051282,4282.564102,4490.769230,4198.461538,4429.230769,4200.512820,4275.384615,4498.974358,4217.435897,4655.384615,3944.102565,4087.179487
94,4374.358974,4524.102564,4478.974358,4276.410256,4486.153846,4197.435897,4427.692307,4198.974358,4275.897435,4499.487179,4217.948717,4655.384615,3940.512821,4088.205128
95,4380.000000,4528.717948,4481.025641,4278.974358,4491.794871,4198.974358,4430.256410,4203.589743,4279.487179,4510.769230,4218.974358,4656.923076,3943.076924,4091.794871
96,4382.051282,4536.410256,4482.051282,4284.615384,4491.794871,4198.974358,4427.692307,4204.102564,4283.589743,4511.794871,4218.974358,4657.948717,3948.717949,4089.743589
97,4383.589743,4537.435897,4487.179487,4282.564102,4487.179487,4198.461538,4432.307692,4201.025641,4288.717948,4504.615384,4223.589743,4665.641025,3953.333334,4091.282051
98,4389.743589,4537.948717,4500.512820,4284.102564,4490.256410,4199.487179,4443.076923,4210.256410,4294.871794,4513.333333,4232.307692,4674.358974,3958.461539,4101.538461
99,4391.282051,4536.410256,4501.538461,4285.641025,4487.692307,4199.487179,4444.102564,4213.846153,4292.820512,4521.538461,4233.846153,4675.384615,3953.846154,4104.615384
100,4386.153846,4528.717948,4488.717948,4280.000000,4476.410256,4198.461538,4440.512820,4203.589743,4283.589743,4513.333333,4224.102564,4670.256410,3942.564103,4093.846153
101,4389.743589,4529.743589,4489.743589,4283.076923,4478.974358,4201.538461,4443.589743,4204.102564,4284.102564,4505.641025,4222.051282,4668.205128,3948.717949,4090.256410
102,4395.384615,4540.512820,4496.923076,4293.846153,4492.307692,4205.128205,4446.153846,4211.282051,4287.692307,4509.743589,4226.153846,4670.256410,3956.923077,4100.000000
103,4391.794871,4542.564102,4492.820512,4289.230769,4494.871794,4204.615384,4444.102564,4205.641025,4282.564102,4510.769230,4227.692307,4669.230769,3949.230770,4103.076923
104,4387.179487,4535.897435,4483.589743,4277.435897,4483.076923,4201.025641,4442.564102,4197.948717,4276.923076,4504.102564,4225.641025,4662.051282,3943.589744,4095.384615
105,4387.692307,4535.897435,4482.051282,4278.461538,4475.384615,4198.974358,4441.025641,4204.102564,4280.512820,4506.666666,4223.076923,4661.025641,3950.256411,4091.794871
106,4388.205128,4539.487179,4490.256410,4281.538461,4484.615384,4200.000000,4440.000000,4209.743589,4285.641025,4512.307692,4225.128205,4665.641025,3955.384616,4095.897435
107,4387.179487,4534.871794,4491.282051,4280.512820,4489.743589,4197.948717,4442.564102,4205.128205,4284.615384,4509.743589,4227.179487,4667.692307,3950.769231,4101.538461
108,4393.333333,4531.282051,4489.743589,4281.538461,4478.461538,4190.256410,4442.564102,4203.589743,4282.564102,4511.282051,4225.641025,4669.230769,3949.743590,4104.615384
109,4398.974358,4535.384615,4494.358974,4280.000000,4471.794871,4185.641025,4436.923076,4211.282051,4284.615384,4520.512820,4227.692307,4674.871794,3956.923077,4106.666666
110,4397.948717,4536.923076,4495.384615,4280.512820,4477.435897,4189.743589,4436.410256,4214.358974,4290.256410,4520.000000,4234.871794,4676.923076,3964.615385,4107.179487
111,4397.435897,4534.358974,4493.333333,4281.538461,4478.461538,4199.487179,4442.051282,4205.128205,4290.256410,4509.230769,4226.666666,4671.282051,3958.974359,4106.666666
112,4395.897435,4532.820512,4492.820512,4278.461538,4476.923076,4199.487179,4443.076923,4199.487179,4285.128205,4506.666666,4212.307692,4663.076923,3945.128206,4102.051282
113,4389.743589,4526.666666,4489.743589,4278.461538,4476.923076,4189.743589,4440.512820,4201.025641,4281.025641,4510.256410,4215.384615,4660.512820,3940.512821,4092.820512
114,4386.666666,4522.051282,4487.692307,4278.974358,4474.358974,4189.230769,4437.948717,4199.487179,4275.897435,4507.179487,4218.974358,4663.589743,3941.538462,4089.230769
115,4384.102564,4522.564102,4488.717948,4270.769230,4472.820512,4191.794871,4433.333333,4189.230769,4265.641025,4493.846153,4206.153846,4660.000000,3937.435898,4092.820512
116,4378.461538,4517.948717,4482.051282,4266.666666,4473.333333,4184.615384,4427.179487,4181.538461,4258.974358,4487.179487,4194.871794,4651.282051,3923.076924,4088.205128
117,4383.589743,4518.461538,4482.051282,4276.923076,4476.410256,4187.179487,4426.666666,4190.769230,4267.179487,4501.025641,4206.153846,4655.384615,3926.666667,4085.128205
118,4399.487179,4536.923076,4495.384615,4285.641025,4480.512820,4203.076923,4435.897435,4202.564102,4282.564102,4515.384615,4223.076923,4668.205128,3945.641026,4099.487179
119,4401.025641,4541.538461,4499.487179,4283.076923,4477.435897,4199.487179,4439.487179,4200.000000,4283.589743,4510.256410,4222.051282,4669.743589,3948.717949,4106.153846
120,4391.794871,4525.128205,4491.282051,4277.948717,4472.820512,4185.641025,4435.384615,4197.435897,4273.846153,4502.564102,4215.897435,4662.051282,3940.000000,4095.897435
121,4391.794871,4524.615384,4484.102564,4278.974358,4475.897435,4190.769230,4437.948717,4201.538461,4272.307692,4507.692307,4220.000000,4662.564102,3938.461539,4092.820512
122,4392.820512,4533.846153,4483.589743,4279.487179,4478.461538,4194.358974,4439.487179,4197.948717,4271.794871,4507.692307,4221.025641,4664.102564,3943.589744,4096.923076
123,4386.153846,4527.692307,4483.589743,4279.487179,4470.256410,4184.102564,4428.717948,4187.179487,4264.102564,4498.974358,4211.794871,4657.948717,3942.564103,4092.820512
124,4382.051282,4522.051282,4477.948717,4279.487179,4465.641025,4179.487179,4421.538461,4182.051282,4257.948717,4493.333333,4202.051282,4650.769230,3933.846154,4083.076923
125,4378.974358,4521.025641,4468.717948,4272.307692,4470.769230,4184.615384,4424.102564,4183.076923,4252.307692,4485.641025,4195.384615,4645.641025,3918.974359,4073.846153
126,4375.384615,4515.897435,4470.256410,4268.717948,4474.358974,4185.641025,4426.666666,4183.076923,4252.820512,4484.615384,4199.487179,4645.128205,3914.358975,4074.358974
127,4379.487179,4518.461538,4478.974358,4273.333333,4474.871794,4186.153846,4429.230769,4184.615384,4262.564102,4499.487179,4212.307692,4649.230769,3924.615385,4084.615384
128,4384.102564,4521.538461,4475.897435,4271.794871,4473.333333,4188.205128,4430.256410,4186.666666,4268.717948,4505.128205,4212.820512,4647.692307,3931.282052,4083.589743
129,4380.000000,4513.846153,4470.769230,4264.102564,4464.615384,4183.589743,4427.692307,4185.641025,4263.589743,4493.333333,4202.051282,4645.128205,3927.179488,4077.435897
130,4378.974358,4515.897435,4480.512820,4262.051282,4461.025641,4180.512820,4427.692307,4185.641025,4264.102564,4486.153846,4200.512820,4647.179487,3918.461539,4083.589743
131,4385.641025,4524.615384,4486.666666,4268.717948,4471.794871,4180.512820,4426.666666,4186.666666,4267.179487,4492.820512,4203.589743,4648.717948,3917.435898,4092.307692
132,4390.769230,4523.589743,4483.076923,4274.871794,4477.435897,4181.025641,4421.025641,4184.102564,4264.615384,4500.512820,4202.051282,4648.205128,3923.589744,4090.769230
133,4389.743589,4521.538461,4483.589743,4272.820512,4473.333333,4181.025641,4418.974358,4182.051282,4264.615384,4503.076923,4202.564102,4649.230769,3928.205129,4085.641025
134,4382.564102,4523.076923,4483.076923,4265.128205,4471.282051,4180.000000,4424.615384,4183.076923,4263.589743,4503.076923,4203.076923,4648.205128,3922.564103,4085.641025
135,4381.538461,4516.923076,4478.461538,4263.589743,4469.230769,4181.538461,4428.205128,4181.538461,4263.076923,4501.538461,4201.538461,4648.205128,3920.000000,4085.641025
136,4388.717948,4514.871794,4480.512820,4267.179487,4470.769230,4185.641025,4428.205128,4182.564102,4264.615384,4499.487179,4202.051282,4648.205128,3928.717949,4083.076923
137,4387.179487,4516.923076,4482.051282,4265.128205,4470.769230,4187.179487,4429.743589,4185.641025,4264.102564,4500.512820,4200.512820,4641.025641,3929.743590,4080.512820
138,4379.487179,4509.743589,4475.897435,4260.512820,4463.589743,4184.102564,4429.743589,4180.000000,4263.076923,4505.641025,4197.948717,4638.461538,3924.615385,4082.051282
139,4383.076923,4510.256410,4475.897435,4262.051282,4466.666666,4182.564102,4429.230769,4176.923076,4263.076923,4505.641025,4199.487179,4642.051282,3931.794872,4087.692307
140,4388.205128,4516.410256,4477.948717,4261.538461,4476.410256,4183.076923,4427.692307,4181.538461,4263.589743,4503.076923,4202.564102,4638.974358,3943.589744,4088.717948
141,4383.589743,4510.256410,4473.846153,4252.820512,4478.461538,4183.589743,4426.153846,4184.102564,4263.589743,4505.128205,4204.102564,4631.794871,3943.589744,4080.512820
142,4377.948717,4509.743589,4472.307692,4251.282051,4478.974358,4184.615384,4426.666666,4182.051282,4263.076923,4504.102564,4200.512820,4629.230769,3937.948718,4073.333333
143,4373.846153,4520.512820,4471.282051,4255.384615,4480.512820,4183.076923,4425.641025,4184.102564,4263.076923,4501.538461,4194.358974,4627.692307,3936.923077,4075.384615
144,4372.820512,4524.615384,4473.333333,4258.461538,4482.564102,4184.102564,4424.615384,4186.153846,4263.076923,4505.641025,4200.512820,4628.205128,3943.076924,4078.461538
145,4383.076923,4530.256410,4485.128205,4264.102564,4489.743589,4186.666666,4426.153846,4184.102564,4262.564102,4509.743589,4212.820512,4638.461538,3953.333334,4084.102564
146,4397.435897,4540.000000,4500.512820,4274.871794,4496.923076,4187.179487,4429.230769,4191.794871,4269.230769,4508.205128,4218.974358,4652.820512,3960.000000,4097.435897
147,4400.512820,4540.512820,4508.205128,4280.512820,4495.897435,4189.743589,4429.743589,4200.512820,4282.051282,4511.794871,4223.076923,4658.461538,3963.076924,4108.205128
148,4395.897435,4537.948717,4507.692307,4274.871794,4489.743589,4191.282051,4428.717948,4192.307692,4281.538461,4518.461538,4225.641025,4655.384615,3963.589744,4106.153846
149,4389.230769,4530.769230,4503.076923,4267.179487,4485.128205,4186.153846,4427.692307,4184.615384,4269.230769,4514.871794,4217.435897,4649.743589,3961.025642,4097.435897
150,4377.948717,4519.487179,4493.846153,4260.512820,4482.051282,4182.051282,4423.589743,4184.102564,4262.564102,4503.076923,4201.538461,4639.487179,3951.794872,4086.666666
151,4368.717948,4520.000000,4484.615384,4253.333333,4475.897435,4183.076923,4421.538461,4179.487179,4263.589743,4492.820512,4193.333333,4628.205128,3940.512821,4075.384615
152,4369.230769,4523.076923,4487.179487,4250.769230,4472.820512,4183.589743,4424.102564,4176.410256,4264.102564,4492.820512,4202.564102,4630.256410,3940.000000,4075.384615
153,4376.923076,4520.512820,4493.333333,4260.512820,4485.128205,4183.589743,4427.179487,4182.051282,4263.589743,4502.051282,4210.256410,4638.461538,3950.256411,4087.179487
154,4382.051282,4526.666666,4492.820512,4268.205128,4494.358974,4183.076923,4426.153846,4185.128205,4266.153846,4508.205128,4207.179487,4635.384615,3957.948718,4091.282051
155,4381.538461,4535.384615,4490.769230,4264.615384,4489.743589,4181.025641,4420.512820,4183.589743,4268.717948,4504.102564,4205.128205,4632.820512,3952.820513,4087.179487
156,4380.512820,4536.410256,4496.410256,4262.564102,4488.717948,4181.538461,4420.000000,4181.538461,4267.692307,4502.051282,4210.256410,4640.512820,3949.230770,4089.230769
157,4386.666666,4536.410256,4502.564102,4269.743589,4492.307692,4183.076923,4425.128205,4186.666666,4271.794871,4509.230769,4212.307692,4647.692307,3953.333334,4097.435897
158,4394.871794,4538.974358,4510.769230,4276.410256,4491.794871,4185.641025,4429.230769,4201.538461,4283.589743,4515.384615,4215.897435,4655.897435,3960.000000,4105.641025
159,4393.333333,4538.461538,4515.897435,4276.923076,4489.743589,4187.692307,4432.307692,4206.666666,4284.615384,4518.974358,4221.025641,4661.538461,3961.025642,4108.205128
160,4387.692307,4536.923076,4511.794871,4274.358974,4487.179487,4188.717948,4434.871794,4200.000000,4278.461538,4518.974358,4218.974358,4661.025641,3956.923077,4106.153846
161,4389.230769,4536.923076,4506.666666,4272.820512,4488.717948,4189.743589,4432.307692,4199.487179,4280.512820,4515.897435,4216.923076,4657.948717,3958.461539,4105.128205
162,4386.153846,4533.333333,4501.538461,4267.692307,4489.743589,4188.205128,4426.666666,4193.846153,4281.025641,4509.743589,4216.410256,4652.820512,3959.487180,4099.487179
163,4376.410256,4532.307692,4494.358974,4262.051282,4487.692307,4183.589743,4425.641025,4186.666666,4275.897435,4504.102564,4214.871794,4645.641025,3952.820513,4089.743589
164,4381.538461,4536.923076,4496.410256,4264.102564,4490.256410,4183.076923,4428.205128,4192.820512,4276.923076,4511.282051,4216.923076,4645.128205,3952.307693,4092.307692
165,4393.333333,4538.974358,4506.666666,4272.307692,4492.820512,4187.179487,4429.743589,4201.538461,4281.025641,4520.512820,4216.923076,4649.230769,3957.948718,4101.538461
166,4392.820512,4538.461538,4508.717948,4276.923076,4491.794871,4186.666666,4429.230769,4201.538461,4281.025641,4515.384615,4215.384615,4651.794871,3958.461539,4100.512820
167,4389.230769,4539.487179,4502.051282,4276.410256,4491.794871,4184.102564,4427.179487,4199.487179,4279.487179,4505.641025,4215.384615,4651.794871,3956.410257,4098.461538
168,4388.205128,4538.461538,4500.512820,4272.820512,4491.794871,4185.128205,4426.153846,4201.025641,4279.487179,4504.615384,4216.410256,4649.743589,3957.435898,4098.974358
169,4384.102564,4536.410256,4502.564102,4269.230769,4490.769230,4186.153846,4427.692307,4201.538461,4281.025641,4511.282051,4216.410256,4648.717948,3954.358975,4094.871794
170,4384.102564,4536.410256,4500.000000,4272.820512,4490.769230,4185.128205,4429.230769,4201.025641,4282.051282,4518.974358,4215.897435,4648.717948,3953.333334,4096.410256
171,4388.717948,4537.948717,4500.000000,4277.948717,4490.256410,4184.615384,4428.717948,4201.538461,4281.025641,4521.025641,4218.461538,4648.205128,3956.923077,4101.538461
172,4385.641025,4536.410256,4502.051282,4272.307692,4493.333333,4186.153846,4430.769230,4204.102564,4281.538461,4512.307692,4219.487179,4648.717948,3951.282052,4097.435897
173,4375.384615,4528.717948,4495.897435,4263.589743,4487.692307,4184.102564,4431.282051,4199.487179,4279.487179,4505.641025,4207.692307,4644.102564,3941.538462,4088.717948
174,4368.205128,4521.538461,4486.153846,4262.564102,4474.358974,4175.897435,4423.076923,4187.179487,4268.717948,4506.666666,4194.358974,4632.307692,3938.974359,4084.102564
175,4368.717948,4518.974358,4487.179487,4261.538461,4478.461538,4170.769230,4419.487179,4181.538461,4263.076923,4503.076923,4201.025641,4630.256410,3939.487180,4082.564102
176,4373.333333,4522.564102,4490.256410,4260.512820,4488.205128,4170.769230,4425.128205,4183.589743,4264.615384,4502.564102,4208.717948,4638.461538,3941.025642,4087.692307
177,4376.923076,4524.615384,4489.743589,4263.589743,4480.000000,4171.282051,4426.666666,4185.641025,4267.179487,4508.717948,4205.128205,4642.051282,3943.589744,4093.333333
178,4373.333333,4522.051282,4490.769230,4261.538461,4472.307692,4170.256410,4424.615384,4185.128205,4272.307692,4509.230769,4205.641025,4641.538461,3940.512821,4089.743589
179,4368.717948,4520.512820,4489.743589,4255.384615,4477.435897,4172.307692,4427.692307,4188.205128,4279.487179,4506.666666,4206.666666,4642.564102,3938.974359,4087.692307
180,4368.205128,4521.025641,4485.641025,4255.897435,4476.410256,4172.307692,4426.666666,4189.230769,4281.538461,4512.820512,4206.153846,4637.948717,3945.641026,4090.256410
181,4371.282051,4522.051282,4483.589743,4262.051282,4472.307692,4170.769230,4422.051282,4186.153846,4279.487179,4521.538461,4211.282051,4634.871794,3947.179488,4089.743589
182,4378.974358,4524.615384,4488.717948,4269.230769,4476.923076,4171.794871,4423.589743,4186.153846,4283.076923,4525.641025,4217.948717,4641.025641,3947.179488,4091.794871
183,4381.025641,4525.641025,4492.820512,4271.794871,4480.512820,4171.282051,4422.051282,4186.666666,4278.461538,4519.487179,4216.410256,4643.589743,3950.769231,4094.358974
184,4374.871794,4522.564102,4489.230769,4267.692307,4478.461538,4167.692307,4418.461538,4181.025641,4264.615384,4507.692307,4207.692307,4635.384615,3945.641026,4089.230769
185,4371.794871,4523.589743,4488.205128,4264.102564,4476.410256,4172.307692,4422.051282,4184.615384,4266.153846,4509.230769,4204.615384,4632.307692,3940.512821,4085.641025
186,4373.333333,4525.641025,4492.820512,4265.128205,4477.435897,4182.564102,4432.307692,4199.487179,4279.487179,4521.538461,4211.282051,4638.461538,3943.076924,4089.230769
187,4376.410256,4525.641025,4493.846153,4267.179487,4476.923076,4186.153846,4442.051282,4204.615384,4283.076923,4527.692307,4217.948717,4640.512820,3947.179488,4092.820512
188,4378.461538,4527.692307,4491.794871,4267.179487,4474.871794,4182.564102,4438.974358,4199.487179,4280.000000,4526.153846,4217.948717,4641.025641,3953.333334,4093.846153
189,4380.000000,4527.179487,4493.846153,4267.179487,4474.358974,4182.564102,4432.820512,4197.435897,4280.512820,4521.025641,4213.846153,4642.051282,3955.897436,4093.846153
190,4381.538461,4526.153846,4496.410256,4268.205128,4474.358974,4185.128205,4436.923076,4199.487179,4279.487179,4518.461538,4211.794871,4641.025641,3949.230770,4095.384615
191,4380.512820,4521.025641,4494.871794,4264.615384,4474.871794,4181.538461,4445.128205,4201.538461,4277.435897,4520.512820,4210.769230,4637.435897,3941.025642,4096.410256
192,4372.820512,4509.230769,4489.230769,4257.435897,4471.282051,4176.923076,4442.051282,4200.512820,4278.974358,4518.461538,4204.102564,4631.794871,3935.384616,4088.717948
193,4370.769230,4513.333333,4490.769230,4262.051282,4470.769230,4180.512820,4438.974358,4200.000000,4278.974358,4516.410256,4200.512820,4633.333333,3934.358975,4084.615384
194,4382.051282,4531.794871,4503.589743,4278.461538,4481.538461,4186.666666,4444.615384,4203.076923,4280.512820,4520.512820,4213.846153,4643.076923,3942.564103,4094.871794
195,4387.179487,4536.923076,4504.615384,4280.512820,4484.615384,4186.666666,4442.564102,4198.461538,4278.461538,4524.102564,4219.487179,4643.589743,3947.692308,4098.461538
196,4381.025641,4530.256410,4494.358974,4266.666666,4476.410256,4182.051282,4431.794871,4187.692307,4270.769230,4524.102564,4202.564102,4634.358974,3940.512821,4090.256410
197,4374.871794,4526.153846,4487.692307,4262.564102,4474.871794,4174.358974,4425.128205,4178.974358,4259.487179,4509.230769,4189.230769,4626.153846,3932.820513,4083.589743
198,4370.769230,4520.512820,4483.076923,4265.641025,4474.871794,4167.692307,4425.128205,4174.871794,4251.794871,4492.307692,4185.128205,4617.435897,3924.102565,4077.435897
199,4371.282051,4516.923076,4480.000000,4262.564102,4472.820512,4172.820512,4425.641025,4177.948717,4252.307692,4496.923076,4182.564102,4615.897435,3918.974359,4076.410256
200,4379.487179,4524.615384,4487.179487,4265.641025,4484.102564,4183.076923,4427.179487,4184.615384,4262.051282,4511.282051,4193.333333,4626.666666,3931.282052,4087.179487
201,4388.717948,4538.974358,4495.897435,4278.974358,4497.435897,4186.153846,4430.769230,4188.717948,4272.820512,4516.923076,4208.717948,4636.410256,3947.692308,4096.410256
202,4389.230769,4540.000000,4491.794871,4277.948717,4488.205128,4179.487179,4428.205128,4183.076923,4270.769230,4515.897435,4209.230769,4633.846153,3944.102565,4094.358974
203,4380.512820,4527.692307,4483.589743,4265.128205,4474.871794,4169.743589,4420.512820,4176.410256,4262.564102,4510.256410,4201.025641,4627.692307,3932.820513,4088.205128
204,4378.974358,4525.641025,4485.641025,4267.692307,4477.948717,4169.743589,4421.538461,4177.948717,4262.051282,4508.717948,4199.487179,4629.230769,3934.358975,4088.205128
205,4384.615384,4535.384615,4488.717948,4279.487179,4482.564102,4179.487179,4428.205128,4185.641025,4267.179487,4511.282051,4201.538461,4632.307692,3934.871795,4091.282051
206,4383.589743,4534.358974,4483.076923,4276.410256,4476.923076,4181.538461,4429.230769,4186.666666,4266.153846,4506.153846,4198.461538,4624.102564,3926.153847,4086.666666
207,4377.948717,4527.692307,4482.564102,4268.205128,4473.846153,4172.307692,4427.692307,4184.615384,4261.538461,4505.128205,4190.256410,4618.974358,3926.153847,4081.025641
208,4381.025641,4524.615384,4485.641025,4267.692307,4476.410256,4167.692307,4429.743589,4188.205128,4267.692307,4512.307692,4189.743589,4623.589743,3931.282052,4083.589743
209,4381.025641,4522.564102,4483.076923,4264.615384,4474.871794,4169.743589,4428.717948,4188.205128,4270.256410,4510.769230,4193.846153,4623.076923,3928.205129,4082.564102
210,4373.846153,4520.000000,4481.025641,4261.538461,4471.282051,4170.256410,4425.128205,4185.641025,4264.615384,4505.128205,4194.358974,4619.487179,3926.666667,4074.358974
211,4375.384615,4520.512820,4482.564102,4263.076923,4472.307692,4170.769230,4425.641025,4183.589743,4262.051282,4505.641025,4194.871794,4623.076923,3931.282052,4077.948717
212,4382.051282,4524.102564,4486.153846,4265.641025,4474.358974,4173.333333,4427.179487,4183.589743,4263.589743,4508.205128,4202.051282,4628.717948,3930.256411,4087.692307
213,4383.589743,4524.615384,4488.205128,4267.692307,4476.410256,4171.282051,4425.641025,4185.641025,4264.102564,4511.794871,4202.564102,4630.769230,3929.230770,4087.179487
214,4380.000000,4521.025641,4486.153846,4268.205128,4473.846153,4168.205128,4425.128205,4180.512820,4258.461538,4508.717948,4191.282051,4627.179487,3927.692308,4078.974358
215,4375.384615,4520.512820,4482.051282,4266.666666,4470.256410,4168.717948,4427.179487,4170.769230,4249.743589,4496.923076,4182.564102,4621.025641,3922.051283,4074.871794
216,4375.384615,4522.051282,4481.025641,4263.589743,4471.794871,4169.230769,4427.179487,4167.692307,4250.769230,4495.897435,4184.102564,4619.487179,3917.948718,4074.358974
217,4380.512820,4524.615384,4482.564102,4265.641025,4470.256410,4168.717948,4425.641025,4169.230769,4260.000000,4506.666666,4187.692307,4622.564102,3914.358975,4073.846153
218,4383.589743,4528.717948,4485.641025,4266.666666,4469.230769,4168.717948,4425.128205,4173.333333,4263.076923,4509.230769,4186.153846,4624.615384,3917.435898,4077.948717
219,4381.538461,4527.692307,4488.717948,4264.102564,4467.692307,4169.743589,4426.666666,4182.051282,4262.051282,4505.128205,4181.538461,4622.564102,3923.589744,4079.487179
220,4382.564102,4521.538461,4486.666666,4264.615384,4466.153846,4168.205128,4428.205128,4186.153846,4265.128205,4507.692307,4182.564102,4621.025641,3921.025642,4080.000000
221,4388.205128,4523.589743,4489.230769,4266.153846,4466.153846,4167.692307,4428.205128,4186.666666,4267.692307,4510.769230,4187.692307,4628.717948,3921.025642,4086.153846
222,4387.692307,4522.564102,4492.307692,4264.615384,4463.589743,4168.717948,4427.692307,4186.153846,4264.102564,4507.179487,4187.692307,4630.256410,3922.564103,4086.153846
223,4380.512820,4511.794871,4486.153846,4261.538461,4460.512820,4166.666666,4424.102564,4175.897435,4254.358974,4504.102564,4180.512820,4617.948717,3915.384616,4075.897435
224,4379.487179,4513.333333,4481.538461,4261.538461,4460.512820,4165.128205,4421.025641,4164.615384,4247.179487,4504.615384,4180.000000,4613.333333,3911.282052,4072.307692
225,4385.641025,4523.076923,4486.153846,4264.102564,4467.179487,4167.692307,4421.025641,4169.230769,4247.692307,4509.230769,4185.128205,4617.948717,3917.948718,4076.410256
226,4388.717948,4523.589743,4488.717948,4266.153846,4471.794871,4170.769230,4420.000000,4174.871794,4253.333333,4508.205128,4184.102564,4616.923076,3920.000000,4078.461538
227,4386.666666,4521.538461,4485.128205,4268.205128,4472.820512,4167.692307,4419.487179,4170.769230,4257.435897,4505.128205,4183.589743,4615.384615,3922.564103,4079.487179
228,4385.641025,4526.666666,4485.641025,4272.307692,4474.871794,4167.692307,4424.102564,4174.358974,4260.512820,4507.692307,4186.666666,4615.897435,3929.230770,4080.512820
229,4390.769230,4529.230769,4489.230769,4277.435897,4476.923076,4175.897435,4427.692307,4184.102564,4261.025641,4510.769230,4186.666666,4616.410256,3924.102565,4081.025641
230,4397.948717,4529.743589,4493.846153,4278.974358,4477.435897,4182.564102,4425.128205,4187.179487,4262.051282,4514.358974,4186.153846,4623.589743,3922.564103,4086.666666
231,4403.076923,4535.897435,4499.487179,4278.461538,4473.846153,4183.076923,4429.230769,4194.871794,4273.846153,4524.102564,4195.897435,4633.846153,3937.948718,4098.461538
232,4404.615384,4539.487179,4500.000000,4278.974358,4474.871794,4183.076923,4436.410256,4201.025641,4281.025641,4527.179487,4201.025641,4635.384615,3942.564103,4102.564102
233,4397.435897,4532.307692,4494.871794,4280.000000,4477.435897,4186.666666,4432.820512,4193.333333,4273.846153,4523.076923,4195.897435,4626.666666,3931.282052,4094.358974
234,4390.769230,4523.589743,4487.692307,4274.871794,4474.358974,4183.076923,4427.692307,4182.051282,4264.102564,4525.128205,4196.410256,4620.000000,3931.282052,4088.205128
235,4393.333333,4520.000000,4480.512820,4265.641025,4472.820512,4171.794871,4426.153846,4175.897435,4258.461538,4521.538461,4196.923076,4617.435897,3938.974359,4088.205128
236,4397.435897,4525.128205,4484.615384,4265.128205,4473.846153,4167.692307,4425.128205,4174.358974,4255.897435,4515.384615,4189.743589,4616.410256,3936.923077,4087.692307
237,4396.923076,4529.230769,4491.282051,4272.307692,4474.358974,4170.769230,4424.102564,4180.000000,4257.948717,4512.820512,4184.102564,4615.897435,3933.333334,4088.205128
238,4398.974358,4528.205128,4489.743589,4276.923076,4475.384615,4172.307692,4427.179487,4185.641025,4263.589743,4512.820512,4186.666666,4619.487179,3932.307693,4092.820512
239,4403.076923,4527.692307,4490.769230,4279.487179,4476.923076,4170.769230,4428.205128,4183.076923,4265.641025,4518.461538,4190.256410,4624.102564,3927.692308,4094.871794
240,4398.974358,4522.051282,4491.794871,4270.256410,4467.179487,4169.743589,4425.128205,4172.307692,4257.948717,4516.923076,4183.589743,4618.974358,3925.128206,4089.743589
241,4393.333333,4511.794871,4484.102564,4255.897435,4457.435897,4168.717948,4424.102564,4163.589743,4246.666666,4506.666666,4175.897435,4611.794871,3925.641026,4083.076923
242,4401.025641,4513.846153,4489.743589,4260.000000,4462.564102,4170.256410,4427.179487,4170.769230,4250.769230,4512.820512,4181.538461,4618.974358,3922.051283,4089.230769
243,4411.794871,4523.589743,4503.589743,4271.794871,4468.717948,4172.307692,4428.717948,4185.641025,4270.769230,4529.230769,4192.307692,4630.769230,3928.717949,4104.615384
244,4406.153846,4523.589743,4495.384615,4268.717948,4462.564102,4169.230769,4427.179487,4189.230769,4280.000000,4527.692307,4193.846153,4626.153846,3942.051283,4104.615384
245,4393.846153,4515.897435,4482.051282,4264.615384,4456.410256,4166.153846,4427.179487,4186.666666,4271.794871,4518.974358,4188.717948,4617.435897,3938.461539,4089.743589
246,4389.230769,4509.230769,4480.512820,4264.102564,4456.923076,4166.153846,4427.179487,4181.538461,4264.102564,4520.512820,4181.538461,4612.307692,3917.948718,4078.974358
247,4390.256410,4509.743589,4480.512820,4262.051282,4458.461538,4168.717948,4426.153846,4173.333333,4263.076923,4519.487179,4176.923076,4605.641025,3911.794872,4077.435897
248,4391.794871,4518.974358,4482.051282,4263.589743,4457.435897,4168.717948,4426.666666,4167.179487,4257.948717,4513.846153,4182.051282,4604.615384,3923.589744,4079.487179
249,4398.974358,4522.564102,4488.205128,4264.102564,4459.487179,4166.153846,4426.153846,4171.282051,4253.846153,4511.282051,4186.153846,4611.282051,3931.282052,4085.128205
250,4408.717948,4521.025641,4496.923076,4263.589743,4469.230769,4167.179487,4426.153846,4181.538461,4263.589743,4518.461538,4184.615384,4618.974358,3938.974359,4089.743589
251,4414.358974,4524.615384,4501.025641,4264.615384,4474.871794,4169.230769,4426.666666,4187.692307,4272.307692,4530.769230,4192.307692,4623.589743,3949.743590,4095.897435
252,4410.769230,4525.128205,4496.923076,4266.153846,4471.282051,4169.743589,4427.179487,4185.128205,4265.128205,4535.897435,4201.025641,4623.589743,3954.871795,4101.538461
253,4405.641025,4523.589743,4496.410256,4266.153846,4469.230769,4171.794871,4428.205128,4184.102564,4261.538461,4530.256410,4194.871794,4620.512820,3957.435898,4097.948717
254,4408.205128,4529.230769,4500.000000,4265.128205,4478.974358,4174.871794,4429.230769,4186.153846,4264.102564,4521.538461,4190.769230,4623.076923,3960.000000,4092.307692
255,4410.256410,4534.871794,4498.974358,4268.717948,4486.153846,4173.333333,4428.717948,4184.102564,4262.051282,4518.974358,4196.923076,4628.205128,3957.948718,4093.846153
256,4409.230769,4537.435897,4500.512820,4274.358974,4485.641025,4174.871794,4427.179487,4186.153846,4264.102564,4526.153846,4196.923076,4626.666666,3954.871795,4094.871794
257,4404.615384,4537.948717,4502.564102,4271.282051,4487.692307,4178.461538,4427.179487,4185.128205,4266.153846,4524.615384,4187.179487,4620.000000,3954.871795,4090.769230
258,4395.897435,4532.307692,4496.410256,4262.051282,4490.769230,4174.358974,4426.666666,4175.384615,4255.897435,4514.358974,4178.974358,4615.897435,3952.307693,4084.615384
259,4389.743589,4524.615384,4493.333333,4261.025641,4490.769230,4171.282051,4424.102564,4166.666666,4245.128205,4508.717948,4171.794871,4615.897435,3944.615385,4077.435897
