,AF3,F7,F3,FC5,T7,P7,O1,O2,P8,T8,FC6,F4,F8,AF4
0,4457.948717,4538.974358,4529.230769,4272.307692,4528.717948,4184.102564,4460.512820,4215.384615,4245.128205,4490.256410,4227.179487,4646.666666,4012.820512,4041.025641
1,4462.051282,4544.102564,4534.358974,4283.076923,4528.717948,4186.666666,4461.538461,4214.871794,4243.589743,4488.205128,4226.666666,4649.230769,4013.846153,4043.589743
2,4453.846153,4536.923076,4529.743589,4281.538461,4530.769230,4184.615384,4460.000000,4203.589743,4242.564102,4477.435897,4219.487179,4643.076923,4002.564102,4041.025641
3,4439.487179,4525.641025,4519.487179,4268.717948,4526.153846,4175.384615,4448.717948,4198.974358,4238.974358,4473.846153,4215.897435,4634.871794,3998.461539,4029.230769
4,4440.000000,4530.256410,4519.487179,4264.102564,4520.000000,4174.871794,4444.615384,4200.512820,4234.358974,4474.358974,4213.333333,4635.384615,4007.179487,4028.717948
5,4451.282051,4540.000000,4524.615384,4274.871794,4522.564102,4184.102564,4451.282051,4202.564102,4235.897435,4476.923076,4215.384615,4644.102564,4015.384615,4040.512820
6,4451.794871,4541.025641,4520.512820,4283.076923,4527.692307,4186.666666,4455.897435,4206.153846,4242.564102,4478.461538,4226.153846,4650.256410,4016.923076,4042.564102
7,4443.076923,4534.358974,4515.384615,4277.435897,4523.076923,4178.461538,4451.794871,4204.615384,4243.076923,4471.282051,4226.153846,4644.102564,4009.230769,4034.871794
8,4440.000000,4527.692307,4515.897435,4272.307692,4516.410256,4171.794871,4447.692307,4201.538461,4237.948717,4473.333333,4216.923076,4637.948717,4006.666666,4034.358974
9,4440.000000,4530.256410,4511.794871,4267.692307,4516.923076,4170.769230,4446.153846,4205.128205,4235.384615,4481.025641,4216.410256,4636.410256,4011.282051,4033.846153
10,4431.794871,4532.307692,4506.666666,4262.564102,4516.923076,4169.743589,4444.102564,4202.051282,4231.794871,4477.948717,4216.923076,4633.846153,4006.666666,4030.769230
11,4424.102564,4524.615384,4510.256410,4264.615384,4512.307692,4168.717948,4443.589743,4193.333333,4226.153846,4474.358974,4209.230769,4631.794871,3998.461539,4031.794871
12,4426.666666,4519.487179,4512.820512,4265.641025,4515.384615,4171.282051,4445.128205,4194.358974,4224.615384,4473.846153,4208.205128,4634.358974,3994.871795,4031.282051
13,4422.051282,4520.512820,4506.666666,4262.051282,4519.487179,4171.794871,4447.179487,4198.974358,4223.589743,4462.564102,4208.205128,4631.794871,3994.358975,4025.641025
14,4412.820512,4518.461538,4502.564102,4262.051282,4515.384615,4172.820512,4448.205128,4198.974358,4223.076923,4458.461538,4200.000000,4627.692307,3999.487180,4024.615384
15,4414.358974,4521.025641,4509.743589,4262.051282,4516.923076,4177.948717,4447.179487,4198.974358,4225.641025,4470.256410,4198.461538,4631.282051,4003.076923,4026.153846
16,4416.923076,4526.153846,4513.333333,4262.051282,4525.128205,4177.435897,4448.205128,4198.461538,4226.153846,4474.358974,4202.564102,4633.846153,3997.435898,4024.102564
17,4411.794871,4522.564102,4511.282051,4270.256410,4523.589743,4175.897435,4453.333333,4203.076923,4225.128205,4469.743589,4209.743589,4634.871794,3987.179488,4026.153846
18,4414.358974,4520.512820,4515.897435,4276.923076,4519.487179,4183.589743,4457.948717,4212.307692,4233.333333,4474.358974,4219.487179,4641.538461,3988.717949,4034.871794
19,4422.051282,4528.717948,4521.025641,4278.974358,4527.692307,4186.666666,4456.923076,4215.384615,4240.000000,4482.051282,4218.974358,4648.717948,4003.076923,4042.564102
20,4421.025641,4533.333333,4521.025641,4276.923076,4533.846153,4181.025641,4455.384615,4211.794871,4236.410256,4481.538461,4215.384615,4648.717948,4011.794871,4041.025641
21,4413.333333,4528.205128,4520.000000,4272.820512,4529.743589,4183.589743,4457.435897,4208.205128,4232.820512,4476.410256,4221.025641,4645.128205,4003.076923,4035.384615
22,4404.102564,4521.025641,4513.846153,4270.256410,4521.025641,4185.641025,4457.948717,4202.051282,4227.692307,4470.256410,4213.333333,4636.923076,3988.717949,4029.743589
23,4398.974358,4522.051282,4507.179487,4267.692307,4521.538461,4177.948717,4457.948717,4199.487179,4226.153846,4471.794871,4198.974358,4630.769230,3987.692308,4026.666666
24,4396.923076,4527.179487,4509.743589,4267.179487,4524.615384,4175.384615,4457.435897,4202.564102,4232.307692,4476.410256,4207.179487,4633.846153,3991.794872,4030.256410
25,4392.820512,4521.025641,4511.794871,4269.743589,4521.538461,4180.000000,4456.410256,4198.974358,4226.153846,4471.794871,4214.358974,4634.358974,3985.128206,4031.794871
26,4398.974358,4520.512820,4511.282051,4275.897435,4523.589743,4184.102564,4457.435897,4198.461538,4220.512820,4471.282051,4208.205128,4635.897435,3984.102565,4031.794871
27,4414.358974,4541.538461,4521.538461,4280.512820,4533.333333,4186.666666,4459.487179,4210.769230,4233.333333,4484.102564,4221.025641,4647.179487,4004.615384,4042.564102
28,4417.948717,4552.820512,4527.692307,4281.538461,4535.384615,4189.743589,4463.076923,4220.000000,4241.538461,4491.282051,4232.307692,4655.897435,4020.512820,4054.871794
29,4412.307692,4546.153846,4523.076923,4283.076923,4532.820512,4189.230769,4463.589743,4218.461538,4235.384615,4488.205128,4217.948717,4652.307692,4009.230769,4054.871794
30,4413.846153,4543.589743,4524.102564,4287.179487,4533.333333,4186.153846,4459.487179,4214.871794,4236.410256,4489.743589,4212.820512,4649.743589,3998.974359,4052.307692
31,4414.871794,4546.666666,4529.743589,4288.205128,4530.256410,4184.615384,4458.461538,4216.923076,4238.974358,4490.256410,4223.589743,4653.333333,4006.666666,4054.871794
32,4408.717948,4541.538461,4529.743589,4282.564102,4522.564102,4185.128205,4460.000000,4216.923076,4232.820512,4487.179487,4223.076923,4652.307692,4009.743589,4054.358974
33,4398.974358,4536.923076,4525.641025,4274.358974,4518.974358,4180.512820,4457.435897,4207.179487,4229.743589,4482.051282,4213.846153,4647.692307,4002.051282,4047.692307
34,4390.769230,4539.487179,4519.487179,4270.256410,4519.487179,4172.820512,4456.410256,4202.564102,4229.743589,4474.871794,4211.794871,4644.102564,3997.435898,4040.000000
35,4388.205128,4535.897435,4514.358974,4269.743589,4519.487179,4174.358974,4457.948717,4207.179487,4227.179487,4465.641025,4211.794871,4641.025641,3997.435898,4038.974358
36,4384.615384,4523.076923,4513.846153,4268.205128,4518.461538,4174.358974,4454.358974,4206.666666,4221.538461,4463.589743,4206.666666,4636.410256,3998.461539,4038.974358
37,4383.076923,4520.000000,4515.897435,4266.666666,4516.410256,4173.333333,4452.820512,4202.564102,4218.461538,4469.743589,4207.179487,4636.410256,3998.461539,4034.871794
38,4390.769230,4532.820512,4518.461538,4271.282051,4520.000000,4178.974358,4456.923076,4205.128205,4227.179487,4476.923076,4213.333333,4644.615384,4001.025641,4038.974358
39,4397.948717,4541.025641,4520.000000,4271.794871,4524.615384,4182.564102,4459.487179,4211.282051,4235.897435,4477.948717,4210.256410,4648.205128,4005.128205,4047.179487
40,4395.897435,4536.410256,4523.076923,4264.102564,4521.538461,4177.435897,4457.948717,4215.384615,4233.333333,4472.820512,4206.666666,4646.153846,4004.615384,4044.102564
41,4395.384615,4531.794871,4524.102564,4261.538461,4519.487179,4172.820512,4459.487179,4214.358974,4232.820512,4473.846153,4214.871794,4647.692307,4001.538461,4042.051282
42,4398.461538,4532.820512,4524.102564,4266.666666,4521.025641,4176.923076,4460.000000,4211.794871,4233.846153,4478.461538,4220.000000,4650.769230,4002.051282,4049.230769
43,4400.000000,4536.923076,4528.717948,4271.282051,4521.538461,4182.051282,4456.923076,4211.794871,4231.282051,4476.923076,4216.923076,4652.307692,4009.743589,4049.230769
44,4394.871794,4531.282051,4524.615384,4270.256410,4518.461538,4176.923076,4455.384615,4208.717948,4230.769230,4469.743589,4211.282051,4648.717948,4010.769230,4039.487179
45,4386.153846,4524.102564,4511.282051,4262.564102,4516.923076,4167.179487,4456.923076,4201.538461,4229.230769,4467.692307,4202.564102,4638.974358,3997.948718,4030.769230
46,4386.153846,4531.794871,4511.282051,4260.000000,4517.435897,4168.205128,4456.410256,4201.538461,4229.230769,4472.307692,4207.179487,4638.974358,3996.923077,4029.743589
47,4395.384615,4540.512820,4520.512820,4264.102564,4514.871794,4173.333333,4453.846153,4204.615384,4231.794871,4480.512820,4219.487179,4648.717948,4008.717948,4038.461538
48,4406.153846,4540.000000,4518.461538,4264.102564,4515.897435,4171.794871,4454.358974,4206.666666,4231.794871,4487.179487,4220.512820,4652.820512,4014.358974,4049.230769
49,4411.282051,4541.025641,4516.410256,4265.128205,4522.564102,4173.333333,4457.435897,4205.641025,4231.794871,4485.641025,4216.923076,4650.256410,4016.923076,4048.717948
50,4409.743589,4541.025641,4523.076923,4271.794871,4524.615384,4180.000000,4458.461538,4200.000000,4231.282051,4477.435897,4216.923076,4650.256410,4014.871794,4041.025641
51,4407.179487,4538.974358,4526.153846,4272.820512,4523.589743,4180.512820,4454.358974,4196.923076,4225.128205,4468.717948,4216.923076,4649.230769,4006.153846,4040.000000
52,4409.743589,4539.487179,4526.153846,4267.692307,4525.128205,4176.923076,4449.743589,4197.948717,4216.410256,4467.179487,4217.435897,4646.153846,4005.128205,4043.589743
53,4412.307692,4536.410256,4526.666666,4266.666666,4524.615384,4176.410256,4446.666666,4198.461538,4214.358974,4471.794871,4214.358974,4647.179487,4006.153846,4043.076923
54,4409.230769,4536.410256,4521.538461,4266.153846,4521.025641,4174.871794,4443.076923,4197.948717,4216.923076,4474.358974,4204.102564,4645.641025,4002.564102,4038.974358
55,4409.743589,4540.000000,4518.461538,4271.282051,4519.487179,4174.358974,4449.230769,4203.076923,4223.076923,4474.358974,4200.512820,4642.564102,4006.153846,4036.410256
56,4418.461538,4541.538461,4525.128205,4277.435897,4522.051282,4182.564102,4457.948717,4213.846153,4230.769230,4478.461538,4213.333333,4649.230769,4011.282051,4042.051282
57,4425.128205,4541.025641,4531.282051,4274.871794,4526.153846,4188.205128,4460.000000,4218.974358,4233.333333,4485.128205,4223.589743,4656.410256,4010.256410,4046.153846
58,4422.051282,4540.000000,4528.717948,4270.769230,4524.615384,4182.051282,4464.102564,4217.435897,4237.948717,4486.666666,4216.410256,4655.384615,4016.410256,4045.641025
59,4417.948717,4540.000000,4523.076923,4270.256410,4524.102564,4184.102564,4470.256410,4217.948717,4242.051282,4484.615384,4213.846153,4650.256410,4022.564102,4050.769230
60,4419.487179,4541.025641,4520.512820,4267.179487,4528.205128,4190.256410,4465.641025,4221.025641,4238.461538,4486.666666,4220.512820,4649.230769,4024.102564,4052.820512
61,4419.487179,4535.384615,4523.589743,4264.615384,4521.538461,4181.025641,4457.435897,4214.358974,4230.769230,4487.179487,4212.307692,4648.717948,4026.153846,4044.615384
62,4416.923076,4533.333333,4527.179487,4268.205128,4512.820512,4172.820512,4457.948717,4208.717948,4230.769230,4481.025641,4206.153846,4650.769230,4020.512820,4041.538461
63,4422.564102,4538.461538,4528.205128,4268.717948,4517.948717,4180.000000,4460.000000,4212.820512,4240.512820,4483.076923,4216.923076,4655.897435,4014.358974,4050.256410
64,4424.102564,4529.230769,4526.666666,4264.102564,4521.538461,4186.666666,4460.000000,4216.923076,4242.051282,4488.717948,4213.846153,4654.871794,4014.871794,4051.794871
65,4415.897435,4520.512820,4526.153846,4262.564102,4522.051282,4184.615384,4463.076923,4216.923076,4235.384615,4484.102564,4203.076923,4648.717948,4013.846153,4042.051282
66,4409.230769,4529.743589,4526.666666,4265.128205,4522.564102,4182.564102,4459.487179,4209.743589,4228.205128,4469.230769,4207.179487,4645.641025,4005.128205,4034.358974
67,4411.282051,4532.820512,4521.538461,4265.641025,4516.923076,4175.384615,4447.179487,4200.000000,4223.589743,4463.076923,4206.666666,4646.153846,3995.897436,4032.307692
68,4412.820512,4523.589743,4520.000000,4260.512820,4514.871794,4169.743589,4447.692307,4198.461538,4225.128205,4468.717948,4197.948717,4646.153846,4002.051282,4036.410256
69,4413.333333,4522.051282,4527.692307,4262.051282,4518.461538,4173.846153,4455.897435,4205.128205,4231.794871,4477.435897,4200.512820,4647.179487,4016.923076,4042.564102
70,4413.846153,4527.692307,4525.641025,4265.128205,4518.461538,4176.923076,4452.820512,4205.641025,4235.384615,4478.461538,4203.076923,4645.128205,4015.384615,4040.512820
71,4410.769230,4530.256410,4514.358974,4260.512820,4516.923076,4174.358974,4444.615384,4200.000000,4228.717948,4469.230769,4197.948717,4637.948717,3997.948718,4032.820512
72,4411.282051,4535.384615,4514.358974,4260.000000,4517.435897,4172.820512,4445.128205,4199.487179,4222.564102,4462.564102,4198.974358,4639.487179,3998.974359,4034.871794
73,4414.358974,4539.487179,4524.102564,4269.230769,4518.974358,4177.435897,4452.307692,4201.538461,4225.641025,4464.102564,4200.512820,4647.179487,4014.358974,4044.615384
74,4414.871794,4533.846153,4526.153846,4271.282051,4517.435897,4180.512820,4456.410256,4201.538461,4227.692307,4468.205128,4200.512820,4648.205128,4017.435897,4041.538461
75,4411.282051,4528.205128,4517.948717,4263.076923,4515.897435,4174.871794,4449.743589,4199.487179,4225.128205,4469.230769,4202.564102,4642.564102,4009.743589,4033.333333
76,4408.717948,4532.307692,4512.820512,4260.512820,4515.384615,4168.205128,4440.512820,4198.974358,4229.230769,4471.794871,4202.051282,4638.974358,4001.538461,4035.384615
77,4413.846153,4538.974358,4515.384615,4263.589743,4512.820512,4170.256410,4440.512820,4200.512820,4233.333333,4474.871794,4200.000000,4642.564102,4003.589743,4039.487179
78,4416.923076,4539.487179,4518.461538,4264.615384,4507.692307,4170.769230,4444.102564,4202.051282,4230.256410,4473.333333,4206.153846,4647.179487,4018.461538,4040.000000
79,4413.846153,4533.333333,4519.487179,4265.641025,4509.230769,4168.205128,4447.692307,4203.589743,4230.256410,4475.384615,4211.282051,4646.153846,4029.230769,4038.974358
80,4411.282051,4528.205128,4514.871794,4265.128205,4513.333333,4170.256410,4447.692307,4202.051282,4226.666666,4470.769230,4205.641025,4636.410256,4021.025641,4032.820512
81,4411.794871,4530.769230,4507.179487,4262.051282,4507.692307,4168.717948,4441.538461,4197.435897,4214.358974,4456.923076,4196.410256,4629.743589,4005.128205,4024.615384
82,4411.794871,4538.461538,4506.666666,4263.589743,4506.153846,4169.230769,4443.589743,4198.461538,4215.384615,4457.948717,4188.205128,4634.358974,4006.666666,4027.179487
83,4414.358974,4542.051282,4512.820512,4269.230769,4516.410256,4175.384615,4451.282051,4203.076923,4224.615384,4466.153846,4190.769230,4640.512820,4022.564102,4036.410256
84,4414.871794,4535.897435,4513.333333,4268.205128,4519.487179,4174.358974,4448.205128,4194.358974,4217.435897,4459.487179,4193.333333,4637.435897,4026.153846,4035.384615
85,4407.179487,4526.666666,4513.333333,4264.615384,4512.820512,4168.205128,4441.025641,4180.000000,4206.666666,4453.846153,4188.205128,4635.384615,4011.282051,4028.717948
86,4407.179487,4528.717948,4523.076923,4264.615384,4514.871794,4172.307692,4448.717948,4187.692307,4216.923076,4461.538461,4195.384615,4645.641025,4005.641025,4030.256410
87,4413.846153,4541.025641,4525.128205,4263.589743,4521.025641,4177.435897,4456.923076,4203.076923,4229.743589,4461.538461,4205.641025,4650.256410,4016.923076,4035.897435
88,4415.384615,4542.564102,4521.025641,4265.641025,4520.512820,4174.358974,4450.769230,4203.076923,4229.743589,4458.974358,4197.948717,4646.666666,4024.102564,4038.461538
89,4416.923076,4535.384615,4523.589743,4267.179487,4516.923076,4171.282051,4442.051282,4200.000000,4227.179487,4468.205128,4192.820512,4648.717948,4018.461538,4039.487179
90,4418.974358,4535.897435,4526.666666,4265.128205,4515.384615,4171.282051,4441.025641,4201.538461,4226.666666,4473.846153,4200.512820,4650.769230,4016.923076,4040.000000
91,4416.923076,4537.948717,4525.128205,4272.307692,4516.923076,4173.846153,4441.538461,4196.410256,4225.641025,4464.615384,4202.051282,4647.692307,4020.512820,4036.923076
92,4413.846153,4535.897435,4523.076923,4276.923076,4518.974358,4175.897435,4443.076923,4187.179487,4220.000000,4458.974358,4200.000000,4645.128205,4011.282051,4033.846153
93,4414.358974,4536.410256,4520.000000,4270.256410,4518.461538,4172.820512,4444.615384,4183.589743,4213.333333,4461.538461,4195.897435,4643.589743,4001.025641,4033.333333
94,4412.820512,4534.871794,4514.871794,4267.692307,4515.897435,4168.717948,4441.025641,4177.948717,4205.128205,4452.820512,4187.692307,4640.000000,4000.000000,4031.794871
95,4408.205128,4527.179487,4513.846153,4270.769230,4513.846153,4170.769230,4444.102564,4170.256410,4201.538461,4442.564102,4187.692307,4637.435897,4000.000000,4027.692307
96,4406.153846,4518.974358,4512.307692,4266.666666,4508.717948,4170.256410,4446.666666,4172.307692,4200.000000,4444.102564,4188.205128,4634.358974,3997.948718,4023.589743
97,4404.615384,4516.410256,4511.794871,4262.051282,4505.641025,4165.641025,4437.435897,4178.974358,4195.384615,4443.076923,4184.102564,4630.769230,3997.948718,4018.461538
98,4409.230769,4522.564102,4513.333333,4265.641025,4509.230769,4164.615384,4432.820512,4187.692307,4205.128205,4445.128205,4185.641025,4634.871794,4004.102564,4021.025641
99,4419.487179,4529.230769,4514.871794,4268.717948,4511.794871,4167.692307,4442.051282,4197.948717,4225.641025,4463.076923,4194.358974,4643.076923,4015.897435,4033.333333
100,4428.717948,4528.717948,4519.487179,4270.256410,4512.820512,4170.769230,4447.179487,4201.538461,4234.871794,4476.410256,4204.102564,4648.717948,4024.102564,4040.000000
101,4432.307692,4529.230769,4520.512820,4269.743589,4509.743589,4170.256410,4442.051282,4194.871794,4226.666666,4466.666666,4208.205128,4646.666666,4024.615384,4040.512820
102,4424.615384,4531.282051,4511.794871,4266.153846,4507.179487,4165.641025,4441.538461,4189.743589,4220.512820,4455.897435,4199.487179,4640.000000,4018.461538,4034.358974
103,4410.256410,4526.153846,4505.641025,4265.128205,4508.205128,4165.128205,4444.615384,4188.205128,4218.974358,4451.282051,4189.743589,4632.820512,4002.564102,4018.461538
104,4403.589743,4513.846153,4506.666666,4261.025641,4505.641025,4167.179487,4442.051282,4184.102564,4214.358974,4446.153846,4179.487179,4626.153846,3983.589744,4004.102564
105,4406.153846,4512.307692,4509.230769,4260.512820,4505.128205,4163.076923,4439.487179,4182.564102,4209.743589,4443.589743,4168.717948,4623.589743,3982.564103,4008.717948
106,4414.358974,4522.051282,4513.333333,4272.307692,4507.179487,4160.000000,4442.564102,4182.051282,4209.230769,4444.102564,4179.487179,4627.179487,3996.410257,4021.025641
107,4421.538461,4527.179487,4516.410256,4276.923076,4508.717948,4166.666666,4446.153846,4181.538461,4210.769230,4445.128205,4197.948717,4634.358974,4006.666666,4024.102564
108,4419.487179,4523.589743,4512.820512,4266.153846,4507.692307,4170.256410,4446.666666,4183.076923,4215.897435,4449.230769,4195.384615,4636.410256,4009.743589,4022.564102
109,4410.256410,4517.435897,4506.153846,4260.000000,4505.641025,4165.128205,4444.102564,4183.076923,4216.410256,4448.717948,4183.589743,4633.333333,4005.641025,4018.974358
110,4414.358974,4518.974358,4509.230769,4262.564102,4507.692307,4165.641025,4442.564102,4181.538461,4207.179487,4437.948717,4182.564102,4632.307692,3996.410257,4014.871794
111,4426.153846,4521.025641,4517.948717,4266.153846,4508.717948,4170.769230,4445.128205,4182.051282,4204.102564,4437.948717,4184.615384,4634.358974,3989.743590,4015.897435
112,4428.205128,4522.564102,4520.000000,4272.307692,4508.205128,4169.230769,4448.717948,4189.743589,4214.871794,4447.692307,4182.564102,4635.384615,3992.307693,4023.076923
113,4428.717948,4521.538461,4516.923076,4272.307692,4508.717948,4168.205128,4446.666666,4199.487179,4225.128205,4451.794871,4183.589743,4636.410256,3996.410257,4025.641025
114,4428.205128,4520.512820,4520.512820,4267.692307,4509.743589,4169.743589,4445.128205,4203.589743,4230.256410,4454.871794,4190.256410,4638.461538,3992.307693,4019.487179
115,4429.230769,4521.025641,4526.153846,4271.282051,4509.743589,4170.256410,4446.666666,4199.487179,4232.820512,4456.923076,4193.846153,4642.564102,3991.282052,4022.564102
116,4430.256410,4516.923076,4520.000000,4277.435897,4508.717948,4167.692307,4447.692307,4197.435897,4227.179487,4453.846153,4193.846153,4641.538461,3998.974359,4031.794871
117,4428.717948,4507.179487,4514.871794,4274.871794,4507.179487,4165.641025,4447.179487,4195.384615,4220.000000,4448.717948,4194.871794,4636.410256,4008.717948,4030.769230
118,4428.717948,4506.153846,4517.435897,4269.743589,4506.153846,4167.179487,4446.153846,4190.256410,4222.051282,4447.692307,4191.282051,4635.384615,4008.717948,4024.615384
119,4427.179487,4518.461538,4518.974358,4272.820512,4506.153846,4169.230769,4452.307692,4189.230769,4225.128205,4453.846153,4184.615384,4634.871794,3996.410257,4022.051282
120,4424.615384,4518.974358,4515.897435,4272.820512,4505.641025,4168.205128,4455.897435,4188.205128,4220.512820,4451.282051,4177.435897,4632.307692,3983.076924,4017.948717
121,4434.871794,4509.743589,4519.487179,4267.179487,4507.692307,4167.692307,4454.358974,4188.717948,4215.384615,4442.051282,4173.846153,4634.358974,3973.846154,4016.923076
122,4454.358974,4513.846153,4526.666666,4268.205128,4508.717948,4170.256410,4452.820512,4194.871794,4218.461538,4444.615384,4182.564102,4641.025641,3977.948718,4023.076923
123,4461.538461,4524.102564,4524.102564,4278.461538,4508.205128,4169.230769,4452.820512,4198.974358,4223.589743,4453.333333,4194.358974,4644.615384,3994.871795,4027.179487
124,4461.538461,4526.153846,4520.512820,4283.076923,4510.769230,4169.230769,4454.358974,4201.025641,4225.641025,4454.871794,4195.384615,4645.128205,4003.589743,4027.179487
125,4461.025641,4517.435897,4522.051282,4276.410256,4506.153846,4165.128205,4453.333333,4200.000000,4223.589743,4449.743589,4193.333333,4642.051282,4002.051282,4027.179487
126,4458.974358,4512.820512,4519.487179,4266.153846,4497.435897,4155.897435,4447.692307,4192.820512,4219.487179,4449.230769,4190.256410,4634.871794,4006.666666,4023.589743
127,4465.641025,4519.487179,4518.461538,4265.128205,4501.025641,4157.435897,4445.128205,4188.205128,4215.384615,4454.358974,4182.564102,4633.846153,4004.102564,4022.564102
128,4472.307692,4521.025641,4521.538461,4270.769230,4504.615384,4161.025641,4446.666666,4188.717948,4214.358974,4453.846153,4182.051282,4635.384615,3992.820513,4027.692307
129,4469.230769,4513.333333,4519.487179,4265.641025,4496.923076,4155.384615,4443.589743,4187.179487,4217.948717,4451.282051,4193.333333,4635.384615,3998.461539,4031.794871
130,4471.282051,4518.461538,4518.461538,4261.538461,4497.948717,4155.384615,4441.538461,4192.820512,4227.692307,4461.538461,4199.487179,4640.512820,4009.230769,4032.307692
131,4479.487179,4529.230769,4523.589743,4275.897435,4508.205128,4163.589743,4445.641025,4203.589743,4234.871794,4469.743589,4193.333333,4642.564102,4007.179487,4033.333333
132,4478.461538,4524.615384,4521.538461,4282.051282,4509.743589,4167.179487,4450.256410,4199.487179,4228.717948,4457.435897,4187.692307,4635.897435,4006.153846,4030.769230
133,4472.307692,4517.948717,4514.871794,4269.230769,4506.666666,4167.179487,4452.307692,4187.692307,4223.589743,4454.358974,4196.923076,4630.256410,4005.128205,4027.692307
134,4478.974358,4524.102564,4516.410256,4264.615384,4510.769230,4169.743589,4452.307692,4190.256410,4229.743589,4468.205128,4204.615384,4633.846153,4004.615384,4029.230769
135,4488.717948,4534.871794,4526.666666,4274.358974,4516.410256,4169.743589,4454.358974,4200.512820,4232.820512,4473.846153,4202.051282,4641.538461,4010.769230,4035.897435
136,4486.666666,4542.564102,4531.794871,4282.051282,4519.487179,4172.820512,4458.461538,4204.615384,4232.307692,4471.794871,4202.564102,4644.615384,4013.846153,4040.000000
137,4475.897435,4540.512820,4529.230769,4281.025641,4524.102564,4177.948717,4460.512820,4203.076923,4239.487179,4473.846153,4201.538461,4646.666666,4019.487179,4037.435897
138,4465.128205,4537.948717,4529.743589,4277.948717,4518.461538,4175.384615,4455.384615,4201.538461,4241.025641,4476.410256,4200.000000,4649.743589,4021.025641,4034.358974
139,4453.846153,4538.461538,4531.794871,4275.897435,4510.769230,4167.692307,4449.230769,4202.051282,4234.358974,4472.820512,4208.717948,4650.769230,4011.282051,4038.974358
140,4446.153846,4535.897435,4531.282051,4276.923076,4513.846153,4166.666666,4454.358974,4206.153846,4237.948717,4474.871794,4214.358974,4650.769230,4013.846153,4042.564102
141,4440.512820,4529.743589,4530.769230,4276.923076,4515.384615,4171.794871,4458.974358,4208.205128,4242.564102,4474.871794,4206.153846,4650.769230,4027.179487,4040.512820
142,4430.769230,4523.589743,4526.666666,4266.666666,4510.769230,4169.230769,4451.282051,4204.102564,4236.410256,4463.589743,4197.435897,4648.205128,4020.000000,4036.410256
143,4424.615384,4522.564102,4524.102564,4261.025641,4511.282051,4165.641025,4451.282051,4210.256410,4239.487179,4465.641025,4200.512820,4647.179487,4004.102564,4033.333333
144,4425.128205,4527.179487,4528.205128,4267.179487,4514.358974,4170.769230,4461.025641,4218.974358,4246.666666,4480.512820,4207.692307,4653.846153,4004.102564,4031.794871
145,4420.512820,4525.128205,4528.205128,4266.153846,4507.179487,4170.769230,4456.410256,4209.743589,4238.461538,4473.333333,4204.615384,4654.358974,4000.000000,4029.743589
146,4412.307692,4520.000000,4518.461538,4259.487179,4501.025641,4161.538461,4444.102564,4196.923076,4229.743589,4453.333333,4190.256410,4647.179487,3990.256411,4022.051282
147,4410.769230,4527.692307,4516.923076,4265.641025,4509.230769,4159.487179,4445.641025,4199.487179,4233.333333,4456.923076,4184.102564,4647.692307,3995.897436,4021.538461
148,4413.333333,4537.435897,4524.615384,4269.230769,4513.333333,4166.666666,4455.384615,4206.666666,4235.897435,4467.179487,4195.384615,4654.358974,4000.512820,4028.205128
149,4416.923076,4535.897435,4525.641025,4266.666666,4509.230769,4169.230769,4458.974358,4211.282051,4239.487179,4468.205128,4206.666666,4658.461538,3998.461539,4033.846153
150,4423.076923,4535.384615,4525.641025,4275.384615,4513.846153,4169.743589,4456.410256,4216.923076,4247.692307,4471.794871,4208.205128,4661.025641,4002.564102,4037.948717
151,4424.102564,4542.051282,4530.256410,4280.000000,4520.000000,4172.307692,4456.410256,4213.846153,4246.153846,4477.435897,4206.153846,4663.589743,4013.846153,4038.974358
152,4423.076923,4543.589743,4532.307692,4274.871794,4518.461538,4172.307692,4458.974358,4210.769230,4238.974358,4477.435897,4201.025641,4664.102564,4024.615384,4043.076923
153,4425.128205,4541.025641,4532.820512,4278.461538,4517.435897,4171.282051,4458.461538,4214.358974,4238.461538,4470.256410,4197.435897,4664.615384,4030.769230,4049.230769
154,4422.051282,4540.000000,4532.307692,4277.435897,4516.410256,4171.282051,4454.358974,4207.179487,4237.948717,4464.102564,4200.512820,4661.538461,4017.948717,4045.128205
155,4411.794871,4537.435897,4526.666666,4263.076923,4510.769230,4168.205128,4452.307692,4200.512820,4229.743589,4463.589743,4200.512820,4652.307692,3996.410257,4032.307692
156,4408.205128,4537.435897,4527.692307,4265.641025,4508.717948,4168.205128,4456.923076,4211.282051,4230.769230,4473.333333,4200.000000,4654.358974,4005.641025,4032.820512
157,4414.871794,4538.974358,4534.358974,4282.051282,4511.282051,4171.794871,4461.538461,4222.051282,4245.641025,4486.153846,4204.102564,4665.641025,4028.205128,4044.102564
158,4416.410256,4535.384615,4533.846153,4277.948717,4512.820512,4170.256410,4460.000000,4217.948717,4248.205128,4486.666666,4203.076923,4663.589743,4022.051282,4045.128205
159,4412.307692,4534.358974,4527.692307,4265.128205,4513.333333,4168.717948,4456.923076,4211.794871,4237.435897,4478.461538,4203.076923,4655.897435,4007.692307,4038.461538
160,4408.717948,4538.974358,4526.666666,4265.641025,4508.205128,4171.282051,4456.410256,4211.794871,4236.923076,4474.871794,4207.179487,4653.846153,4008.717948,4034.358974
161,4409.743589,4532.820512,4524.102564,4268.205128,4505.641025,4167.179487,4451.794871,4209.743589,4242.051282,4476.410256,4207.692307,4652.820512,4007.179487,4033.333333
162,4412.820512,4523.076923,4520.000000,4262.564102,4506.666666,4161.538461,4451.794871,4208.205128,4241.025641,4477.435897,4203.076923,4651.282051,3998.461539,4032.820512
163,4413.846153,4526.666666,4524.102564,4261.025641,4505.128205,4164.615384,4456.923076,4211.282051,4239.487179,4477.948717,4198.461538,4651.794871,4000.512820,4034.358974
164,4413.846153,4531.282051,4527.692307,4263.589743,4506.666666,4169.230769,4455.384615,4215.897435,4242.564102,4480.000000,4200.000000,4654.358974,4007.179487,4036.923076
165,4414.358974,4530.769230,4525.128205,4264.615384,4508.717948,4168.717948,4452.307692,4216.410256,4243.076923,4484.102564,4212.307692,4654.871794,4006.666666,4035.897435
166,4416.410256,4536.923076,4526.153846,4267.692307,4506.666666,4169.230769,4455.897435,4212.820512,4245.128205,4485.128205,4218.461538,4651.794871,4000.000000,4033.846153
167,4417.435897,4544.615384,4532.307692,4272.307692,4509.230769,4172.307692,4460.000000,4214.871794,4248.205128,4480.512820,4209.743589,4652.307692,3997.435898,4036.410256
168,4413.846153,4538.461538,4530.769230,4267.179487,4514.871794,4170.769230,4457.435897,4216.410256,4245.641025,4480.512820,4200.000000,4652.820512,3996.923077,4035.897435
169,4409.230769,4531.282051,4524.102564,4261.025641,4514.358974,4167.692307,4455.897435,4209.230769,4238.974358,4479.487179,4196.410256,4645.128205,3995.897436,4030.769230
170,4413.846153,4542.564102,4527.692307,4269.230769,4514.358974,4176.410256,4457.948717,4206.666666,4242.564102,4477.435897,4202.051282,4644.615384,4006.153846,4033.846153
171,4424.615384,4555.897435,4535.384615,4281.025641,4523.076923,4185.128205,4461.025641,4215.897435,4252.307692,4485.128205,4212.307692,4656.923076,4013.333333,4042.564102
172,4430.769230,4550.769230,4536.410256,4277.948717,4525.128205,4178.461538,4461.538461,4220.000000,4252.307692,4493.846153,4215.384615,4660.000000,4000.000000,4040.512820
173,4429.743589,4538.974358,4531.794871,4271.282051,4518.461538,4174.358974,4457.948717,4214.358974,4250.256410,4490.256410,4212.307692,4652.307692,3990.256411,4034.871794
174,4421.025641,4537.948717,4529.743589,4267.692307,4518.461538,4177.435897,4459.487179,4214.358974,4253.846153,4485.128205,4203.589743,4649.743589,4001.025641,4036.410256
175,4417.948717,4544.102564,4534.358974,4271.794871,4523.589743,4180.000000,4461.538461,4218.974358,4251.282051,4484.615384,4200.512820,4651.282051,4008.205128,4038.974358
176,4422.564102,4549.230769,4538.974358,4279.487179,4518.974358,4177.948717,4461.025641,4217.435897,4242.051282,4479.487179,4206.153846,4652.307692,4005.641025,4039.487179
177,4422.051282,4544.102564,4536.923076,4274.358974,4512.307692,4172.820512,4460.512820,4208.205128,4237.435897,4477.948717,4208.717948,4654.871794,4005.641025,4039.487179
178,4415.384615,4536.410256,4536.410256,4267.692307,4515.384615,4174.358974,4460.000000,4207.179487,4236.923076,4485.641025,4205.641025,4654.358974,4004.615384,4035.384615
179,4413.846153,4539.487179,4538.461538,4275.897435,4518.974358,4180.512820,4460.512820,4211.794871,4238.974358,4488.205128,4204.615384,4652.307692,4002.564102,4033.846153
180,4414.358974,4543.076923,4535.897435,4282.051282,4517.435897,4176.410256,4458.461538,4207.692307,4243.076923,4484.102564,4210.256410,4649.743589,3998.974359,4038.974358
181,4412.307692,4538.974358,4534.871794,4275.897435,4515.384615,4168.717948,4457.435897,4203.589743,4241.538461,4480.512820,4213.846153,4650.769230,3998.461539,4035.897435
182,4410.769230,4539.487179,4536.923076,4275.384615,4514.358974,4172.307692,4460.000000,4207.179487,4240.000000,4482.564102,4209.230769,4650.769230,4003.076923,4026.153846
183,4408.717948,4542.564102,4535.897435,4278.461538,4516.410256,4173.846153,4460.512820,4211.282051,4243.589743,4485.641025,4207.179487,4648.205128,4002.564102,4026.666666
184,4408.717948,4538.974358,4534.871794,4277.435897,4521.538461,4170.256410,4457.948717,4208.717948,4248.205128,4484.615384,4210.256410,4647.692307,3997.435898,4032.307692
185,4413.333333,4541.025641,4533.846153,4280.000000,4524.102564,4175.897435,4459.487179,4210.769230,4250.769230,4488.205128,4211.794871,4652.307692,4002.564102,4034.871794
186,4414.358974,4547.692307,4532.307692,4281.538461,4520.000000,4180.000000,4458.461538,4212.307692,4247.179487,4490.256410,4212.307692,4654.358974,4012.307692,4037.948717
187,4410.769230,4544.102564,4534.358974,4278.461538,4513.846153,4173.846153,4448.717948,4207.692307,4240.512820,4484.615384,4212.307692,4650.256410,4007.179487,4038.461538
188,4407.179487,4539.487179,4533.846153,4276.923076,4510.769230,4168.205128,4443.589743,4201.538461,4239.487179,4483.589743,4211.282051,4647.179487,3998.461539,4031.794871
189,4401.538461,4534.871794,4529.230769,4271.794871,4509.230769,4168.717948,4443.076923,4198.461538,4241.538461,4489.230769,4211.794871,4643.589743,3995.384616,4025.641025
190,4395.384615,4525.128205,4525.641025,4266.153846,4507.179487,4167.692307,4441.538461,4198.461538,4237.435897,4481.538461,4209.743589,4640.000000,3995.897436,4022.051282
191,4400.000000,4530.256410,4527.179487,4272.307692,4507.692307,4166.666666,4447.692307,4198.461538,4231.794871,4467.692307,4209.230769,4643.076923,3998.974359,4024.102564
192,4410.256410,4538.974358,4531.794871,4281.025641,4511.794871,4170.769230,4452.820512,4200.512820,4232.820512,4473.333333,4214.871794,4649.743589,4006.153846,4035.897435
193,4410.256410,4530.769230,4534.358974,4276.923076,4510.769230,4168.717948,4452.307692,4206.666666,4240.000000,4485.128205,4216.410256,4652.820512,4016.923076,4039.487179
194,4405.128205,4528.717948,4534.871794,4272.820512,4508.205128,4165.128205,4456.410256,4213.846153,4247.179487,4488.205128,4216.923076,4653.846153,4020.000000,4034.358974
195,4404.615384,4541.538461,4533.333333,4277.435897,4508.205128,4169.230769,4457.948717,4210.256410,4245.128205,4486.153846,4220.512820,4653.846153,4012.820512,4035.384615
196,4405.641025,4541.538461,4531.282051,4278.461538,4512.307692,4171.282051,4453.846153,4199.487179,4238.461538,4483.589743,4214.358974,4650.769230,4010.769230,4035.897435
197,4403.589743,4535.897435,4531.282051,4278.461538,4520.512820,4169.743589,4457.948717,4199.487179,4239.487179,4478.974358,4209.230769,4649.743589,4021.538461,4032.820512
198,4401.025641,4539.487179,4533.846153,4282.051282,4522.564102,4176.923076,4463.589743,4210.256410,4246.153846,4478.461538,4217.948717,4651.282051,4028.205128,4035.384615
199,4398.461538,4542.564102,4533.333333,4281.025641,4520.512820,4183.589743,4458.461538,4213.333333,4249.230769,4485.128205,4216.410256,4649.230769,4017.948717,4035.384615
200,4392.820512,4541.025641,4530.256410,4276.923076,4522.564102,4176.410256,4455.897435,4206.153846,4243.589743,4483.076923,4200.000000,4644.102564,4007.179487,4025.641025
201,4390.769230,4536.410256,4529.743589,4277.948717,4522.051282,4172.307692,4460.000000,4205.128205,4238.461538,4472.307692,4198.461538,4643.076923,4012.307692,4024.102564
202,4393.333333,4536.410256,4532.307692,4279.487179,4519.487179,4174.871794,4456.923076,4210.256410,4243.589743,4472.820512,4209.743589,4644.615384,4021.538461,4031.794871
203,4391.794871,4538.974358,4533.333333,4279.487179,4520.512820,4173.846153,4452.820512,4205.641025,4249.230769,4477.948717,4207.179487,4642.051282,4012.820512,4030.769230
204,4387.692307,4537.948717,4532.307692,4284.102564,4523.076923,4172.307692,4455.384615,4198.461538,4245.128205,4474.358974,4198.461538,4639.487179,4005.128205,4024.615384
205,4385.641025,4538.461538,4532.820512,4285.128205,4520.512820,4173.846153,4455.384615,4203.589743,4241.025641,4474.358974,4200.000000,4640.000000,4014.871794,4026.666666
206,4385.641025,4538.461538,4538.461538,4281.025641,4518.974358,4171.794871,4452.820512,4212.820512,4241.538461,4475.897435,4202.564102,4640.000000,4013.846153,4029.743589
207,4386.666666,4537.948717,4538.974358,4284.102564,4516.923076,4170.256410,4454.358974,4213.333333,4245.641025,4474.358974,4200.000000,4640.000000,3997.435898,4028.717948
208,4388.717948,4541.538461,4538.461538,4287.692307,4512.820512,4172.307692,4456.923076,4212.820512,4251.282051,4476.923076,4203.589743,4642.051282,3994.358975,4030.769230
209,4387.179487,4537.435897,4534.358974,4282.051282,4510.769230,4169.743589,4452.820512,4210.769230,4246.153846,4477.435897,4209.743589,4639.487179,4000.000000,4029.230769
210,4383.076923,4523.589743,4522.051282,4275.897435,4509.230769,4167.692307,4446.153846,4204.102564,4232.820512,4466.153846,4200.000000,4632.307692,3996.410257,4020.512820
211,4382.051282,4519.487179,4516.923076,4277.435897,4507.692307,4168.717948,4445.128205,4197.435897,4228.205128,4456.410256,4183.076923,4627.179487,3987.179488,4015.897435
212,4381.025641,4524.102564,4526.666666,4276.923076,4507.179487,4165.641025,4445.641025,4197.948717,4231.282051,4456.923076,4189.743589,4630.769230,3980.000000,4016.410256
213,4382.564102,4528.205128,4533.846153,4277.435897,4509.230769,4169.230769,4447.179487,4201.538461,4232.820512,4460.000000,4206.153846,4638.461538,3986.666667,4021.538461
214,4388.717948,4534.871794,4532.307692,4285.128205,4516.410256,4177.948717,4447.692307,4199.487179,4233.333333,4466.666666,4204.615384,4637.948717,3995.897436,4027.692307
215,4392.820512,4538.461538,4531.794871,4287.179487,4523.589743,4175.384615,4445.128205,4195.384615,4239.487179,4473.333333,4195.384615,4633.333333,3989.230770,4027.179487
216,4392.820512,4540.512820,4537.435897,4286.666666,4523.076923,4174.358974,4446.153846,4202.051282,4246.153846,4478.974358,4194.871794,4635.384615,3990.256411,4027.692307
217,4395.384615,4540.512820,4542.564102,4292.820512,4520.512820,4180.512820,4453.333333,4212.820512,4249.743589,4482.051282,4199.487179,4643.076923,4003.076923,4034.358974
218,4395.897435,4530.769230,4538.974358,4291.794871,4523.076923,4177.435897,4457.948717,4210.256410,4249.743589,4480.512820,4204.615384,4645.128205,3998.461539,4032.820512
219,4389.230769,4526.666666,4533.846153,4280.512820,4522.051282,4174.358974,4455.384615,4204.102564,4250.256410,4474.358974,4207.692307,4642.564102,3987.179488,4026.666666
220,4385.128205,4537.948717,4536.410256,4284.102564,4521.025641,4180.000000,4456.923076,4212.820512,4254.358974,4473.333333,4209.743589,4645.128205,3997.435898,4031.794871
221,4386.153846,4544.615384,4535.897435,4297.435897,4523.076923,4182.564102,4460.512820,4219.487179,4253.333333,4483.589743,4213.333333,4647.692307,4008.717948,4042.051282
222,4383.076923,4536.410256,4530.769230,4291.794871,4523.076923,4177.948717,4458.461538,4214.358974,4248.205128,4487.179487,4210.769230,4644.102564,4004.102564,4038.974358
223,4377.435897,4531.282051,4529.230769,4283.589743,4522.564102,4179.487179,4455.897435,4213.333333,4248.205128,4478.461538,4202.564102,4641.025641,3993.333334,4032.307692
224,4377.435897,4536.410256,4530.769230,4291.282051,4524.615384,4183.589743,4458.974358,4215.897435,4250.256410,4480.512820,4206.153846,4644.102564,3986.153847,4035.897435
225,4380.000000,4541.025641,4533.846153,4295.897435,4523.076923,4182.051282,4456.923076,4208.717948,4249.230769,4488.205128,4214.871794,4648.717948,3991.282052,4039.487179
226,4377.435897,4539.487179,4535.384615,4292.820512,4521.025641,4171.794871,4446.666666,4201.025641,4247.692307,4480.000000,4210.256410,4645.641025,4002.051282,4036.923076
227,4370.256410,4535.897435,4532.820512,4289.743589,4519.487179,4166.666666,4443.076923,4204.615384,4247.179487,4471.794871,4197.948717,4641.025641,4001.025641,4035.897435
228,4371.282051,4532.307692,4532.307692,4285.128205,4515.384615,4171.282051,4452.307692,4207.179487,4242.564102,4475.897435,4198.974358,4643.589743,3995.384616,4041.025641
229,4378.461538,4531.794871,4538.974358,4286.666666,4517.948717,4171.282051,4459.487179,4203.589743,4241.538461,4472.820512,4208.205128,4648.205128,3995.384616,4043.076923
230,4378.461538,4531.282051,4540.000000,4291.794871,4518.974358,4168.205128,4452.307692,4200.512820,4240.000000,4468.717948,4207.179487,4645.641025,3990.769231,4038.974358
231,4371.794871,4529.743589,4532.820512,4284.102564,4512.820512,4169.743589,4445.128205,4201.538461,4238.974358,4474.358974,4204.615384,4642.051282,3985.641026,4034.871794
232,4368.717948,4529.743589,4531.794871,4278.974358,4513.846153,4170.256410,4450.769230,4204.615384,4244.615384,4477.948717,4206.153846,4646.153846,3993.846154,4034.871794
233,4372.820512,4530.256410,4535.897435,4290.769230,4523.076923,4171.282051,4457.948717,4205.128205,4244.615384,4477.948717,4203.589743,4650.256410,4004.615384,4038.974358
234,4373.846153,4526.666666,4537.435897,4295.897435,4524.102564,4173.333333,4456.410256,4204.615384,4239.487179,4476.923076,4202.564102,4648.205128,4004.615384,4041.025641
235,4370.769230,4521.025641,4540.512820,4291.794871,4518.974358,4170.769230,4455.897435,4209.230769,4243.589743,4474.358974,4211.282051,4646.666666,3998.974359,4040.512820
236,4374.358974,4524.615384,4543.076923,4294.358974,4521.025641,4172.307692,4461.025641,4215.897435,4251.282051,4476.410256,4217.435897,4649.230769,4001.025641,4042.051282
237,4380.512820,4536.410256,4542.564102,4294.358974,4524.615384,4182.564102,4461.538461,4218.974358,4255.897435,4484.615384,4216.410256,4650.769230,4007.692307,4046.666666
238,4381.538461,4540.000000,4544.615384,4291.282051,4523.076923,4184.102564,4461.025641,4223.076923,4263.076923,4494.358974,4217.435897,4653.333333,4012.307692,4047.179487
239,4376.923076,4531.794871,4547.179487,4292.820512,4521.538461,4174.358974,4461.538461,4222.564102,4259.487179,4494.871794,4215.897435,4654.358974,4007.179487,4042.564102
240,4367.692307,4523.076923,4539.487179,4287.692307,4516.923076,4164.615384,4451.794871,4208.717948,4245.128205,4480.512820,4208.205128,4645.128205,3992.820513,4035.897435
241,4359.487179,4519.487179,4533.333333,4277.948717,4508.717948,4161.025641,4445.128205,4204.102564,4243.076923,4470.769230,4205.128205,4640.000000,3985.641026,4031.282051
242,4367.179487,4525.128205,4538.461538,4284.615384,4511.282051,4167.179487,4453.333333,4214.358974,4247.692307,4476.410256,4210.769230,4649.230769,3986.153847,4035.897435
243,4376.923076,4533.846153,4546.666666,4295.384615,4521.025641,4174.871794,4460.000000,4213.846153,4242.051282,4478.974358,4212.820512,4654.358974,3985.641026,4042.051282
244,4373.846153,4536.410256,4549.230769,4287.179487,4524.102564,4172.820512,4459.487179,4200.512820,4238.461538,4477.948717,4209.743589,4650.769230,3995.897436,4043.589743
245,4370.769230,4534.358974,4545.128205,4278.974358,4520.512820,4167.692307,4455.897435,4196.410256,4245.128205,4481.538461,4212.307692,4650.769230,4013.333333,4045.641025
246,4372.307692,4527.692307,4537.948717,4283.076923,4514.358974,4168.205128,4450.769230,4202.051282,4243.589743,4480.512820,4217.435897,4649.743589,4015.897435,4047.179487
247,4373.333333,4525.641025,4532.307692,4282.564102,4507.179487,4168.717948,4449.743589,4202.564102,4238.974358,4481.025641,4218.974358,4644.615384,4005.128205,4043.589743
248,4375.384615,4531.282051,4530.256410,4277.948717,4507.179487,4165.641025,4451.794871,4202.051282,4242.051282,4485.128205,4217.435897,4644.102564,4001.538461,4042.051282
249,4371.282051,4527.179487,4527.179487,4277.948717,4509.743589,4161.538461,4447.179487,4201.025641,4240.512820,4483.076923,4213.333333,4643.076923,4003.589743,4041.538461
250,4362.051282,4518.461538,4525.641025,4274.871794,4508.205128,4162.564102,4440.512820,4197.948717,4238.974358,4483.076923,4208.205128,4637.435897,4005.128205,4037.435897
251,4365.641025,4523.589743,4527.179487,4269.743589,4509.230769,4168.717948,4444.615384,4200.000000,4244.102564,4484.615384,4208.205128,4638.974358,4008.205128,4038.461538
252,4370.256410,4528.717948,4526.666666,4272.820512,4510.769230,4166.666666,4445.641025,4201.538461,4239.487179,4475.384615,4205.641025,4637.435897,4008.205128,4038.974358
253,4360.000000,4518.974358,4522.051282,4276.923076,4506.153846,4163.589743,4440.000000,4195.384615,4227.179487,4467.179487,4200.512820,4630.256410,4001.025641,4035.384615
254,4360.000000,4521.025641,4520.512820,4278.461538,4510.256410,4167.179487,4441.025641,4193.846153,4231.282051,4478.461538,4205.128205,4633.846153,4003.076923,4036.923076
255,4368.717948,4531.794871,4525.641025,4279.487179,4519.487179,4171.794871,4446.153846,4200.512820,4241.538461,4490.256410,4208.205128,4640.512820,4014.358974,4039.487179
256,4365.128205,4530.256410,4527.179487,4280.000000,4512.820512,4170.256410,4445.641025,4196.410256,4241.025641,4485.641025,4203.589743,4634.358974,4012.307692,4036.410256
257,4363.076923,4522.564102,4525.128205,4278.461538,4509.230769,4167.179487,4444.615384,4191.794871,4234.871794,4476.410256,4201.538461,4632.820512,4007.692307,4037.948717
258,4367.692307,4521.025641,4529.230769,4279.487179,4517.948717,4168.205128,4448.717948,4196.923076,4230.769230,4475.384615,4205.128205,4643.589743,4005.641025,4041.025641
259,4365.128205,4523.076923,4532.307692,4282.051282,4515.897435,4169.230769,4448.717948,4193.333333,4230.256410,4476.410256,4203.076923,4643.076923,3997.435898,4033.333333
