,AF3,F7,F3,FC5,T7,P7,O1,O2,P8,T8,FC6,F4,F8,AF4
0,4423.076923,4552.820512,4542.564102,4296.923076,4492.307692,4215.384615,4437.948717,4204.102564,4234.871794,4514.358974,4246.666666,4642.051282,4022.564102,4053.333333
1,4415.897435,4545.128205,4539.487179,4295.897435,4475.384615,4210.256410,4433.846153,4202.564102,4235.897435,4509.743589,4241.025641,4639.487179,4008.205128,4047.179487
2,4414.358974,4545.641025,4540.512820,4300.000000,4475.897435,4210.769230,4441.025641,4213.333333,4247.179487,4517.948717,4244.615384,4644.615384,4003.076923,4050.769230
3,4414.871794,4545.641025,4541.025641,4302.051282,4481.538461,4212.820512,4439.487179,4211.282051,4249.230769,4519.487179,4249.743589,4642.051282,4006.666666,4051.794871
4,4414.358974,4536.923076,4539.487179,4295.897435,4485.128205,4215.384615,4432.307692,4205.641025,4242.564102,4513.846153,4247.179487,4636.923076,4010.769230,4049.230769
5,4418.461538,4537.435897,4541.538461,4294.358974,4490.256410,4215.897435,4432.307692,4214.358974,4245.641025,4514.358974,4245.641025,4646.153846,4020.000000,4056.410256
6,4418.461538,4543.589743,4538.974358,4298.974358,4480.512820,4210.256410,4429.230769,4210.769230,4243.589743,4510.256410,4244.615384,4645.128205,4021.538461,4058.461538
7,4411.794871,4541.025641,4535.897435,4295.897435,4473.846153,4207.179487,4429.743589,4199.487179,4236.410256,4508.205128,4243.076923,4633.846153,4008.205128,4051.794871
8,4412.820512,4536.410256,4544.102564,4293.333333,4488.205128,4214.871794,4441.025641,4212.820512,4246.153846,4524.615384,4249.743589,4642.564102,4005.128205,4053.846153
9,4421.025641,4542.564102,4551.282051,4302.051282,4494.358974,4220.000000,4440.000000,4222.564102,4253.333333,4534.358974,4255.897435,4653.846153,4018.461538,4060.000000
10,4425.128205,4548.205128,4541.538461,4304.615384,4480.512820,4212.307692,4427.179487,4205.641025,4238.461538,4522.051282,4250.769230,4648.205128,4021.538461,4058.461538
11,4424.102564,4548.205128,4538.461538,4297.948717,4476.923076,4206.153846,4430.769230,4200.000000,4235.384615,4515.897435,4246.666666,4644.615384,4018.461538,4057.948717
12,4421.025641,4549.230769,4549.230769,4300.000000,4477.435897,4210.256410,4441.025641,4211.794871,4248.205128,4518.974358,4249.743589,4647.179487,4017.435897,4060.512820
13,4415.897435,4544.615384,4546.153846,4303.076923,4472.307692,4216.410256,4438.974358,4210.769230,4245.128205,4514.358974,4244.102564,4639.487179,4011.282051,4057.948717
14,4416.923076,4539.487179,4540.512820,4303.589743,4481.025641,4217.948717,4436.410256,4206.153846,4237.435897,4513.333333,4238.461538,4633.333333,4008.205128,4053.846153
15,4422.564102,4543.076923,4551.794871,4306.153846,4496.410256,4217.948717,4440.512820,4211.794871,4244.102564,4521.025641,4245.641025,4637.948717,4011.794871,4052.820512
16,4422.564102,4545.641025,4555.897435,4306.666666,4501.025641,4219.487179,4439.487179,4215.897435,4250.769230,4521.025641,4244.102564,4638.974358,4011.794871,4053.846153
17,4418.461538,4541.538461,4550.256410,4303.076923,4494.358974,4217.435897,4434.358974,4211.282051,4246.153846,4515.384615,4230.256410,4635.897435,4006.666666,4054.358974
18,4417.948717,4541.025641,4549.230769,4301.025641,4478.461538,4216.410256,4431.794871,4205.128205,4237.948717,4514.871794,4227.179487,4636.410256,4006.153846,4054.871794
19,4413.333333,4540.512820,4545.128205,4300.000000,4465.128205,4215.384615,4428.205128,4205.128205,4232.820512,4511.794871,4230.769230,4638.974358,4005.128205,4053.846153
20,4411.794871,4537.435897,4544.102564,4300.000000,4468.717948,4214.358974,4433.846153,4215.384615,4241.538461,4512.307692,4231.282051,4642.564102,4007.179487,4054.358974
21,4416.410256,4537.948717,4552.307692,4298.461538,4480.512820,4217.435897,4445.128205,4222.564102,4252.820512,4521.538461,4229.230769,4644.102564,4011.282051,4055.897435
22,4412.820512,4534.358974,4550.256410,4294.871794,4486.666666,4219.487179,4443.076923,4216.923076,4247.692307,4521.538461,4223.076923,4638.974358,4008.717948,4052.820512
23,4408.717948,4533.846153,4545.641025,4296.410256,4488.205128,4218.461538,4440.512820,4216.923076,4245.128205,4522.564102,4221.538461,4637.435897,4008.717948,4051.282051
24,4415.384615,4538.974358,4550.769230,4301.025641,4489.743589,4220.000000,4444.102564,4221.538461,4249.743589,4526.153846,4230.256410,4644.615384,4014.871794,4057.435897
25,4417.948717,4540.000000,4554.358974,4303.076923,4485.128205,4219.487179,4443.076923,4218.461538,4248.205128,4523.076923,4234.871794,4647.179487,4017.948717,4061.538461
26,4414.358974,4537.948717,4549.743589,4302.051282,4478.974358,4216.410256,4439.487179,4214.871794,4246.153846,4523.589743,4233.333333,4645.128205,4020.512820,4060.512820
27,4416.410256,4537.948717,4548.717948,4299.487179,4481.538461,4215.384615,4441.025641,4214.871794,4246.153846,4523.589743,4233.333333,4645.128205,4021.538461,4062.051282
28,4420.000000,4539.487179,4549.743589,4298.974358,4491.794871,4217.948717,4444.102564,4214.871794,4246.153846,4517.948717,4233.846153,4646.153846,4014.358974,4062.051282
29,4420.000000,4541.025641,4551.794871,4298.461538,4497.435897,4220.000000,4445.128205,4216.923076,4246.666666,4521.538461,4234.358974,4649.230769,4013.333333,4061.538461
30,4417.435897,4540.000000,4552.307692,4296.410256,4491.282051,4219.487179,4444.615384,4217.435897,4248.717948,4524.102564,4237.948717,4650.256410,4022.051282,4062.051282
31,4411.282051,4530.769230,4544.615384,4291.794871,4470.769230,4215.384615,4437.948717,4209.743589,4245.128205,4510.769230,4231.794871,4643.076923,4017.435897,4056.410256
32,4405.641025,4527.692307,4541.025641,4287.692307,4461.025641,4212.820512,4434.871794,4208.717948,4245.128205,4507.692307,4225.641025,4637.948717,4002.051282,4048.717948
33,4410.769230,4534.871794,4548.717948,4289.230769,4483.076923,4215.897435,4442.051282,4218.974358,4249.743589,4517.948717,4232.307692,4642.051282,4003.589743,4051.794871
34,4416.923076,4537.948717,4554.871794,4296.923076,4505.641025,4221.538461,4446.666666,4223.076923,4252.307692,4520.512820,4236.923076,4646.153846,4012.820512,4054.871794
35,4414.358974,4536.923076,4552.820512,4294.871794,4506.153846,4225.128205,4445.128205,4223.589743,4256.410256,4519.487179,4232.820512,4644.615384,4010.769230,4053.846153
36,4412.820512,4539.487179,4552.820512,4285.641025,4495.897435,4223.076923,4443.076923,4224.615384,4257.435897,4514.871794,4229.230769,4645.128205,4008.205128,4056.410256
37,4413.846153,4542.051282,4552.820512,4285.641025,4484.102564,4216.410256,4441.538461,4218.974358,4249.743589,4510.256410,4227.692307,4644.615384,4005.128205,4052.820512
38,4413.333333,4537.435897,4553.846153,4287.179487,4486.153846,4214.871794,4440.512820,4215.384615,4246.666666,4513.333333,4228.205128,4645.128205,4001.538461,4046.666666
39,4410.769230,4530.769230,4552.820512,4281.538461,4491.282051,4217.435897,4443.589743,4220.000000,4251.794871,4513.846153,4233.333333,4648.717948,4006.666666,4051.282051
40,4403.076923,4522.051282,4542.051282,4274.871794,4476.410256,4214.871794,4444.102564,4218.974358,4250.256410,4509.230769,4231.794871,4645.128205,3999.487180,4050.256410
41,4401.538461,4521.538461,4542.051282,4276.923076,4468.717948,4212.307692,4442.051282,4214.871794,4244.102564,4510.769230,4224.615384,4637.948717,3985.128206,4042.564102
42,4407.692307,4532.307692,4552.820512,4280.512820,4481.538461,4215.897435,4443.076923,4218.974358,4246.666666,4512.820512,4225.128205,4640.000000,3996.923077,4047.179487
43,4410.769230,4537.948717,4553.846153,4279.487179,4488.205128,4215.384615,4444.102564,4223.076923,4249.743589,4506.666666,4228.205128,4644.615384,4009.743589,4052.307692
44,4411.282051,4538.461538,4551.282051,4281.025641,4491.282051,4215.897435,4445.641025,4223.076923,4251.282051,4507.179487,4234.358974,4651.282051,4005.128205,4053.846153
45,4413.333333,4536.410256,4555.384615,4282.564102,4494.358974,4216.410256,4445.128205,4222.051282,4251.282051,4512.820512,4238.974358,4653.333333,4004.102564,4057.435897
46,4411.282051,4533.846153,4556.923076,4281.025641,4489.743589,4208.717948,4442.564102,4220.512820,4249.743589,4511.282051,4235.897435,4649.743589,4007.179487,4056.923076
47,4410.769230,4535.897435,4555.897435,4277.948717,4487.692307,4203.589743,4441.025641,4218.461538,4248.205128,4513.333333,4236.923076,4651.282051,4009.743589,4054.358974
48,4411.794871,4538.974358,4555.897435,4278.974358,4492.820512,4211.794871,4442.564102,4217.948717,4246.153846,4520.512820,4241.538461,4654.358974,4012.820512,4054.871794
49,4408.205128,4538.461538,4553.846153,4278.461538,4485.128205,4215.897435,4444.102564,4216.923076,4245.128205,4516.410256,4237.435897,4651.282051,4007.692307,4054.358974
50,4408.717948,4540.512820,4554.871794,4281.538461,4476.410256,4213.333333,4444.615384,4218.974358,4248.717948,4510.256410,4235.384615,4651.794871,4003.076923,4053.333333
51,4412.307692,4544.102564,4556.923076,4286.153846,4486.153846,4215.384615,4445.128205,4227.179487,4251.282051,4517.435897,4240.000000,4654.358974,4005.641025,4054.871794
52,4412.820512,4541.538461,4555.897435,4283.076923,4494.871794,4217.948717,4447.692307,4231.282051,4250.769230,4521.025641,4235.897435,4651.794871,4005.641025,4055.384615
53,4413.333333,4537.435897,4555.897435,4284.615384,4494.871794,4215.897435,4454.358974,4230.769230,4254.358974,4516.923076,4230.256410,4652.820512,3999.487180,4056.410256
54,4409.743589,4537.948717,4553.846153,4289.230769,4504.615384,4217.435897,4460.000000,4234.358974,4263.076923,4513.846153,4237.435897,4655.897435,3997.948718,4055.897435
55,4406.666666,4538.974358,4551.794871,4284.615384,4510.256410,4220.000000,4462.051282,4236.923076,4266.153846,4508.717948,4238.974358,4647.692307,4005.641025,4050.769230
56,4406.153846,4537.435897,4551.282051,4276.923076,4486.153846,4215.897435,4458.461538,4236.410256,4261.538461,4505.641025,4230.769230,4640.512820,4008.717948,4047.179487
57,4401.538461,4534.871794,4545.641025,4276.923076,4469.743589,4210.769230,4453.333333,4233.846153,4256.410256,4512.307692,4231.282051,4640.000000,3995.897436,4046.153846
58,4400.000000,4535.384615,4544.102564,4277.435897,4488.205128,4213.333333,4454.358974,4230.769230,4260.512820,4518.974358,4242.564102,4643.076923,3992.307693,4050.256410
59,4407.692307,4537.435897,4550.769230,4277.948717,4495.897435,4217.435897,4458.974358,4233.846153,4264.102564,4521.538461,4246.153846,4646.666666,4003.589743,4055.897435
60,4409.230769,4535.384615,4551.282051,4280.000000,4482.564102,4216.923076,4454.358974,4232.820512,4256.410256,4515.384615,4235.897435,4644.102564,4000.512820,4052.820512
61,4405.128205,4533.846153,4549.230769,4277.435897,4481.025641,4210.256410,4444.102564,4219.487179,4244.615384,4505.641025,4228.205128,4640.512820,3988.717949,4046.666666
62,4408.205128,4536.923076,4552.820512,4278.461538,4484.102564,4203.076923,4441.025641,4214.358974,4246.666666,4505.641025,4233.846153,4644.102564,3990.256411,4050.769230
63,4411.794871,4537.948717,4556.410256,4289.743589,4477.435897,4205.128205,4444.102564,4222.051282,4255.897435,4513.333333,4246.153846,4650.256410,4000.000000,4056.410256
64,4412.307692,4537.435897,4560.000000,4294.871794,4484.102564,4209.743589,4446.666666,4221.538461,4256.923076,4520.512820,4254.358974,4654.871794,4003.076923,4060.000000
65,4417.948717,4546.153846,4566.666666,4288.717948,4504.615384,4210.769230,4452.307692,4222.051282,4256.410256,4522.564102,4255.384615,4658.974358,4004.615384,4066.153846
66,4427.179487,4553.846153,4569.230769,4286.666666,4509.743589,4213.846153,4457.435897,4230.256410,4262.564102,4524.615384,4262.051282,4665.128205,4013.333333,4075.384615
67,4426.153846,4545.641025,4570.256410,4289.743589,4493.846153,4212.307692,4455.897435,4236.923076,4268.717948,4525.641025,4267.179487,4666.153846,4016.923076,4076.923076
68,4415.384615,4536.410256,4566.666666,4288.717948,4475.384615,4203.076923,4448.205128,4233.333333,4265.128205,4522.051282,4254.358974,4658.461538,4005.641025,4066.666666
69,4411.282051,4537.435897,4555.897435,4282.051282,4471.794871,4197.948717,4442.564102,4221.025641,4258.974358,4517.435897,4241.538461,4651.794871,3998.461539,4058.974358
70,4414.871794,4541.538461,4554.871794,4281.025641,4483.076923,4203.076923,4442.564102,4220.000000,4263.076923,4521.538461,4248.205128,4655.897435,4006.666666,4066.153846
71,4415.897435,4547.179487,4560.512820,4284.615384,4489.743589,4207.692307,4443.589743,4230.769230,4266.153846,4528.205128,4255.384615,4658.461538,4010.256410,4071.282051
72,4412.820512,4553.333333,4557.435897,4283.589743,4492.307692,4205.128205,4442.564102,4228.205128,4258.974358,4526.153846,4251.282051,4651.794871,4006.666666,4063.589743
73,4410.769230,4551.794871,4553.333333,4283.589743,4494.871794,4201.538461,4442.564102,4215.384615,4254.871794,4521.025641,4249.230769,4647.179487,4003.589743,4058.461538
74,4408.717948,4542.564102,4554.358974,4283.589743,4484.615384,4198.974358,4441.538461,4215.384615,4260.512820,4516.923076,4250.769230,4647.179487,3998.974359,4060.000000
75,4410.769230,4539.487179,4558.974358,4282.051282,4480.512820,4201.025641,4444.102564,4223.589743,4263.589743,4521.538461,4253.846153,4649.230769,4002.051282,4064.615384
76,4421.538461,4548.205128,4571.282051,4285.128205,4503.589743,4211.794871,4455.897435,4232.820512,4270.769230,4535.897435,4264.102564,4657.435897,4013.846153,4074.871794
77,4424.615384,4548.717948,4574.358974,4289.230769,4509.230769,4218.461538,4465.641025,4235.897435,4275.384615,4536.410256,4265.641025,4662.051282,4017.435897,4076.410256
78,4408.717948,4534.871794,4558.974358,4282.564102,4481.025641,4205.641025,4456.923076,4218.461538,4257.435897,4513.846153,4243.589743,4649.743589,4001.025641,4061.025641
79,4396.923076,4530.256410,4550.256410,4275.897435,4471.282051,4196.410256,4442.051282,4200.000000,4238.974358,4498.974358,4225.128205,4638.461538,3981.025642,4049.743589
80,4403.589743,4538.461538,4554.358974,4280.512820,4486.666666,4202.564102,4446.666666,4204.102564,4245.128205,4506.666666,4230.256410,4642.564102,3979.487180,4053.846153
81,4407.692307,4537.435897,4555.384615,4279.487179,4488.205128,4203.589743,4456.923076,4214.358974,4256.410256,4508.205128,4238.974358,4646.153846,3989.230770,4057.435897
82,4405.128205,4533.846153,4554.358974,4278.974358,4485.641025,4201.025641,4451.794871,4216.410256,4261.025641,4508.205128,4243.076923,4645.641025,3991.282052,4054.871794
83,4410.769230,4541.025641,4557.948717,4285.128205,4492.307692,4203.076923,4449.230769,4222.564102,4264.102564,4520.512820,4248.205128,4650.769230,3987.179488,4054.871794
84,4412.820512,4544.615384,4556.923076,4288.717948,4490.769230,4200.512820,4453.333333,4226.153846,4261.538461,4524.615384,4248.717948,4653.333333,3989.743590,4061.538461
85,4412.820512,4543.076923,4557.948717,4291.282051,4491.282051,4200.512820,4447.179487,4219.487179,4260.000000,4516.410256,4249.230769,4655.897435,3998.461539,4067.179487
86,4419.487179,4548.717948,4566.153846,4294.358974,4501.025641,4207.179487,4447.179487,4222.564102,4268.717948,4523.076923,4257.435897,4667.179487,4008.205128,4070.769230
87,4420.000000,4553.846153,4569.743589,4295.384615,4501.538461,4206.666666,4458.974358,4226.666666,4271.794871,4535.384615,4264.615384,4673.333333,4013.846153,4074.358974
88,4417.435897,4551.794871,4569.743589,4296.410256,4490.769230,4206.153846,4458.461538,4222.564102,4269.230769,4536.410256,4268.717948,4668.205128,4013.846153,4078.461538
89,4423.589743,4551.794871,4571.282051,4297.948717,4483.076923,4210.256410,4453.333333,4225.641025,4270.256410,4533.333333,4271.282051,4668.717948,4015.897435,4081.538461
90,4426.666666,4554.871794,4571.282051,4297.948717,4490.769230,4208.717948,4458.974358,4228.717948,4272.820512,4532.820512,4272.307692,4673.846153,4019.487179,4082.051282
91,4416.410256,4548.205128,4567.179487,4291.794871,4500.512820,4203.589743,4456.410256,4221.538461,4273.333333,4533.333333,4269.230769,4669.743589,4011.282051,4076.410256
92,4410.769230,4538.974358,4565.641025,4290.256410,4498.974358,4203.076923,4444.615384,4217.435897,4271.794871,4530.769230,4263.589743,4663.589743,4003.589743,4072.307692
93,4422.564102,4546.666666,4570.769230,4300.512820,4495.897435,4205.128205,4443.076923,4219.487179,4268.205128,4533.846153,4273.333333,4669.230769,4016.410256,4082.051282
94,4429.743589,4554.871794,4573.333333,4305.128205,4491.282051,4202.051282,4445.641025,4217.435897,4262.564102,4534.871794,4276.923076,4672.307692,4021.538461,4086.153846
95,4422.051282,4549.743589,4567.692307,4297.435897,4486.666666,4198.974358,4442.564102,4215.384615,4261.538461,4528.717948,4257.948717,4662.051282,4009.230769,4076.410256
96,4418.974358,4550.256410,4566.666666,4294.871794,4494.358974,4200.000000,4442.051282,4215.897435,4264.102564,4526.666666,4252.307692,4658.461538,4007.692307,4074.871794
97,4420.000000,4551.794871,4568.717948,4295.897435,4495.384615,4200.000000,4443.589743,4214.871794,4260.000000,4524.615384,4261.538461,4656.923076,4013.846153,4077.948717
98,4415.384615,4546.666666,4559.487179,4293.333333,4480.000000,4194.358974,4441.538461,4213.333333,4254.871794,4520.512820,4253.333333,4649.230769,4007.179487,4071.282051
99,4416.923076,4546.666666,4558.974358,4295.384615,4483.589743,4194.358974,4443.076923,4214.871794,4258.461538,4525.128205,4249.230769,4651.794871,4000.512820,4068.717948
100,4418.974358,4546.666666,4567.692307,4296.923076,4493.846153,4200.000000,4445.128205,4216.923076,4265.128205,4529.743589,4265.128205,4660.000000,4005.128205,4072.820512
101,4411.282051,4538.974358,4562.051282,4294.871794,4492.307692,4201.025641,4444.615384,4215.384615,4262.564102,4524.615384,4265.641025,4655.897435,4009.743589,4073.333333
102,4408.205128,4536.923076,4552.820512,4293.333333,4498.974358,4202.051282,4446.666666,4213.846153,4257.948717,4521.025641,4253.846153,4650.769230,4005.641025,4068.205128
103,4406.153846,4536.410256,4553.846153,4286.666666,4499.487179,4203.076923,4445.641025,4207.179487,4251.794871,4516.410256,4250.256410,4648.717948,3990.256411,4057.435897
104,4402.051282,4531.282051,4555.384615,4283.076923,4483.589743,4198.974358,4441.538461,4203.589743,4249.230769,4511.794871,4245.641025,4643.076923,3983.589744,4053.846153
105,4408.205128,4537.435897,4554.358974,4293.333333,4487.692307,4197.948717,4443.589743,4214.358974,4262.051282,4522.564102,4245.641025,4644.102564,4003.589743,4066.666666
106,4421.538461,4550.769230,4561.538461,4303.589743,4501.538461,4203.589743,4446.666666,4222.564102,4271.282051,4537.435897,4256.410256,4653.846153,4020.000000,4075.897435
107,4422.051282,4552.820512,4569.743589,4301.025641,4488.717948,4197.948717,4443.589743,4215.897435,4263.076923,4535.897435,4264.615384,4659.487179,4008.205128,4073.846153
108,4415.384615,4545.641025,4568.717948,4297.948717,4481.025641,4192.820512,4441.538461,4214.871794,4260.000000,4527.179487,4262.564102,4656.923076,3993.846154,4073.333333
109,4409.743589,4538.461538,4557.948717,4295.384615,4490.256410,4195.384615,4443.076923,4215.384615,4263.076923,4520.512820,4250.256410,4649.230769,3998.461539,4068.205128
110,4404.615384,4537.948717,4552.820512,4288.205128,4484.615384,4190.769230,4443.076923,4203.589743,4255.384615,4513.846153,4242.051282,4645.128205,4003.589743,4059.487179
111,4407.692307,4537.435897,4561.025641,4286.666666,4475.384615,4188.205128,4442.051282,4202.564102,4249.230769,4513.846153,4247.692307,4648.205128,3997.948718,4062.564102
112,4413.333333,4536.410256,4568.717948,4293.333333,4488.205128,4196.923076,4442.564102,4214.358974,4255.897435,4520.000000,4254.358974,4653.333333,3997.435898,4070.769230
113,4417.435897,4541.538461,4568.717948,4298.461538,4510.256410,4203.076923,4445.128205,4219.487179,4266.153846,4526.153846,4253.846153,4660.512820,4006.666666,4076.923076
114,4420.000000,4546.153846,4569.230769,4298.974358,4506.153846,4199.487179,4443.076923,4217.435897,4266.666666,4524.102564,4255.897435,4663.589743,4008.205128,4077.435897
115,4418.461538,4542.051282,4571.794871,4300.512820,4488.205128,4198.461538,4440.512820,4217.435897,4258.461538,4520.512820,4259.487179,4656.410256,4000.000000,4072.307692
116,4411.282051,4536.410256,4567.179487,4297.435897,4492.820512,4202.051282,4442.564102,4217.948717,4257.435897,4522.051282,4254.358974,4652.820512,3995.897436,4069.743589
117,4408.717948,4537.435897,4564.102564,4291.794871,4508.205128,4202.564102,4446.666666,4214.358974,4261.538461,4520.512820,4247.692307,4659.487179,3996.410257,4071.794871
118,4413.846153,4538.461538,4567.179487,4291.794871,4494.358974,4195.384615,4445.641025,4205.641025,4255.384615,4514.871794,4250.256410,4662.051282,4000.512820,4073.333333
119,4411.794871,4534.871794,4565.128205,4292.820512,4468.205128,4189.230769,4443.076923,4203.589743,4245.641025,4514.871794,4253.846153,4655.897435,4004.102564,4071.282051
120,4411.282051,4534.358974,4562.564102,4292.820512,4480.512820,4196.410256,4442.564102,4210.769230,4250.769230,4523.589743,4253.333333,4656.410256,4003.076923,4070.256410
121,4414.871794,4536.923076,4565.641025,4292.307692,4499.487179,4202.564102,4444.615384,4212.307692,4256.410256,4526.666666,4251.282051,4655.897435,3998.461539,4069.743589
122,4412.820512,4538.974358,4563.589743,4291.282051,4491.282051,4196.923076,4444.102564,4206.153846,4250.256410,4518.461538,4248.205128,4648.205128,3992.307693,4066.153846
123,4410.256410,4535.897435,4556.410256,4289.230769,4489.743589,4190.769230,4438.974358,4205.641025,4246.153846,4511.282051,4247.179487,4647.692307,3990.256411,4064.615384
124,4408.717948,4526.153846,4554.358974,4281.025641,4493.333333,4188.205128,4429.743589,4203.076923,4246.153846,4507.692307,4244.615384,4643.589743,3990.769231,4062.564102
125,4400.000000,4518.974358,4552.307692,4273.846153,4478.461538,4183.076923,4424.615384,4194.358974,4242.564102,4498.974358,4234.871794,4632.820512,3987.179488,4052.820512
126,4391.282051,4518.974358,4549.230769,4275.384615,4470.769230,4182.564102,4426.666666,4187.692307,4236.923076,4498.461538,4230.256410,4630.256410,3978.974359,4048.717948
127,4396.410256,4522.564102,4550.769230,4277.948717,4483.076923,4184.102564,4426.666666,4184.615384,4230.256410,4503.076923,4235.384615,4632.307692,3972.820513,4054.358974
128,4407.179487,4531.282051,4552.307692,4275.897435,4491.282051,4186.153846,4426.153846,4188.205128,4229.230769,4496.923076,4239.487179,4631.282051,3979.487180,4057.948717
129,4413.846153,4549.230769,4554.871794,4279.487179,4500.000000,4196.410256,4437.435897,4204.102564,4243.589743,4498.974358,4241.538461,4640.512820,3990.769231,4059.487179
130,4414.358974,4549.230769,4557.948717,4283.589743,4505.641025,4201.025641,4445.128205,4215.897435,4256.410256,4515.384615,4246.666666,4649.743589,3995.897436,4062.051282
131,4405.641025,4530.256410,4556.923076,4281.538461,4497.435897,4190.256410,4436.923076,4210.769230,4252.820512,4518.461538,4250.256410,4642.564102,3991.794872,4059.487179
132,4400.512820,4530.256410,4553.846153,4277.435897,4496.923076,4188.205128,4434.358974,4202.051282,4248.717948,4512.307692,4245.128205,4638.974358,3988.205129,4054.871794
133,4405.641025,4545.641025,4554.358974,4274.358974,4501.025641,4196.923076,4440.512820,4204.615384,4248.205128,4514.871794,4238.461538,4644.615384,3984.615385,4054.871794
134,4405.128205,4545.641025,4554.358974,4268.205128,4486.666666,4190.256410,4441.538461,4205.641025,4245.128205,4511.794871,4234.358974,4643.589743,3977.435898,4052.820512
135,4396.410256,4531.794871,4545.128205,4262.051282,4474.358974,4181.025641,4439.487179,4200.000000,4242.051282,4498.461538,4231.794871,4636.923076,3976.410257,4047.179487
136,4391.794871,4526.666666,4537.948717,4262.564102,4482.051282,4187.692307,4439.487179,4198.974358,4236.923076,4490.256410,4231.794871,4633.333333,3976.923077,4043.076923
137,4392.820512,4531.794871,4541.538461,4263.589743,4488.205128,4191.282051,4435.897435,4200.512820,4231.794871,4489.230769,4230.256410,4631.282051,3970.256411,4042.564102
138,4391.794871,4529.230769,4542.564102,4260.000000,4489.743589,4188.205128,4430.769230,4196.923076,4231.282051,4489.743589,4225.128205,4627.692307,3963.589744,4038.974358
139,4392.820512,4524.102564,4538.461538,4257.435897,4497.948717,4188.205128,4432.307692,4195.384615,4234.871794,4496.923076,4223.589743,4628.717948,3969.230770,4038.461538
140,4393.333333,4526.153846,4545.128205,4261.025641,4489.743589,4186.153846,4431.794871,4197.948717,4240.000000,4503.589743,4229.743589,4632.820512,3976.410257,4044.615384
141,4396.410256,4532.307692,4554.358974,4264.102564,4473.846153,4184.615384,4429.230769,4198.974358,4238.974358,4501.025641,4235.384615,4636.410256,3974.871795,4048.205128
142,4405.641025,4533.846153,4555.897435,4263.589743,4482.564102,4186.666666,4434.358974,4199.487179,4237.948717,4500.512820,4235.897435,4638.461538,3975.384616,4050.769230
143,4407.179487,4535.384615,4554.871794,4264.102564,4496.923076,4188.205128,4443.076923,4199.487179,4242.051282,4504.615384,4235.384615,4637.948717,3976.923077,4053.846153
144,4403.076923,4537.948717,4557.435897,4265.641025,4490.769230,4185.128205,4443.589743,4195.897435,4240.000000,4498.461538,4233.846153,4638.461538,3978.974359,4055.897435
145,4406.666666,4539.487179,4558.974358,4264.102564,4485.128205,4185.128205,4437.948717,4197.435897,4237.435897,4497.435897,4239.487179,4640.000000,3984.102565,4057.948717
146,4414.358974,4542.051282,4558.461538,4265.128205,4478.974358,4187.179487,4432.307692,4203.589743,4244.102564,4509.230769,4242.051282,4640.000000,3986.666667,4058.974358
147,4415.897435,4538.461538,4557.948717,4269.743589,4470.769230,4185.641025,4428.717948,4204.615384,4251.794871,4511.282051,4238.974358,4640.512820,3987.179488,4057.948717
148,4411.282051,4537.948717,4557.948717,4270.256410,4484.615384,4183.589743,4429.743589,4203.076923,4248.717948,4505.641025,4242.051282,4641.538461,3989.230770,4061.025641
149,4404.615384,4541.025641,4555.897435,4264.102564,4494.358974,4183.589743,4431.794871,4201.025641,4242.051282,4506.153846,4242.051282,4637.435897,3982.564103,4059.487179
150,4399.487179,4536.410256,4552.820512,4259.487179,4482.051282,4184.615384,4434.871794,4196.410256,4236.410256,4505.128205,4232.820512,4628.205128,3971.794872,4048.205128
151,4402.051282,4534.358974,4553.333333,4264.102564,4484.615384,4185.641025,4440.512820,4196.410256,4234.871794,4501.025641,4229.743589,4629.743589,3975.384616,4046.666666
152,4407.179487,4538.974358,4555.384615,4268.717948,4494.871794,4189.743589,4442.051282,4201.025641,4239.487179,4500.000000,4239.487179,4637.948717,3985.128206,4057.948717
153,4405.641025,4538.461538,4553.846153,4264.102564,4488.205128,4193.846153,4440.512820,4197.948717,4244.102564,4501.025641,4243.076923,4636.410256,3986.666667,4062.564102
154,4404.102564,4540.000000,4555.384615,4266.153846,4494.871794,4198.974358,4443.589743,4200.512820,4247.692307,4507.692307,4237.435897,4631.282051,3987.179488,4059.487179
155,4408.717948,4545.641025,4559.487179,4275.897435,4512.307692,4204.102564,4446.666666,4214.358974,4254.358974,4516.923076,4235.384615,4635.384615,3990.769231,4060.512820
156,4409.230769,4541.538461,4556.410256,4272.307692,4497.948717,4197.948717,4445.641025,4211.794871,4256.410256,4514.871794,4233.333333,4636.923076,3990.769231,4062.051282
157,4406.666666,4541.538461,4555.897435,4267.179487,4481.025641,4191.282051,4444.102564,4204.102564,4250.769230,4511.282051,4234.358974,4634.358974,3986.666667,4062.564102
158,4411.282051,4549.743589,4566.666666,4275.897435,4494.871794,4196.410256,4444.102564,4210.769230,4247.692307,4515.897435,4242.051282,4638.974358,3984.102565,4063.076923
159,4417.435897,4551.282051,4572.307692,4282.051282,4512.307692,4204.102564,4444.615384,4213.333333,4252.307692,4516.410256,4243.589743,4641.025641,3987.692308,4062.564102
160,4416.410256,4551.794871,4563.076923,4278.974358,4511.794871,4201.025641,4444.102564,4208.205128,4252.307692,4510.769230,4236.410256,4638.974358,3993.333334,4066.666666
161,4411.794871,4548.717948,4553.846153,4276.410256,4490.256410,4187.692307,4438.974358,4203.076923,4245.641025,4505.128205,4232.820512,4635.384615,3992.307693,4069.230769
162,4410.256410,4540.512820,4557.948717,4275.897435,4472.820512,4181.538461,4433.333333,4201.538461,4245.128205,4505.641025,4231.794871,4631.282051,3990.769231,4062.051282
163,4414.358974,4545.128205,4569.230769,4276.410256,4491.794871,4192.307692,4437.948717,4207.692307,4252.820512,4515.897435,4233.846153,4635.897435,3992.307693,4063.589743
164,4420.000000,4552.820512,4571.794871,4281.025641,4511.282051,4201.538461,4446.153846,4216.410256,4257.435897,4522.564102,4246.666666,4644.615384,3994.871795,4075.897435
165,4418.461538,4544.615384,4562.051282,4280.000000,4496.923076,4194.871794,4445.641025,4212.307692,4250.769230,4514.358974,4249.743589,4641.538461,3997.948718,4073.846153
166,4410.256410,4537.948717,4553.333333,4271.282051,4481.538461,4184.615384,4440.512820,4203.589743,4243.589743,4505.128205,4236.410256,4633.333333,3993.333334,4060.512820
167,4404.102564,4541.538461,4552.820512,4264.615384,4489.230769,4185.128205,4441.538461,4203.589743,4245.641025,4511.282051,4229.230769,4631.794871,3980.512821,4056.410256
168,4404.615384,4541.025641,4553.846153,4262.564102,4501.538461,4191.794871,4444.102564,4205.641025,4247.692307,4518.974358,4231.282051,4629.743589,3973.846154,4058.461538
169,4405.641025,4537.435897,4551.794871,4265.128205,4500.000000,4191.794871,4441.025641,4204.615384,4241.025641,4513.333333,4233.333333,4630.769230,3978.461539,4058.461538
170,4407.179487,4537.948717,4553.333333,4271.794871,4485.128205,4185.128205,4436.923076,4205.641025,4237.435897,4502.051282,4233.333333,4633.333333,3988.717949,4062.564102
171,4407.179487,4537.948717,4552.820512,4273.846153,4480.000000,4183.076923,4439.487179,4208.717948,4245.128205,4501.538461,4233.846153,4632.820512,3990.256411,4064.615384
172,4402.051282,4537.948717,4543.076923,4265.641025,4495.897435,4192.307692,4445.641025,4211.282051,4252.307692,4508.717948,4232.820512,4628.717948,3980.512821,4057.435897
173,4394.871794,4535.384615,4540.000000,4259.487179,4496.410256,4196.923076,4444.615384,4212.307692,4247.692307,4510.256410,4227.692307,4626.666666,3978.461539,4051.794871
174,4393.846153,4525.128205,4548.717948,4260.512820,4486.666666,4191.794871,4439.487179,4210.769230,4244.615384,4507.692307,4229.230769,4629.230769,3981.538462,4053.333333
175,4400.000000,4523.589743,4553.846153,4264.102564,4489.743589,4186.666666,4438.974358,4209.743589,4247.179487,4507.692307,4237.435897,4634.358974,3977.948718,4056.923076
176,4404.615384,4533.333333,4554.358974,4269.230769,4489.743589,4185.128205,4439.487179,4212.307692,4248.205128,4514.358974,4239.487179,4637.948717,3978.461539,4061.025641
177,4403.589743,4531.794871,4555.897435,4267.692307,4489.230769,4186.153846,4436.410256,4215.384615,4249.743589,4520.512820,4234.871794,4638.461538,3983.076924,4063.076923
178,4402.051282,4528.717948,4556.923076,4265.128205,4496.923076,4188.205128,4437.435897,4213.846153,4249.743589,4512.820512,4233.333333,4637.948717,3977.948718,4058.974358
179,4398.974358,4531.794871,4552.820512,4266.666666,4497.948717,4190.769230,4438.974358,4209.230769,4245.128205,4505.641025,4230.769230,4635.897435,3969.743590,4052.820512
180,4394.358974,4529.230769,4544.615384,4266.666666,4493.846153,4188.717948,4435.897435,4203.589743,4239.487179,4507.692307,4222.564102,4626.153846,3966.153847,4051.794871
181,4389.743589,4525.128205,4537.435897,4264.615384,4491.282051,4186.666666,4432.820512,4196.923076,4232.307692,4503.589743,4214.358974,4615.897435,3961.538462,4048.717948
182,4383.076923,4525.641025,4537.435897,4257.435897,4480.512820,4187.179487,4431.794871,4189.230769,4220.000000,4495.384615,4212.307692,4614.358974,3956.410257,4040.512820
183,4380.000000,4519.487179,4536.923076,4252.820512,4475.897435,4184.102564,4425.641025,4185.641025,4217.435897,4490.256410,4213.846153,4617.948717,3958.461539,4037.948717
184,4386.666666,4516.923076,4534.871794,4260.512820,4486.153846,4180.512820,4424.102564,4191.794871,4225.641025,4487.179487,4214.358974,4618.974358,3966.153847,4045.641025
185,4395.384615,4527.179487,4540.000000,4270.256410,4495.384615,4187.692307,4435.384615,4201.025641,4233.333333,4495.897435,4221.538461,4623.076923,3972.307693,4051.794871
186,4396.410256,4534.871794,4546.153846,4269.230769,4497.435897,4200.000000,4444.615384,4207.179487,4238.461538,4507.692307,4231.794871,4627.179487,3975.384616,4052.307692
187,4393.846153,4536.923076,4544.102564,4265.128205,4490.769230,4194.871794,4437.948717,4207.179487,4239.487179,4508.717948,4225.641025,4627.179487,3975.384616,4054.358974
188,4397.948717,4535.897435,4544.102564,4269.743589,4485.128205,4183.589743,4431.282051,4204.615384,4238.461538,4510.256410,4215.897435,4629.230769,3975.384616,4054.871794
189,4405.641025,4537.948717,4552.307692,4276.923076,4501.538461,4191.282051,4437.948717,4211.282051,4244.615384,4515.384615,4226.153846,4636.410256,3976.410257,4055.897435
190,4411.282051,4541.025641,4559.487179,4281.025641,4515.897435,4205.641025,4444.615384,4220.000000,4252.307692,4517.435897,4244.615384,4646.666666,3982.051283,4065.641025
191,4410.769230,4537.948717,4556.923076,4279.487179,4497.948717,4201.025641,4442.051282,4218.461538,4248.717948,4520.000000,4248.205128,4652.820512,3989.230770,4072.307692
192,4407.179487,4537.435897,4554.358974,4275.897435,4481.025641,4187.692307,4438.974358,4215.384615,4245.641025,4523.076923,4244.615384,4647.179487,3989.743590,4067.692307
193,4406.153846,4542.564102,4556.923076,4277.948717,4498.974358,4193.846153,4445.128205,4219.487179,4252.820512,4524.615384,4248.717948,4643.589743,3986.666667,4066.153846
194,4407.179487,4540.000000,4557.948717,4275.897435,4517.948717,4202.564102,4445.641025,4219.487179,4252.307692,4520.512820,4249.230769,4648.205128,3985.128206,4068.205128
195,4398.461538,4526.153846,4552.820512,4265.128205,4498.461538,4187.692307,4430.769230,4207.692307,4238.974358,4510.769230,4235.384615,4641.025641,3980.512821,4058.974358
196,4386.153846,4516.923076,4548.717948,4264.102564,4473.846153,4174.871794,4426.666666,4200.512820,4233.846153,4507.179487,4227.179487,4629.743589,3975.384616,4051.794871
197,4396.410256,4524.615384,4553.846153,4275.384615,4484.102564,4184.615384,4442.051282,4213.333333,4245.641025,4511.282051,4238.974358,4638.461538,3984.102565,4064.615384
198,4410.256410,4533.846153,4558.461538,4279.487179,4497.948717,4195.384615,4446.666666,4222.051282,4252.820512,4513.846153,4251.794871,4648.205128,3991.282052,4070.769230
199,4403.076923,4530.769230,4555.897435,4274.871794,4491.794871,4193.846153,4440.512820,4213.333333,4245.128205,4514.358974,4245.641025,4643.076923,3985.641026,4062.051282
200,4394.358974,4525.128205,4554.871794,4271.282051,4489.230769,4189.743589,4443.076923,4210.256410,4239.487179,4512.820512,4234.358974,4640.000000,3981.538462,4060.000000
201,4393.846153,4525.128205,4554.871794,4265.641025,4499.487179,4188.717948,4444.615384,4214.871794,4240.512820,4511.282051,4233.333333,4638.461538,3976.410257,4062.051282
202,4396.923076,4523.589743,4553.846153,4266.666666,4506.153846,4197.435897,4445.128205,4220.512820,4243.589743,4516.410256,4241.025641,4637.948717,3973.846154,4061.538461
203,4407.692307,4528.717948,4559.487179,4276.923076,4511.794871,4206.666666,4457.435897,4233.333333,4254.871794,4525.128205,4251.282051,4649.230769,3985.641026,4069.230769
204,4415.384615,4539.487179,4566.153846,4282.564102,4513.333333,4202.564102,4464.615384,4236.923076,4264.615384,4528.205128,4252.820512,4656.410256,4000.000000,4077.435897
205,4409.230769,4534.871794,4564.615384,4279.487179,4496.923076,4195.897435,4453.846153,4227.692307,4261.538461,4528.205128,4249.230769,4651.794871,4000.512820,4075.384615
206,4403.076923,4528.205128,4558.974358,4274.871794,4476.410256,4192.820512,4441.538461,4222.051282,4250.769230,4523.589743,4248.205128,4647.179487,3989.230770,4070.256410
207,4406.153846,4532.307692,4555.897435,4277.435897,4482.051282,4191.282051,4441.025641,4220.000000,4246.666666,4521.025641,4250.256410,4646.666666,3982.051283,4068.717948
208,4408.205128,4532.307692,4555.897435,4283.076923,4506.666666,4194.358974,4443.589743,4220.000000,4248.205128,4522.564102,4248.717948,4647.692307,3987.692308,4069.230769
209,4410.769230,4534.358974,4557.948717,4281.025641,4510.256410,4198.974358,4444.615384,4226.666666,4255.897435,4521.025641,4246.153846,4651.794871,3996.410257,4073.333333
210,4409.743589,4538.974358,4557.948717,4277.948717,4493.846153,4201.025641,4447.179487,4235.384615,4263.589743,4524.615384,4249.743589,4655.384615,3997.948718,4075.897435
211,4402.051282,4532.307692,4556.410256,4280.000000,4487.692307,4197.948717,4445.128205,4231.794871,4255.384615,4525.641025,4249.230769,4650.769230,3990.256411,4070.256410
212,4401.538461,4528.717948,4557.435897,4279.487179,4498.461538,4195.384615,4441.025641,4221.025641,4245.128205,4520.512820,4247.692307,4646.153846,3983.076924,4067.179487
213,4409.743589,4538.974358,4554.871794,4282.051282,4510.256410,4197.435897,4443.589743,4216.410256,4248.717948,4521.538461,4246.666666,4649.743589,3986.666667,4075.384615
214,4412.307692,4542.051282,4558.461538,4289.743589,4510.769230,4199.487179,4446.153846,4216.923076,4251.794871,4526.153846,4246.666666,4653.333333,3997.435898,4077.948717
215,4411.282051,4540.000000,4565.641025,4288.717948,4500.512820,4202.564102,4445.128205,4218.974358,4248.205128,4523.589743,4248.717948,4652.820512,4001.025641,4076.410256
216,4410.256410,4541.025641,4560.512820,4286.666666,4490.256410,4201.025641,4444.102564,4223.076923,4254.871794,4523.589743,4249.743589,4649.743589,3996.410257,4076.410256
217,4408.205128,4536.923076,4557.435897,4290.256410,4498.974358,4198.461538,4443.076923,4226.666666,4261.025641,4530.256410,4249.743589,4648.205128,3991.794872,4073.846153
218,4412.307692,4535.384615,4566.153846,4290.769230,4514.871794,4200.512820,4444.102564,4225.641025,4257.435897,4532.307692,4250.769230,4649.743589,3990.769231,4075.897435
219,4414.871794,4540.000000,4564.615384,4286.666666,4509.230769,4203.076923,4445.128205,4226.666666,4254.358974,4532.307692,4253.333333,4650.769230,3997.435898,4081.025641
220,4404.102564,4536.923076,4551.282051,4283.076923,4491.794871,4197.435897,4437.948717,4225.641025,4253.333333,4522.051282,4245.128205,4644.102564,3997.435898,4072.307692
221,4394.358974,4525.641025,4548.205128,4277.948717,4486.153846,4186.666666,4429.743589,4217.948717,4249.743589,4507.179487,4235.897435,4635.384615,3985.128206,4061.538461
222,4393.333333,4517.948717,4552.307692,4274.358974,4485.641025,4185.641025,4434.871794,4212.820512,4244.615384,4511.794871,4236.923076,4633.846153,3980.000000,4064.615384
223,4399.487179,4525.128205,4554.358974,4278.461538,4492.307692,4195.384615,4445.128205,4220.000000,4247.179487,4525.128205,4239.487179,4642.564102,3991.794872,4072.307692
224,4406.153846,4536.923076,4557.435897,4281.025641,4506.666666,4202.564102,4445.641025,4226.666666,4256.410256,4523.589743,4240.512820,4648.205128,3996.923077,4074.358974
225,4406.153846,4533.846153,4556.410256,4276.410256,4504.615384,4198.461538,4442.051282,4223.589743,4256.923076,4520.000000,4242.564102,4645.641025,3987.692308,4070.256410
226,4405.128205,4528.205128,4556.410256,4276.410256,4500.512820,4196.923076,4443.076923,4218.974358,4252.820512,4527.692307,4246.153846,4646.153846,3987.692308,4069.743589
227,4408.205128,4537.948717,4558.974358,4278.461538,4504.615384,4202.051282,4446.153846,4218.974358,4251.794871,4522.051282,4248.717948,4649.743589,3994.871795,4073.333333
228,4403.589743,4540.512820,4556.410256,4270.256410,4493.846153,4198.461538,4443.076923,4218.461538,4249.230769,4505.128205,4245.128205,4645.641025,3989.743590,4071.794871
229,4401.025641,4534.871794,4554.358974,4268.205128,4486.666666,4192.307692,4437.948717,4215.384615,4249.743589,4505.641025,4240.000000,4643.076923,3984.102565,4068.717948
230,4410.769230,4544.615384,4563.589743,4277.948717,4507.692307,4198.974358,4440.512820,4217.435897,4258.974358,4521.538461,4245.128205,4650.256410,3991.282052,4074.358974
231,4416.410256,4550.256410,4569.743589,4273.333333,4516.410256,4205.641025,4446.153846,4218.974358,4258.461538,4520.512820,4251.282051,4653.333333,3995.384616,4078.461538
232,4407.692307,4538.974358,4560.000000,4259.487179,4496.410256,4200.512820,4444.102564,4214.358974,4245.128205,4505.128205,4247.692307,4649.230769,3985.128206,4069.743589
233,4400.000000,4534.358974,4552.307692,4260.000000,4484.102564,4194.871794,4439.487179,4212.307692,4244.102564,4504.102564,4245.128205,4647.692307,3974.358975,4059.487179
234,4404.102564,4541.025641,4556.410256,4266.666666,4490.256410,4197.435897,4440.512820,4216.923076,4254.871794,4518.461538,4247.179487,4648.205128,3974.358975,4064.615384
235,4407.692307,4540.512820,4558.461538,4265.641025,4492.820512,4201.025641,4443.589743,4220.512820,4256.410256,4521.538461,4245.128205,4647.179487,3980.512821,4070.769230
236,4406.153846,4537.435897,4556.923076,4264.615384,4491.282051,4200.512820,4442.564102,4222.051282,4249.743589,4512.307692,4245.641025,4647.692307,3986.153847,4065.641025
237,4408.717948,4546.666666,4556.410256,4266.153846,4500.000000,4199.487179,4443.076923,4227.179487,4253.333333,4514.871794,4253.333333,4653.333333,3990.769231,4067.179487
238,4409.743589,4552.820512,4556.923076,4266.666666,4509.230769,4202.564102,4444.615384,4227.692307,4258.461538,4522.051282,4256.923076,4656.923076,3983.589744,4073.846153
239,4406.153846,4544.102564,4557.435897,4267.692307,4508.717948,4204.615384,4445.641025,4223.589743,4250.769230,4513.333333,4251.282051,4651.282051,3974.871795,4068.717948
240,4405.128205,4536.410256,4557.948717,4268.205128,4508.717948,4203.589743,4445.128205,4221.025641,4245.128205,4502.564102,4240.512820,4645.128205,3980.512821,4060.000000
241,4408.205128,4540.000000,4555.384615,4265.641025,4501.025641,4203.076923,4443.589743,4219.487179,4249.230769,4510.256410,4235.384615,4648.717948,3986.666667,4062.051282
242,4409.230769,4541.025641,4553.333333,4262.564102,4483.076923,4200.512820,4443.076923,4218.974358,4251.282051,4518.461538,4244.615384,4654.871794,3981.025642,4068.205128
243,4406.666666,4535.897435,4554.871794,4260.512820,4480.000000,4197.948717,4443.589743,4220.512820,4249.743589,4513.846153,4248.205128,4652.307692,3973.333334,4065.128205
244,4397.948717,4533.333333,4556.410256,4258.974358,4495.384615,4200.000000,4442.564102,4215.897435,4248.205128,4505.641025,4237.435897,4647.692307,3975.897436,4058.974358
245,4396.410256,4532.307692,4553.846153,4259.487179,4496.923076,4198.461538,4438.974358,4213.333333,4245.641025,4504.615384,4234.871794,4648.717948,3980.000000,4061.025641
246,4409.230769,4537.435897,4554.358974,4262.564102,4492.820512,4194.358974,4441.025641,4219.487179,4247.692307,4509.743589,4248.717948,4653.333333,3982.564103,4069.230769
247,4416.923076,4549.230769,4560.512820,4267.692307,4498.461538,4197.435897,4444.102564,4220.512820,4252.307692,4510.769230,4252.307692,4659.487179,3989.230770,4075.384615
248,4410.769230,4553.846153,4563.076923,4270.256410,4496.410256,4201.025641,4440.512820,4216.923076,4250.769230,4508.717948,4247.179487,4659.487179,3991.282052,4072.820512
249,4404.615384,4544.615384,4557.435897,4266.666666,4487.692307,4197.435897,4438.461538,4215.897435,4245.128205,4507.692307,4245.641025,4652.307692,3983.076924,4066.666666
250,4405.128205,4533.846153,4554.871794,4264.615384,4496.923076,4197.948717,4442.564102,4216.923076,4244.615384,4509.230769,4244.102564,4649.743589,3980.000000,4066.666666
251,4413.333333,4541.025641,4561.025641,4270.769230,4514.358974,4206.666666,4447.692307,4220.000000,4251.282051,4519.487179,4246.153846,4657.435897,3991.282052,4075.384615
252,4415.897435,4552.820512,4562.051282,4267.692307,4505.128205,4206.666666,4445.128205,4221.538461,4252.307692,4523.589743,4250.256410,4658.461538,3992.307693,4074.358974
253,4404.615384,4546.666666,4554.358974,4260.512820,4489.230769,4200.000000,4441.025641,4216.923076,4247.692307,4512.307692,4242.051282,4650.769230,3982.051283,4065.641025
254,4396.923076,4537.435897,4551.794871,4264.102564,4492.820512,4201.538461,4442.564102,4214.871794,4246.666666,4504.102564,4233.846153,4647.179487,3978.461539,4063.589743
255,4401.538461,4537.948717,4552.307692,4265.128205,4491.282051,4202.564102,4443.076923,4216.923076,4246.153846,4503.589743,4238.974358,4649.230769,3976.923077,4062.051282
256,4407.692307,4541.025641,4551.794871,4261.538461,4492.307692,4200.000000,4442.051282,4217.435897,4246.153846,4505.128205,4246.153846,4654.358974,3984.615385,4064.615384
257,4410.769230,4547.179487,4556.923076,4271.282051,4510.256410,4209.743589,4446.153846,4226.153846,4257.948717,4516.923076,4250.256410,4663.589743,4000.512820,4076.410256
258,4412.307692,4549.743589,4560.512820,4278.461538,4502.051282,4214.871794,4449.743589,4231.794871,4261.538461,4529.230769,4251.282051,4663.589743,4000.512820,4077.948717
259,4411.794871,4543.076923,4555.384615,4271.282051,4476.410256,4203.076923,4443.589743,4226.666666,4251.794871,4526.666666,4249.230769,4655.897435,3984.102565,4068.717948
