,AF3,F7,F3,FC5,T7,P7,O1,O2,P8,T8,FC6,F4,F8,AF4
0,4401.025641,4600.512820,4535.897435,4284.615384,4505.128205,4193.846153,4437.435897,4218.461538,4231.794871,4486.666666,4220.512820,4644.102564,3995.384616,4075.897435
1,4405.128205,4594.358974,4534.871794,4274.358974,4498.974358,4192.820512,4433.333333,4210.769230,4224.615384,4489.743589,4204.615384,4641.538461,3996.410257,4076.923076
2,4415.384615,4603.076923,4541.025641,4283.589743,4501.538461,4197.435897,4443.076923,4223.076923,4238.974358,4509.230769,4205.128205,4646.666666,4008.717948,4084.615384
3,4414.871794,4609.743589,4542.051282,4293.846153,4505.128205,4197.948717,4447.179487,4232.820512,4252.307692,4517.435897,4227.692307,4649.230769,4012.307692,4085.641025
4,4405.128205,4603.589743,4536.923076,4289.230769,4501.538461,4195.384615,4441.538461,4225.641025,4248.717948,4507.692307,4229.230769,4644.102564,4004.615384,4076.410256
5,4404.102564,4598.461538,4536.410256,4286.666666,4498.461538,4192.820512,4441.025641,4222.564102,4242.051282,4499.487179,4207.179487,4644.102564,4004.102564,4077.948717
6,4414.358974,4608.205128,4542.564102,4292.307692,4500.512820,4195.384615,4445.641025,4230.256410,4244.102564,4501.538461,4212.820512,4651.794871,4020.000000,4096.923076
7,4414.871794,4607.692307,4539.487179,4288.205128,4500.512820,4197.435897,4440.512820,4228.205128,4241.025641,4506.153846,4233.333333,4648.717948,4021.538461,4090.256410
8,4403.589743,4591.794871,4530.256410,4275.897435,4496.410256,4191.794871,4434.871794,4221.025641,4233.846153,4497.435897,4220.512820,4638.461538,4002.051282,4063.589743
9,4396.410256,4591.282051,4528.205128,4277.435897,4495.384615,4188.717948,4440.512820,4223.076923,4233.333333,4489.230769,4197.948717,4640.000000,3998.461539,4065.128205
10,4400.512820,4603.076923,4531.282051,4283.589743,4496.923076,4193.846153,4446.666666,4227.692307,4241.025641,4497.435897,4209.230769,4646.153846,4007.179487,4081.538461
11,4403.589743,4598.974358,4531.282051,4280.512820,4496.923076,4192.820512,4443.076923,4226.153846,4244.102564,4503.076923,4216.923076,4645.641025,4008.205128,4084.615384
12,4400.000000,4592.820512,4526.666666,4276.923076,4495.384615,4188.205128,4438.461538,4221.025641,4237.435897,4494.871794,4202.564102,4640.512820,4007.692307,4076.410256
13,4397.948717,4600.512820,4524.615384,4281.025641,4500.000000,4195.384615,4443.076923,4220.512820,4235.897435,4492.820512,4201.538461,4640.000000,4005.128205,4070.256410
14,4397.948717,4604.102564,4526.666666,4284.615384,4503.076923,4200.512820,4444.615384,4224.102564,4239.487179,4501.538461,4214.871794,4642.564102,3997.435898,4071.794871
15,4394.358974,4601.025641,4525.641025,4275.384615,4497.948717,4193.846153,4436.923076,4220.512820,4236.923076,4501.538461,4212.820512,4638.974358,3997.948718,4074.358974
16,4391.282051,4597.948717,4519.487179,4266.153846,4494.358974,4189.743589,4429.743589,4211.282051,4225.641025,4489.230769,4197.435897,4629.230769,3999.487180,4069.230769
17,4395.897435,4597.435897,4520.512820,4271.794871,4494.358974,4190.769230,4428.205128,4213.333333,4221.025641,4479.487179,4194.871794,4627.692307,3992.820513,4068.717948
18,4407.692307,4601.538461,4527.692307,4284.102564,4492.820512,4189.230769,4434.871794,4223.076923,4230.769230,4485.128205,4207.692307,4636.923076,3995.384616,4077.435897
19,4403.076923,4601.025641,4524.615384,4282.051282,4494.871794,4187.179487,4436.410256,4224.102564,4237.948717,4498.461538,4212.820512,4641.538461,3999.487180,4071.282051
20,4382.051282,4591.794871,4515.897435,4267.179487,4494.871794,4189.230769,4429.743589,4218.461538,4230.769230,4500.000000,4201.538461,4633.333333,3995.384616,4058.461538
21,4383.076923,4583.076923,4515.897435,4266.666666,4491.794871,4190.256410,4432.820512,4215.384615,4228.205128,4494.358974,4201.538461,4629.230769,3997.435898,4063.076923
22,4400.000000,4584.102564,4522.564102,4277.435897,4492.820512,4189.230769,4438.974358,4220.000000,4238.461538,4492.307692,4209.743589,4636.923076,4005.128205,4072.820512
23,4399.487179,4589.230769,4525.641025,4282.051282,4493.846153,4187.692307,4432.820512,4224.102564,4239.487179,4488.717948,4190.769230,4638.461538,4004.615384,4073.333333
24,4386.666666,4589.743589,4521.025641,4275.897435,4489.743589,4182.051282,4426.153846,4219.487179,4226.666666,4481.538461,4169.230769,4630.769230,3989.230770,4071.794871
25,4381.025641,4587.179487,4513.846153,4266.666666,4487.179487,4179.487179,4427.692307,4214.358974,4225.641025,4477.948717,4188.205128,4628.717948,3979.487180,4062.564102
26,4387.179487,4589.743589,4516.410256,4266.666666,4491.282051,4186.666666,4431.282051,4223.076923,4241.025641,4487.692307,4218.461538,4634.871794,3994.358975,4052.307692
27,4399.487179,4591.794871,4525.128205,4281.538461,4497.948717,4194.358974,4439.487179,4234.871794,4247.179487,4503.589743,4218.461538,4642.564102,4016.923076,4070.769230
28,4408.717948,4594.871794,4532.307692,4294.358974,4504.615384,4196.923076,4447.179487,4235.897435,4241.538461,4511.282051,4207.692307,4647.692307,4016.923076,4095.897435
29,4406.153846,4596.923076,4532.307692,4286.666666,4503.076923,4196.923076,4443.076923,4229.230769,4238.974358,4504.615384,4213.846153,4647.692307,4005.641025,4087.179487
30,4397.948717,4587.692307,4526.666666,4276.923076,4500.512820,4195.897435,4442.564102,4226.153846,4238.461538,4496.410256,4218.974358,4641.538461,4006.666666,4068.717948
31,4396.410256,4587.179487,4525.128205,4281.025641,4506.153846,4198.461538,4445.128205,4226.666666,4240.512820,4496.923076,4202.051282,4640.000000,4010.769230,4070.769230
32,4402.564102,4601.025641,4530.769230,4292.307692,4511.282051,4204.615384,4444.102564,4225.641025,4244.615384,4503.589743,4193.846153,4645.128205,4009.230769,4080.000000
33,4404.102564,4605.128205,4530.256410,4300.512820,4509.230769,4203.589743,4443.589743,4221.538461,4242.051282,4501.538461,4210.769230,4643.589743,4003.076923,4086.153846
34,4397.435897,4600.000000,4521.538461,4292.307692,4501.538461,4194.871794,4442.051282,4220.000000,4233.846153,4485.641025,4218.974358,4636.923076,4001.025641,4084.102564
35,4396.410256,4604.102564,4521.538461,4280.000000,4496.923076,4192.307692,4441.538461,4221.538461,4236.923076,4480.512820,4207.179487,4640.512820,4006.153846,4071.282051
36,4401.538461,4605.128205,4524.102564,4285.128205,4498.974358,4197.435897,4445.641025,4222.564102,4238.974358,4484.615384,4192.820512,4646.153846,4008.717948,4069.230769
37,4407.692307,4603.589743,4524.615384,4294.871794,4505.641025,4201.538461,4445.641025,4223.589743,4232.820512,4489.743589,4194.358974,4643.076923,4004.102564,4082.564102
38,4408.205128,4610.256410,4525.128205,4285.641025,4513.333333,4202.564102,4442.564102,4228.717948,4236.923076,4502.051282,4210.769230,4643.076923,4004.102564,4083.589743
39,4401.025641,4614.358974,4524.615384,4277.948717,4513.333333,4204.615384,4444.615384,4231.794871,4245.641025,4504.615384,4216.923076,4645.641025,4008.205128,4075.897435
40,4398.461538,4608.205128,4522.051282,4283.589743,4504.102564,4201.025641,4440.512820,4224.615384,4236.923076,4490.769230,4212.820512,4640.512820,4002.051282,4076.410256
41,4391.794871,4601.025641,4512.820512,4281.538461,4496.923076,4192.307692,4430.256410,4214.358974,4223.076923,4481.538461,4200.512820,4632.820512,3988.205129,4070.256410
42,4378.461538,4594.358974,4502.564102,4272.307692,4497.435897,4190.769230,4428.717948,4208.717948,4221.025641,4471.282051,4173.846153,4627.179487,3980.512821,4056.410256
43,4382.051282,4593.333333,4506.666666,4270.256410,4498.974358,4192.820512,4434.871794,4209.743589,4222.051282,4463.076923,4172.307692,4627.692307,3986.153847,4054.871794
44,4400.000000,4601.538461,4522.051282,4276.410256,4495.384615,4189.743589,4437.435897,4217.948717,4226.153846,4480.512820,4207.179487,4640.512820,3998.461539,4064.102564
45,4405.128205,4606.153846,4527.179487,4283.589743,4496.410256,4190.256410,4440.000000,4226.666666,4234.871794,4501.538461,4216.410256,4652.820512,4003.589743,4075.384615
46,4398.461538,4608.205128,4523.589743,4288.205128,4503.589743,4197.948717,4445.641025,4228.717948,4237.435897,4495.897435,4205.641025,4650.769230,4002.564102,4083.076923
47,4395.897435,4609.743589,4522.564102,4286.153846,4504.102564,4200.512820,4447.692307,4230.769230,4232.820512,4487.179487,4210.256410,4644.615384,3996.410257,4076.923076
48,4396.410256,4600.512820,4519.487179,4274.871794,4497.435897,4193.333333,4441.538461,4225.128205,4227.692307,4489.230769,4204.615384,4640.000000,3987.692308,4065.641025
49,4391.282051,4584.615384,4513.333333,4264.102564,4492.307692,4185.128205,4434.871794,4212.820512,4219.487179,4483.076923,4189.743589,4633.846153,3984.102565,4064.615384
50,4388.717948,4587.179487,4509.743589,4265.128205,4492.820512,4185.128205,4431.794871,4214.358974,4218.974358,4469.230769,4189.230769,4631.794871,3989.743590,4072.820512
51,4390.769230,4600.512820,4514.358974,4273.846153,4492.307692,4186.666666,4432.307692,4222.051282,4231.282051,4473.333333,4195.384615,4637.435897,3992.307693,4066.666666
52,4393.846153,4602.051282,4520.512820,4277.435897,4488.205128,4180.512820,4436.923076,4218.461538,4235.897435,4482.051282,4200.000000,4641.025641,3988.205129,4051.794871
53,4397.435897,4600.000000,4522.564102,4278.461538,4491.794871,4186.666666,4442.051282,4215.897435,4233.846153,4482.564102,4194.871794,4638.974358,3991.282052,4065.128205
54,4404.102564,4601.538461,4523.076923,4282.564102,4502.564102,4201.025641,4444.615384,4219.487179,4232.307692,4487.179487,4190.769230,4638.974358,3998.974359,4087.692307
55,4400.512820,4601.538461,4521.025641,4281.025641,4504.102564,4197.948717,4444.102564,4215.897435,4222.564102,4487.692307,4195.897435,4640.000000,3999.487180,4075.384615
56,4384.615384,4599.487179,4512.820512,4277.948717,4498.974358,4188.717948,4436.410256,4207.179487,4210.769230,4471.794871,4194.871794,4636.923076,3993.333334,4050.769230
57,4378.974358,4595.897435,4504.102564,4273.846153,4499.487179,4192.820512,4432.820512,4206.666666,4215.897435,4463.076923,4187.692307,4632.307692,3990.256411,4052.307692
58,4389.230769,4589.743589,4506.666666,4266.666666,4500.000000,4194.871794,4439.487179,4216.923076,4229.230769,4477.948717,4194.358974,4632.820512,3992.307693,4066.153846
59,4400.512820,4589.230769,4516.410256,4267.692307,4501.025641,4193.333333,4447.692307,4226.666666,4235.897435,4490.256410,4200.000000,4638.461538,3997.435898,4078.974358
60,4402.051282,4597.435897,4520.000000,4278.461538,4505.128205,4199.487179,4451.794871,4232.820512,4244.102564,4496.923076,4201.025641,4642.564102,4003.076923,4081.538461
61,4397.435897,4601.538461,4518.461538,4284.615384,4503.589743,4198.974358,4451.794871,4235.384615,4244.615384,4496.410256,4206.666666,4644.615384,4006.153846,4060.000000
62,4395.384615,4597.435897,4521.025641,4282.564102,4501.025641,4193.846153,4451.282051,4231.282051,4230.256410,4485.641025,4202.051282,4643.076923,4006.153846,4054.358974
63,4397.435897,4590.256410,4519.487179,4279.487179,4504.615384,4200.000000,4449.743589,4228.205128,4226.153846,4487.692307,4196.410256,4637.948717,3995.384616,4075.897435
64,4397.948717,4588.205128,4516.923076,4277.948717,4507.692307,4205.128205,4449.743589,4234.358974,4243.076923,4496.923076,4208.205128,4640.000000,3993.846154,4083.076923
65,4391.794871,4596.410256,4517.435897,4273.846153,4505.128205,4200.000000,4455.897435,4240.000000,4253.333333,4493.333333,4206.153846,4645.128205,4006.666666,4072.820512
66,4390.256410,4598.461538,4516.923076,4275.384615,4501.538461,4195.897435,4457.435897,4235.384615,4241.025641,4486.153846,4190.769230,4644.102564,4007.179487,4064.615384
67,4395.897435,4583.589743,4514.358974,4276.923076,4500.000000,4194.358974,4447.692307,4229.743589,4228.205128,4487.179487,4197.948717,4640.000000,3997.948718,4062.564102
68,4391.794871,4573.846153,4511.794871,4269.743589,4497.435897,4190.256410,4440.512820,4229.743589,4229.743589,4490.769230,4202.051282,4636.923076,3992.307693,4068.717948
69,4379.487179,4579.487179,4509.743589,4267.179487,4490.769230,4185.641025,4443.076923,4230.256410,4232.820512,4491.794871,4192.820512,4635.384615,3993.333334,4077.948717
70,4376.410256,4583.076923,4506.153846,4273.846153,4490.769230,4183.589743,4440.000000,4226.153846,4225.128205,4491.282051,4202.564102,4633.846153,4001.538461,4067.179487
71,4383.589743,4582.564102,4505.128205,4270.256410,4494.358974,4184.102564,4437.948717,4218.461538,4223.589743,4489.743589,4208.717948,4633.846153,4004.615384,4055.897435
72,4390.256410,4586.666666,4510.769230,4263.589743,4495.897435,4188.717948,4441.538461,4219.487179,4233.333333,4486.666666,4196.410256,4635.897435,3993.846154,4063.076923
73,4396.410256,4592.820512,4518.974358,4273.846153,4496.923076,4190.769230,4440.512820,4224.102564,4232.307692,4481.538461,4203.589743,4643.589743,3991.794872,4064.615384
74,4390.769230,4589.230769,4515.384615,4275.897435,4495.897435,4188.717948,4441.025641,4221.538461,4223.589743,4484.615384,4210.769230,4643.076923,4006.666666,4060.000000
75,4373.846153,4578.974358,4503.076923,4261.538461,4495.384615,4187.692307,4441.538461,4211.794871,4220.512820,4486.153846,4186.153846,4629.230769,4000.000000,4063.589743
76,4376.410256,4580.000000,4503.076923,4261.025641,4495.897435,4190.256410,4433.846153,4207.692307,4219.487179,4475.897435,4181.538461,4627.179487,3980.512821,4067.179487
77,4394.871794,4588.717948,4512.820512,4267.692307,4496.410256,4192.307692,4431.794871,4210.256410,4217.435897,4471.282051,4200.000000,4637.435897,3976.410257,4060.512820
78,4394.358974,4585.641025,4515.897435,4263.589743,4496.410256,4190.769230,4436.923076,4206.666666,4210.769230,4468.205128,4196.410256,4636.923076,3977.948718,4058.461538
79,4383.076923,4581.538461,4511.794871,4257.435897,4496.923076,4187.179487,4434.871794,4204.102564,4210.769230,4466.666666,4181.025641,4628.717948,3977.948718,4064.102564
80,4386.153846,4593.333333,4520.512820,4261.538461,4491.794871,4185.641025,4431.282051,4214.358974,4227.692307,4480.000000,4177.948717,4634.358974,3982.051283,4067.179487
81,4398.461538,4606.153846,4537.948717,4269.230769,4492.820512,4188.717948,4441.538461,4224.615384,4237.435897,4493.333333,4184.615384,4646.153846,3986.666667,4070.769230
82,4401.538461,4606.153846,4541.025641,4268.717948,4500.512820,4193.333333,4447.692307,4220.512820,4226.666666,4484.615384,4191.282051,4642.564102,3983.589744,4076.410256
83,4395.384615,4597.435897,4528.205128,4261.025641,4495.897435,4190.256410,4439.487179,4216.410256,4222.564102,4477.948717,4192.307692,4630.256410,3975.897436,4071.282051
84,4385.641025,4590.769230,4522.051282,4254.358974,4491.282051,4187.179487,4435.897435,4219.487179,4230.256410,4483.076923,4183.589743,4626.153846,3971.282052,4051.282051
85,4379.487179,4593.846153,4527.179487,4256.923076,4495.897435,4189.743589,4440.512820,4215.897435,4228.205128,4476.410256,4183.076923,4631.794871,3968.717949,4042.051282
86,4382.564102,4600.000000,4530.256410,4264.102564,4495.384615,4190.256410,4442.051282,4213.333333,4223.076923,4468.717948,4193.846153,4636.410256,3974.358975,4056.410256
87,4389.743589,4601.538461,4529.743589,4264.615384,4494.358974,4191.282051,4437.948717,4221.538461,4232.307692,4478.461538,4189.743589,4634.871794,3983.589744,4072.820512
88,4393.333333,4602.051282,4535.384615,4261.538461,4498.461538,4193.333333,4438.974358,4225.641025,4240.000000,4491.794871,4180.512820,4633.846153,3983.076924,4073.333333
89,4393.333333,4607.179487,4542.051282,4266.666666,4500.000000,4193.846153,4445.641025,4221.538461,4236.923076,4493.333333,4191.282051,4638.461538,3978.974359,4062.564102
90,4393.333333,4610.769230,4540.512820,4268.717948,4496.923076,4192.820512,4446.666666,4225.641025,4236.410256,4492.307692,4205.128205,4642.051282,3986.666667,4057.948717
91,4391.282051,4602.051282,4533.333333,4257.948717,4496.923076,4193.333333,4439.487179,4224.615384,4236.410256,4492.820512,4190.256410,4636.410256,3993.333334,4066.153846
92,4386.153846,4592.307692,4530.769230,4254.871794,4491.794871,4187.179487,4434.358974,4212.307692,4225.641025,4480.512820,4178.974358,4630.256410,3982.051283,4067.692307
93,4376.923076,4595.384615,4528.717948,4262.051282,4486.153846,4178.974358,4433.846153,4208.205128,4223.076923,4468.717948,4190.256410,4625.641025,3969.230770,4051.794871
94,4373.846153,4597.948717,4526.666666,4256.923076,4487.692307,4182.564102,4432.820512,4210.769230,4234.358974,4474.358974,4182.051282,4625.641025,3971.794872,4046.666666
95,4384.615384,4593.333333,4529.230769,4251.282051,4495.384615,4189.743589,4435.897435,4209.230769,4232.307692,4483.589743,4169.230769,4630.769230,3981.025642,4057.948717
96,4398.461538,4596.923076,4535.897435,4263.589743,4501.538461,4192.820512,4443.589743,4209.230769,4226.153846,4485.128205,4183.589743,4634.358974,3988.205129,4070.256410
97,4404.102564,4605.128205,4544.615384,4277.435897,4501.538461,4194.871794,4446.153846,4215.897435,4232.820512,4490.769230,4194.358974,4638.461538,3992.820513,4072.820512
98,4398.974358,4607.692307,4548.205128,4278.974358,4499.487179,4194.871794,4445.641025,4221.538461,4240.000000,4491.282051,4200.512820,4645.128205,3997.435898,4066.666666
99,4397.948717,4611.794871,4545.128205,4275.384615,4502.564102,4194.358974,4445.641025,4222.051282,4238.461538,4480.000000,4219.487179,4652.307692,4001.025641,4071.282051
100,4407.179487,4609.230769,4546.153846,4272.307692,4504.615384,4196.923076,4446.666666,4222.564102,4240.512820,4487.179487,4215.897435,4651.282051,3998.974359,4087.692307
101,4413.846153,4593.846153,4550.256410,4273.333333,4505.128205,4202.051282,4448.205128,4227.179487,4249.230769,4505.128205,4194.358974,4645.128205,3995.897436,4088.205128
102,4412.307692,4592.307692,4549.743589,4280.000000,4508.205128,4203.076923,4452.307692,4229.743589,4249.743589,4504.615384,4200.512820,4646.153846,3998.974359,4073.333333
103,4409.230769,4606.153846,4549.230769,4285.641025,4511.282051,4201.025641,4456.923076,4228.205128,4243.076923,4498.974358,4215.384615,4653.846153,4004.102564,4068.717948
104,4406.666666,4606.666666,4553.333333,4284.102564,4510.769230,4203.589743,4455.897435,4227.179487,4239.487179,4497.435897,4209.743589,4654.871794,4005.128205,4076.923076
105,4404.615384,4593.333333,4550.256410,4276.923076,4508.717948,4205.641025,4450.769230,4226.666666,4242.051282,4488.205128,4205.641025,4645.641025,4004.102564,4083.589743
106,4405.641025,4588.717948,4543.589743,4272.820512,4504.102564,4200.512820,4449.230769,4225.641025,4241.538461,4486.666666,4204.102564,4642.051282,3997.948718,4080.512820
107,4400.000000,4592.307692,4541.538461,4272.307692,4500.512820,4195.384615,4448.717948,4223.589743,4237.948717,4496.923076,4192.307692,4640.512820,3985.641026,4066.153846
108,4387.692307,4584.102564,4534.871794,4264.615384,4496.923076,4194.358974,4442.051282,4214.358974,4236.923076,4492.820512,4186.666666,4629.743589,3983.589744,4050.769230
109,4387.692307,4574.871794,4531.282051,4265.641025,4492.820512,4188.205128,4438.461538,4211.794871,4234.358974,4479.487179,4192.820512,4626.153846,3992.307693,4055.384615
110,4403.589743,4585.128205,4542.051282,4280.000000,4495.897435,4188.205128,4444.615384,4223.589743,4234.358974,4481.538461,4194.871794,4639.487179,3993.333334,4076.923076
111,4413.333333,4594.871794,4548.717948,4280.512820,4501.025641,4195.384615,4448.717948,4230.256410,4243.589743,4491.282051,4194.358974,4650.256410,3992.307693,4083.589743
112,4408.717948,4593.333333,4547.179487,4276.923076,4502.051282,4197.435897,4452.307692,4235.384615,4254.358974,4502.051282,4208.205128,4649.743589,4002.564102,4074.871794
113,4407.692307,4595.897435,4548.205128,4286.666666,4504.615384,4198.974358,4459.487179,4243.589743,4256.410256,4514.871794,4222.051282,4653.333333,4012.820512,4082.051282
114,4410.256410,4595.897435,4547.692307,4284.102564,4506.153846,4201.538461,4455.384615,4236.923076,4247.179487,4505.641025,4222.564102,4653.333333,4008.717948,4094.871794
115,4406.153846,4582.564102,4538.974358,4270.769230,4503.076923,4196.410256,4443.589743,4222.051282,4238.974358,4480.512820,4207.692307,4646.666666,3994.358975,4083.589743
116,4403.589743,4582.051282,4535.897435,4274.871794,4500.512820,4193.846153,4448.717948,4225.128205,4240.512820,4485.641025,4193.333333,4648.205128,3989.230770,4070.769230
117,4403.076923,4593.846153,4540.000000,4284.615384,4503.589743,4200.000000,4456.923076,4231.794871,4244.615384,4504.615384,4204.102564,4650.769230,3998.974359,4074.871794
118,4401.538461,4588.205128,4538.974358,4279.487179,4504.102564,4201.025641,4449.230769,4225.641025,4243.076923,4498.974358,4218.974358,4644.615384,4008.205128,4078.461538
119,4405.128205,4578.974358,4532.820512,4267.692307,4502.564102,4192.820512,4444.102564,4219.487179,4236.410256,4480.512820,4211.282051,4641.025641,4005.128205,4078.461538
120,4404.102564,4585.128205,4528.717948,4265.641025,4500.000000,4190.769230,4446.153846,4219.487179,4227.179487,4477.435897,4197.435897,4642.051282,3997.948718,4080.000000
121,4393.333333,4592.820512,4530.769230,4270.769230,4495.384615,4192.820512,4443.589743,4221.025641,4230.769230,4486.153846,4199.487179,4640.000000,3997.948718,4077.435897
122,4392.820512,4589.743589,4536.923076,4273.333333,4495.384615,4190.769230,4443.076923,4223.589743,4251.794871,4498.974358,4206.666666,4642.564102,4005.641025,4071.282051
123,4405.641025,4589.743589,4538.974358,4273.333333,4502.051282,4193.333333,4448.717948,4223.589743,4251.794871,4502.564102,4205.641025,4646.153846,4012.820512,4075.897435
124,4407.179487,4596.923076,4534.871794,4275.384615,4504.102564,4197.948717,4450.256410,4219.487179,4232.307692,4491.794871,4202.051282,4642.564102,4008.205128,4083.589743
125,4400.000000,4596.923076,4533.333333,4279.487179,4498.461538,4195.897435,4448.205128,4221.538461,4235.384615,4488.717948,4209.230769,4644.102564,3999.487180,4083.589743
126,4397.948717,4591.794871,4536.923076,4281.025641,4502.051282,4195.384615,4452.307692,4229.230769,4248.205128,4496.410256,4217.948717,4650.256410,4003.589743,4086.153846
127,4398.974358,4588.205128,4536.923076,4282.564102,4507.179487,4198.461538,4457.435897,4234.871794,4244.615384,4497.435897,4212.307692,4647.179487,4013.846153,4085.641025
128,4402.051282,4591.282051,4534.358974,4277.948717,4501.538461,4195.384615,4458.461538,4233.333333,4242.051282,4496.923076,4204.615384,4642.564102,4009.230769,4072.820512
129,4403.589743,4593.333333,4533.846153,4267.179487,4503.076923,4195.897435,4455.897435,4225.641025,4241.538461,4498.974358,4201.538461,4643.589743,3996.410257,4067.692307
130,4404.102564,4594.358974,4535.897435,4270.256410,4513.333333,4203.076923,4453.333333,4222.051282,4236.923076,4498.974358,4206.153846,4646.153846,4001.538461,4080.512820
131,4403.589743,4593.333333,4536.923076,4282.564102,4508.205128,4198.974358,4448.717948,4220.512820,4239.487179,4494.871794,4215.897435,4645.641025,4011.282051,4088.205128
132,4403.589743,4589.743589,4537.948717,4279.487179,4496.923076,4189.743589,4444.615384,4219.487179,4241.025641,4487.692307,4214.871794,4648.205128,4004.102564,4086.153846
133,4406.153846,4590.256410,4540.512820,4271.282051,4501.538461,4193.333333,4450.256410,4221.538461,4237.435897,4481.538461,4201.538461,4650.769230,3997.948718,4082.051282
134,4408.717948,4594.871794,4538.974358,4274.871794,4507.692307,4199.487179,4458.461538,4229.743589,4241.538461,4488.205128,4193.846153,4647.179487,4002.564102,4071.794871
135,4404.102564,4594.358974,4534.871794,4271.794871,4502.564102,4198.461538,4457.435897,4230.769230,4247.692307,4500.512820,4196.923076,4646.153846,4002.051282,4067.179487
136,4392.820512,4583.589743,4528.205128,4257.435897,4497.948717,4192.307692,4445.128205,4215.897435,4234.871794,4488.717948,4198.461538,4645.641025,3991.794872,4070.256410
137,4391.282051,4579.487179,4522.051282,4254.871794,4501.025641,4192.307692,4438.461538,4209.230769,4221.025641,4475.897435,4200.000000,4641.025641,3986.666667,4073.333333
138,4407.179487,4589.743589,4529.743589,4268.717948,4504.615384,4198.974358,4450.769230,4224.102564,4231.794871,4487.179487,4207.179487,4643.589743,3998.461539,4081.538461
139,4415.384615,4599.487179,4542.564102,4282.051282,4505.128205,4201.538461,4460.000000,4231.794871,4246.666666,4498.974358,4203.589743,4652.820512,4013.846153,4091.282051
140,4400.512820,4595.897435,4535.897435,4276.410256,4502.051282,4192.820512,4449.743589,4221.025641,4240.000000,4495.384615,4188.717948,4647.179487,4004.615384,4082.564102
141,4385.128205,4584.102564,4524.615384,4265.128205,4498.461538,4189.230769,4442.564102,4215.897435,4229.743589,4486.666666,4194.358974,4638.974358,3989.230770,4065.128205
142,4395.384615,4584.615384,4531.794871,4266.153846,4501.538461,4197.948717,4451.794871,4222.564102,4237.435897,4486.666666,4212.307692,4647.179487,3998.974359,4071.282051
143,4406.666666,4596.923076,4534.871794,4268.717948,4504.102564,4202.564102,4452.820512,4222.564102,4241.538461,4487.692307,4212.820512,4649.230769,4009.743589,4086.153846
144,4400.000000,4598.974358,4522.051282,4267.692307,4497.948717,4193.333333,4441.025641,4212.307692,4226.666666,4481.538461,4195.384615,4636.410256,4002.051282,4081.025641
145,4386.153846,4589.230769,4516.410256,4268.205128,4493.333333,4185.641025,4438.461538,4207.179487,4214.871794,4473.333333,4181.025641,4633.333333,3997.435898,4069.743589
146,4389.743589,4589.230769,4525.641025,4269.743589,4499.487179,4192.307692,4449.230769,4217.948717,4229.230769,4481.025641,4194.871794,4646.666666,4002.051282,4066.666666
147,4406.153846,4594.871794,4533.333333,4269.230769,4503.076923,4198.974358,4456.410256,4229.230769,4247.692307,4500.512820,4212.820512,4655.384615,4005.128205,4070.256410
148,4408.717948,4596.923076,4530.769230,4268.205128,4498.461538,4193.846153,4449.743589,4224.615384,4238.974358,4499.487179,4200.512820,4648.717948,4009.743589,4080.512820
149,4399.487179,4595.384615,4530.256410,4268.717948,4498.974358,4192.820512,4443.589743,4215.384615,4227.179487,4488.717948,4193.333333,4642.564102,4014.871794,4091.282051
150,4394.871794,4591.282051,4530.769230,4270.769230,4500.512820,4196.410256,4446.666666,4218.461538,4236.923076,4493.846153,4211.282051,4647.179487,4009.743589,4085.128205
151,4394.358974,4592.307692,4529.230769,4270.769230,4494.871794,4190.256410,4446.666666,4218.461538,4241.538461,4497.948717,4208.717948,4650.256410,3996.923077,4066.666666
152,4392.820512,4596.410256,4526.666666,4269.230769,4493.333333,4185.128205,4439.487179,4211.794871,4227.179487,4483.589743,4190.769230,4646.666666,3995.897436,4061.538461
153,4398.461538,4593.846153,4528.205128,4274.358974,4500.000000,4193.846153,4442.051282,4216.923076,4226.666666,4477.435897,4201.538461,4648.717948,4011.282051,4073.333333
154,4408.717948,4592.307692,4531.282051,4278.974358,4504.102564,4200.512820,4452.820512,4226.666666,4239.487179,4496.410256,4219.487179,4655.384615,4019.487179,4088.717948
155,4408.717948,4600.512820,4531.282051,4271.282051,4503.076923,4195.897435,4455.897435,4226.666666,4241.538461,4511.282051,4211.282051,4653.846153,4007.692307,4089.743589
156,4397.948717,4605.641025,4524.102564,4263.589743,4500.000000,4192.307692,4453.333333,4224.102564,4240.512820,4498.461538,4192.820512,4650.256410,3996.410257,4071.794871
157,4392.307692,4602.051282,4519.487179,4270.256410,4497.948717,4192.820512,4451.282051,4225.641025,4241.538461,4485.128205,4200.000000,4650.769230,4006.153846,4069.230769
158,4398.974358,4594.871794,4523.589743,4274.358974,4496.923076,4190.769230,4448.717948,4222.564102,4227.692307,4492.307692,4212.307692,4646.666666,4018.461538,4084.615384
159,4401.025641,4588.717948,4521.538461,4266.153846,4494.358974,4185.641025,4442.051282,4214.358974,4218.461538,4499.487179,4200.000000,4641.025641,4010.256410,4078.974358
160,4397.435897,4597.948717,4519.487179,4267.179487,4491.282051,4187.179487,4441.025641,4209.230769,4229.230769,4501.538461,4195.384615,4645.128205,4003.076923,4068.717948
161,4398.974358,4606.666666,4522.051282,4270.256410,4492.307692,4188.205128,4444.102564,4205.128205,4231.282051,4495.897435,4210.256410,4648.717948,4007.692307,4078.461538
162,4397.435897,4597.435897,4521.025641,4260.512820,4492.820512,4183.076923,4441.538461,4202.051282,4219.487179,4481.538461,4211.794871,4643.076923,4007.692307,4084.615384
163,4396.923076,4592.820512,4521.025641,4260.512820,4494.871794,4185.128205,4439.487179,4206.153846,4222.564102,4482.564102,4200.512820,4643.076923,4006.153846,4081.538461
164,4405.128205,4606.153846,4523.589743,4274.871794,4499.487179,4192.820512,4443.589743,4215.384615,4233.846153,4504.102564,4196.923076,4651.282051,4009.743589,4077.948717
165,4404.615384,4611.794871,4525.128205,4278.974358,4501.025641,4192.820512,4447.179487,4218.461538,4232.307692,4501.025641,4200.512820,4651.794871,4006.666666,4068.205128
166,4392.820512,4599.487179,4523.076923,4269.230769,4498.461538,4192.820512,4445.641025,4212.820512,4225.641025,4475.384615,4202.051282,4644.615384,3995.384616,4069.743589
167,4395.384615,4595.384615,4520.512820,4267.692307,4496.923076,4194.871794,4443.589743,4209.743589,4225.641025,4473.333333,4197.948717,4644.615384,3996.410257,4086.153846
168,4408.717948,4605.641025,4522.051282,4273.333333,4497.435897,4194.358974,4444.102564,4219.487179,4235.897435,4496.410256,4198.461538,4654.871794,4016.410256,4092.307692
169,4409.230769,4613.846153,4531.282051,4275.384615,4499.487179,4194.871794,4450.769230,4231.794871,4246.666666,4512.820512,4210.256410,4663.076923,4033.846153,4088.205128
170,4404.615384,4610.769230,4533.846153,4277.948717,4503.076923,4198.974358,4457.435897,4232.307692,4248.205128,4512.820512,4211.282051,4664.615384,4027.692307,4084.102564
171,4410.769230,4605.128205,4530.769230,4283.589743,4505.641025,4201.538461,4453.846153,4231.794871,4252.820512,4512.820512,4214.358974,4667.692307,4020.512820,4087.692307
172,4412.307692,4600.512820,4530.256410,4279.487179,4500.512820,4195.384615,4444.615384,4232.307692,4253.846153,4505.128205,4229.230769,4667.179487,4029.230769,4091.794871
173,4399.487179,4591.282051,4522.051282,4264.615384,4491.282051,4186.153846,4435.897435,4219.487179,4238.974358,4486.153846,4211.794871,4655.897435,4025.128205,4082.051282
174,4388.717948,4590.256410,4512.307692,4263.076923,4486.153846,4184.615384,4434.358974,4211.794871,4232.820512,4485.128205,4177.435897,4646.666666,4006.666666,4068.205128
175,4390.769230,4596.410256,4517.948717,4271.794871,4489.230769,4187.692307,4441.538461,4221.538461,4241.538461,4503.589743,4191.794871,4650.769230,4005.128205,4070.256410
176,4400.512820,4595.897435,4526.666666,4275.384615,4495.384615,4186.666666,4446.666666,4225.128205,4242.051282,4506.153846,4226.153846,4659.487179,4014.871794,4083.589743
177,4401.025641,4597.435897,4523.589743,4274.871794,4493.333333,4184.615384,4444.102564,4218.461538,4236.923076,4486.666666,4215.384615,4658.461538,4012.307692,4082.564102
178,4391.282051,4598.974358,4518.974358,4271.282051,4489.743589,4186.153846,4443.076923,4219.487179,4231.282051,4475.384615,4191.282051,4651.282051,4002.564102,4069.230769
179,4385.641025,4593.846153,4518.461538,4268.717948,4496.923076,4191.794871,4445.641025,4218.974358,4227.179487,4486.153846,4201.538461,4650.769230,4005.128205,4071.794871
180,4390.769230,4596.410256,4520.000000,4274.871794,4504.102564,4195.897435,4442.564102,4214.358974,4235.384615,4499.487179,4214.871794,4655.897435,4013.333333,4082.051282
181,4399.487179,4608.205128,4523.589743,4278.461538,4500.512820,4194.871794,4441.538461,4217.948717,4236.923076,4492.820512,4209.743589,4658.461538,4015.384615,4076.923076
182,4399.487179,4606.153846,4523.076923,4266.153846,4500.512820,4195.384615,4443.076923,4216.410256,4223.076923,4481.025641,4206.153846,4654.871794,4013.333333,4071.282051
183,4389.743589,4598.974358,4514.871794,4256.923076,4501.538461,4193.333333,4443.589743,4210.256410,4225.641025,4487.179487,4209.230769,4650.256410,4009.743589,4072.820512
184,4386.153846,4601.025641,4509.743589,4264.615384,4496.410256,4191.282051,4442.564102,4213.333333,4237.435897,4498.461538,4204.615384,4649.743589,4001.538461,4075.897435
185,4390.769230,4603.589743,4514.358974,4269.230769,4495.897435,4194.358974,4442.564102,4216.923076,4232.820512,4498.461538,4197.435897,4651.282051,4001.025641,4076.923076
186,4391.282051,4603.589743,4517.435897,4261.538461,4497.435897,4192.307692,4438.974358,4215.384615,4230.256410,4492.307692,4201.025641,4651.794871,4006.666666,4067.179487
187,4391.794871,4604.102564,4517.435897,4257.435897,4498.461538,4191.794871,4438.974358,4218.974358,4240.000000,4495.384615,4206.153846,4652.307692,4005.128205,4067.179487
188,4394.871794,4600.512820,4518.974358,4259.487179,4502.564102,4198.974358,4447.179487,4223.589743,4243.589743,4498.974358,4200.512820,4653.846153,3998.461539,4083.589743
189,4393.333333,4599.487179,4525.128205,4262.564102,4505.128205,4200.512820,4448.205128,4224.102564,4240.000000,4495.384615,4207.179487,4653.846153,3993.333334,4087.179487
190,4392.820512,4602.564102,4533.333333,4267.179487,4500.512820,4192.820512,4441.538461,4224.615384,4236.410256,4490.256410,4218.461538,4655.897435,3992.820513,4083.076923
191,4396.410256,4599.487179,4538.974358,4269.743589,4494.871794,4191.282051,4440.000000,4222.051282,4236.923076,4485.128205,4201.025641,4658.461538,3997.948718,4080.000000
192,4391.282051,4590.256410,4538.974358,4262.051282,4495.897435,4192.820512,4442.051282,4218.974358,4238.461538,4480.512820,4184.615384,4652.307692,3991.282052,4072.820512
193,4386.153846,4587.692307,4537.435897,4253.846153,4496.923076,4191.282051,4441.538461,4218.974358,4238.461538,4481.025641,4198.461538,4644.615384,3972.307693,4075.897435
194,4390.769230,4590.256410,4538.461538,4258.461538,4496.410256,4192.307692,4441.025641,4220.000000,4236.923076,4486.666666,4202.051282,4647.692307,3976.410257,4085.128205
195,4393.846153,4591.282051,4542.051282,4262.564102,4493.846153,4192.307692,4445.641025,4223.589743,4237.948717,4488.205128,4186.666666,4652.307692,3995.384616,4078.974358
196,4397.435897,4588.717948,4549.230769,4264.615384,4497.948717,4193.333333,4446.666666,4231.794871,4241.538461,4489.743589,4188.717948,4655.897435,3997.435898,4078.974358
197,4401.025641,4585.641025,4552.307692,4270.769230,4503.076923,4196.410256,4448.717948,4234.871794,4240.512820,4494.871794,4197.435897,4657.948717,3988.205129,4088.205128
198,4393.333333,4586.153846,4549.743589,4268.205128,4504.102564,4198.461538,4454.871794,4233.333333,4242.564102,4498.461538,4199.487179,4657.435897,3989.230770,4087.179487
199,4391.282051,4590.769230,4550.769230,4260.000000,4509.743589,4202.564102,4455.897435,4235.384615,4253.333333,4500.000000,4212.307692,4660.512820,3998.974359,4094.871794
200,4406.666666,4594.358974,4555.897435,4268.717948,4512.820512,4206.666666,4454.358974,4237.435897,4251.794871,4496.410256,4219.487179,4667.179487,4008.717948,4098.461538
201,4414.358974,4592.820512,4560.512820,4285.641025,4510.256410,4205.641025,4453.846153,4235.897435,4239.487179,4492.820512,4207.692307,4670.769230,4008.717948,4084.102564
202,4404.615384,4593.846153,4558.974358,4279.487179,4508.717948,4200.000000,4451.282051,4233.333333,4244.615384,4496.923076,4208.205128,4667.179487,3995.897436,4084.102564
203,4402.051282,4594.871794,4554.358974,4262.051282,4505.641025,4197.948717,4449.743589,4231.794871,4254.358974,4500.512820,4216.923076,4661.025641,3993.333334,4101.025641
204,4405.128205,4591.282051,4553.846153,4263.589743,4500.512820,4201.025641,4453.333333,4233.846153,4251.282051,4496.410256,4206.666666,4659.487179,4009.743589,4100.000000
205,4407.692307,4590.769230,4554.871794,4275.897435,4503.589743,4204.102564,4455.897435,4239.487179,4250.769230,4494.358974,4198.974358,4664.102564,4011.794871,4089.230769
206,4411.794871,4593.333333,4553.846153,4277.435897,4512.820512,4206.666666,4455.384615,4238.461538,4247.179487,4497.435897,4212.307692,4666.666666,4001.025641,4088.205128
207,4409.230769,4595.897435,4553.846153,4276.410256,4510.256410,4203.589743,4456.923076,4233.333333,4240.000000,4497.948717,4216.923076,4664.615384,4005.128205,4088.717948
208,4408.717948,4595.897435,4556.410256,4276.410256,4504.615384,4200.512820,4457.435897,4235.897435,4245.641025,4500.512820,4206.666666,4663.589743,4015.897435,4097.948717
209,4413.333333,4593.333333,4557.948717,4270.256410,4507.179487,4202.564102,4456.410256,4238.974358,4253.333333,4500.000000,4200.000000,4662.564102,4011.794871,4103.589743
210,4414.871794,4586.666666,4556.410256,4269.743589,4508.717948,4204.102564,4455.897435,4236.410256,4253.333333,4497.948717,4204.615384,4666.153846,4006.666666,4095.897435
211,4409.230769,4587.692307,4554.358974,4280.000000,4504.102564,4201.538461,4455.897435,4237.948717,4253.846153,4502.564102,4212.307692,4666.153846,4008.205128,4092.820512
212,4402.051282,4590.769230,4553.846153,4277.948717,4503.076923,4200.000000,4452.820512,4239.487179,4250.256410,4504.102564,4218.461538,4657.435897,4006.666666,4094.871794
213,4401.025641,4585.128205,4551.282051,4268.205128,4500.000000,4196.923076,4444.615384,4230.256410,4238.974358,4496.923076,4211.794871,4655.384615,4001.538461,4087.179487
214,4404.615384,4586.153846,4544.102564,4265.641025,4495.384615,4191.794871,4442.051282,4222.564102,4236.410256,4494.358974,4193.846153,4655.897435,3998.974359,4075.897435
215,4406.666666,4589.743589,4540.512820,4262.051282,4501.025641,4194.871794,4447.179487,4226.153846,4241.025641,4489.743589,4190.769230,4654.358974,4001.025641,4079.487179
216,4397.948717,4582.051282,4538.974358,4260.000000,4504.615384,4198.461538,4447.179487,4223.076923,4233.333333,4481.025641,4197.435897,4649.743589,3996.410257,4084.102564
217,4390.256410,4576.923076,4538.974358,4264.615384,4498.461538,4196.410256,4444.615384,4217.948717,4230.256410,4487.179487,4197.435897,4646.153846,3992.307693,4081.538461
218,4397.948717,4584.102564,4542.564102,4265.128205,4496.923076,4193.846153,4444.102564,4223.589743,4247.692307,4498.974358,4198.461538,4648.205128,3997.435898,4074.358974
219,4408.717948,4589.743589,4544.102564,4265.128205,4500.000000,4193.846153,4445.641025,4227.179487,4253.333333,4496.923076,4203.076923,4651.794871,3999.487180,4071.282051
220,4402.564102,4587.179487,4539.487179,4268.717948,4503.076923,4194.871794,4446.153846,4220.512820,4231.794871,4486.153846,4192.307692,4647.692307,3999.487180,4074.871794
221,4387.692307,4580.512820,4535.384615,4260.512820,4498.974358,4192.820512,4442.564102,4212.307692,4220.512820,4481.025641,4169.230769,4640.512820,3998.974359,4076.410256
222,4388.717948,4574.358974,4536.923076,4249.743589,4493.846153,4189.743589,4440.512820,4212.307692,4227.692307,4479.487179,4176.410256,4643.076923,3989.743590,4074.358974
223,4395.384615,4570.769230,4536.923076,4256.410256,4495.384615,4191.794871,4449.743589,4217.948717,4229.230769,4480.512820,4206.153846,4646.153846,3980.512821,4068.717948
224,4396.410256,4571.282051,4535.897435,4261.538461,4500.512820,4196.410256,4456.923076,4222.051282,4230.256410,4491.282051,4208.717948,4648.205128,3991.282052,4069.743589
225,4396.923076,4573.846153,4538.461538,4255.384615,4502.051282,4196.923076,4449.743589,4225.128205,4240.512820,4498.461538,4187.179487,4650.769230,4004.102564,4075.897435
226,4393.846153,4566.153846,4533.846153,4254.358974,4500.000000,4194.358974,4443.589743,4225.641025,4238.974358,4486.153846,4181.538461,4646.153846,3995.897436,4078.461538
227,4387.692307,4562.051282,4525.128205,4255.384615,4499.487179,4192.307692,4443.589743,4222.051282,4230.256410,4477.948717,4190.769230,4640.000000,3988.205129,4076.410256
228,4391.282051,4573.333333,4532.307692,4256.410256,4497.435897,4189.743589,4441.025641,4221.538461,4232.307692,4489.230769,4194.358974,4645.641025,3993.333334,4067.692307
229,4398.461538,4575.384615,4539.487179,4258.974358,4494.358974,4190.256410,4441.025641,4223.589743,4237.435897,4498.974358,4202.051282,4653.333333,3998.461539,4071.282051
230,4389.230769,4561.538461,4528.205128,4255.897435,4495.384615,4192.307692,4444.102564,4221.025641,4237.948717,4495.897435,4193.846153,4647.692307,3998.974359,4081.538461
231,4383.589743,4563.076923,4525.128205,4249.230769,4495.897435,4190.769230,4440.512820,4220.000000,4239.487179,4495.897435,4175.897435,4643.589743,3998.974359,4073.333333
232,4396.923076,4577.948717,4537.948717,4251.282051,4494.358974,4189.743589,4438.974358,4225.128205,4242.564102,4496.923076,4188.717948,4651.794871,4000.512820,4063.076923
233,4404.615384,4581.025641,4542.051282,4259.487179,4497.435897,4190.769230,4442.051282,4227.692307,4234.358974,4496.923076,4206.153846,4653.846153,4005.128205,4076.923076
234,4398.461538,4574.358974,4535.897435,4258.461538,4500.512820,4190.256410,4442.564102,4227.692307,4234.871794,4502.051282,4201.538461,4648.205128,4006.153846,4094.358974
235,4390.256410,4572.307692,4528.717948,4246.666666,4494.871794,4185.641025,4440.000000,4225.641025,4246.666666,4500.000000,4189.230769,4645.128205,3996.410257,4085.641025
236,4387.179487,4576.410256,4525.641025,4244.615384,4491.282051,4185.128205,4438.974358,4220.000000,4237.435897,4489.743589,4183.076923,4643.076923,3992.820513,4067.692307
237,4393.333333,4577.948717,4533.333333,4262.051282,4499.487179,4193.333333,4444.102564,4221.538461,4227.692307,4491.282051,4185.128205,4647.692307,4003.076923,4067.692307
238,4404.102564,4576.410256,4543.589743,4272.820512,4506.153846,4198.974358,4450.256410,4229.743589,4236.923076,4502.051282,4196.410256,4656.410256,4006.153846,4075.384615
239,4401.025641,4573.846153,4537.435897,4263.076923,4502.051282,4194.871794,4449.230769,4227.179487,4237.948717,4502.564102,4201.025641,4652.307692,3996.410257,4071.794871
240,4387.179487,4571.794871,4523.589743,4252.307692,4494.358974,4189.743589,4441.025641,4218.974358,4226.153846,4496.410256,4189.230769,4638.461538,3989.743590,4069.743589
241,4387.692307,4576.410256,4529.230769,4255.384615,4495.897435,4189.230769,4440.512820,4223.589743,4233.846153,4497.435897,4186.153846,4642.051282,4001.025641,4077.435897
242,4397.435897,4580.512820,4537.948717,4265.128205,4498.461538,4190.769230,4447.692307,4232.307692,4249.230769,4501.538461,4183.076923,4654.871794,4010.769230,4076.410256
243,4396.410256,4570.769230,4530.769230,4265.128205,4494.871794,4190.769230,4446.666666,4221.538461,4237.435897,4497.435897,4174.871794,4649.230769,4001.025641,4071.282051
244,4391.794871,4570.769230,4525.641025,4257.435897,4494.358974,4189.230769,4440.000000,4210.256410,4225.128205,4492.307692,4186.666666,4637.435897,3993.846154,4076.923076
245,4394.358974,4588.205128,4531.282051,4260.000000,4496.410256,4190.256410,4441.538461,4219.487179,4233.333333,4497.435897,4200.000000,4642.564102,4001.025641,4074.871794
246,4396.923076,4588.205128,4529.230769,4267.692307,4498.461538,4191.794871,4447.692307,4222.051282,4235.897435,4498.974358,4186.666666,4651.794871,4003.589743,4067.692307
247,4390.769230,4570.769230,4521.538461,4262.051282,4500.000000,4191.794871,4440.512820,4207.692307,4221.025641,4489.230769,4175.384615,4645.641025,3997.435898,4068.205128
248,4389.743589,4570.769230,4521.025641,4250.769230,4495.897435,4190.256410,4429.743589,4201.025641,4218.974358,4483.589743,4191.794871,4637.948717,3996.410257,4070.256410
249,4394.358974,4580.512820,4521.538461,4250.769230,4491.282051,4185.128205,4433.333333,4204.102564,4225.641025,4485.128205,4193.846153,4641.025641,3992.820513,4068.205128
250,4387.179487,4575.897435,4515.897435,4254.358974,4488.205128,4179.487179,4431.794871,4194.871794,4211.282051,4479.487179,4172.820512,4635.897435,3984.102565,4062.564102
251,4373.846153,4570.769230,4512.820512,4250.769230,4484.102564,4176.923076,4422.564102,4186.153846,4204.102564,4475.384615,4167.179487,4626.153846,3983.076924,4054.871794
252,4374.358974,4575.384615,4513.846153,4246.153846,4487.692307,4183.076923,4430.256410,4196.923076,4219.487179,4485.641025,4172.820512,4632.307692,3989.743590,4049.743589
253,4386.666666,4578.461538,4517.435897,4253.846153,4494.358974,4186.666666,4442.051282,4205.128205,4225.641025,4492.820512,4174.358974,4640.512820,3992.820513,4051.794871
254,4391.794871,4580.000000,4518.974358,4262.564102,4492.307692,4184.102564,4433.333333,4198.461538,4222.051282,4489.230769,4175.897435,4634.358974,3986.153847,4059.487179
255,4386.666666,4587.692307,4516.923076,4258.461538,4490.769230,4186.153846,4425.641025,4199.487179,4224.102564,4481.538461,4180.512820,4631.282051,3985.128206,4066.666666
