,AF3,F7,F3,FC5,T7,P7,O1,O2,P8,T8,FC6,F4,F8,AF4
0,4738.974358,4508.205128,4530.769230,4252.307692,4464.615384,4188.205128,4421.538461,4229.743589,4221.538461,4491.282051,4206.666666,4652.820512,4016.923076,4078.974358
1,4725.641025,4507.692307,4526.153846,4250.769230,4462.564102,4186.666666,4424.102564,4228.205128,4220.000000,4488.717948,4202.564102,4651.282051,4010.256410,4076.923076
2,4709.743589,4502.564102,4524.102564,4246.153846,4462.051282,4185.128205,4420.512820,4226.153846,4213.846153,4485.641025,4198.974358,4650.256410,4003.589743,4069.230769
3,4708.717948,4509.230769,4531.794871,4254.871794,4471.282051,4192.820512,4426.153846,4233.333333,4218.461538,4492.307692,4205.128205,4655.384615,4005.128205,4074.358974
4,4702.564102,4516.923076,4530.769230,4264.102564,4474.358974,4195.384615,4432.307692,4232.820512,4221.538461,4490.769230,4195.897435,4654.358974,4003.076923,4077.948717
5,4691.794871,4509.743589,4520.000000,4256.410256,4465.641025,4187.692307,4423.076923,4222.051282,4215.897435,4478.974358,4189.743589,4649.743589,4002.051282,4070.256410
6,4693.333333,4500.512820,4516.923076,4245.128205,4460.000000,4182.564102,4412.307692,4215.897435,4212.307692,4475.384615,4195.384615,4651.282051,4001.025641,4065.128205
7,4696.923076,4502.051282,4520.512820,4245.641025,4462.051282,4184.615384,4415.897435,4217.435897,4214.871794,4480.000000,4189.743589,4652.307692,3994.358975,4066.153846
8,4695.384615,4507.179487,4522.051282,4251.282051,4467.692307,4189.230769,4423.076923,4225.128205,4217.435897,4482.051282,4190.769230,4652.820512,3995.384616,4070.256410
9,4694.358974,4508.717948,4523.589743,4249.743589,4471.282051,4192.820512,4422.051282,4229.230769,4216.923076,4478.974358,4202.051282,4654.871794,4000.000000,4071.794871
10,4689.230769,4508.205128,4527.692307,4248.717948,4471.794871,4189.743589,4418.974358,4223.076923,4215.897435,4476.410256,4196.410256,4652.820512,3995.897436,4068.205128
11,4685.128205,4507.692307,4527.179487,4250.769230,4473.846153,4183.589743,4418.461538,4217.435897,4214.358974,4475.897435,4190.769230,4650.769230,3990.256411,4064.615384
12,4686.666666,4507.179487,4521.538461,4249.230769,4470.256410,4186.153846,4416.410256,4218.974358,4211.282051,4476.923076,4202.564102,4651.794871,3992.820513,4067.179487
13,4686.666666,4506.153846,4522.564102,4245.641025,4466.153846,4187.692307,4414.871794,4219.487179,4210.256410,4476.410256,4201.538461,4652.820512,4002.051282,4072.307692
14,4687.179487,4506.153846,4528.205128,4245.641025,4469.230769,4184.615384,4413.846153,4217.435897,4211.794871,4475.384615,4194.358974,4654.871794,4007.692307,4076.410256
15,4687.179487,4510.256410,4527.179487,4248.717948,4471.794871,4184.615384,4411.794871,4217.435897,4211.794871,4475.897435,4204.102564,4655.384615,4001.025641,4074.871794
16,4680.512820,4503.076923,4523.076923,4244.102564,4472.307692,4185.128205,4412.307692,4217.435897,4212.820512,4474.871794,4200.512820,4649.230769,3992.820513,4064.102564
17,4674.871794,4489.743589,4523.076923,4236.410256,4470.256410,4184.102564,4411.282051,4220.000000,4214.358974,4472.820512,4185.641025,4644.615384,3992.820513,4058.461538
18,4677.948717,4497.435897,4519.487179,4234.358974,4465.128205,4184.102564,4412.307692,4221.025641,4213.846153,4477.948717,4189.743589,4646.153846,3994.358975,4062.051282
19,4683.076923,4510.769230,4517.435897,4233.846153,4466.666666,4183.589743,4413.333333,4217.948717,4213.333333,4482.051282,4198.461538,4648.205128,3996.410257,4061.538461
20,4685.128205,4506.666666,4522.564102,4235.897435,4475.897435,4183.076923,4411.794871,4221.538461,4216.923076,4481.025641,4197.435897,4649.743589,3997.435898,4061.025641
21,4690.769230,4507.692307,4526.666666,4247.692307,4477.948717,4191.282051,4413.333333,4231.282051,4222.564102,4486.666666,4201.538461,4653.846153,3997.435898,4070.769230
22,4694.358974,4518.461538,4528.205128,4254.358974,4477.948717,4196.923076,4416.923076,4230.256410,4221.025641,4490.769230,4210.256410,4659.487179,4004.102564,4075.384615
23,4690.256410,4522.564102,4530.256410,4249.230769,4480.512820,4190.769230,4416.410256,4218.461538,4216.923076,4485.128205,4210.769230,4660.512820,4010.256410,4071.794871
24,4688.717948,4517.948717,4530.256410,4245.641025,4478.461538,4185.641025,4413.333333,4213.846153,4214.871794,4480.000000,4207.692307,4656.923076,4005.128205,4070.769230
25,4687.179487,4510.256410,4525.128205,4243.076923,4474.871794,4186.153846,4410.256410,4216.410256,4210.256410,4478.461538,4199.487179,4652.820512,3995.897436,4065.128205
26,4682.051282,4509.743589,4522.051282,4243.589743,4473.846153,4185.641025,4409.743589,4216.410256,4207.692307,4475.384615,4192.820512,4653.846153,3991.282052,4059.487179
27,4680.000000,4521.025641,4528.205128,4247.692307,4476.410256,4184.102564,4413.846153,4217.435897,4214.871794,4476.410256,4199.487179,4657.948717,3989.743590,4060.000000
28,4676.410256,4524.615384,4531.282051,4241.538461,4476.923076,4187.179487,4416.410256,4219.487179,4220.512820,4481.538461,4204.102564,4660.000000,3990.256411,4063.076923
29,4662.564102,4515.897435,4528.205128,4238.461538,4475.897435,4189.743589,4415.384615,4219.487179,4218.461538,4478.974358,4198.974358,4658.974358,3995.897436,4068.717948
30,4649.230769,4517.435897,4529.743589,4242.051282,4478.974358,4187.692307,4416.410256,4217.435897,4214.358974,4469.743589,4200.000000,4656.410256,4000.000000,4072.820512
31,4637.948717,4527.692307,4531.282051,4245.128205,4481.025641,4189.230769,4420.000000,4216.923076,4212.820512,4463.076923,4201.538461,4654.358974,3994.358975,4067.179487
32,4624.615384,4522.564102,4526.666666,4242.564102,4476.410256,4191.282051,4423.076923,4217.948717,4214.358974,4457.948717,4198.461538,4650.769230,3987.692308,4060.512820
33,4615.384615,4508.205128,4523.076923,4237.948717,4476.410256,4190.256410,4425.641025,4216.923076,4213.333333,4451.282051,4196.410256,4648.717948,3984.615385,4058.974358
34,4611.794871,4509.230769,4525.641025,4239.487179,4483.589743,4192.820512,4426.153846,4218.461538,4209.743589,4450.256410,4198.461538,4652.307692,3986.153847,4061.025641
35,4608.205128,4522.564102,4531.794871,4241.538461,4481.025641,4201.025641,4429.230769,4227.692307,4219.487179,4455.897435,4202.051282,4660.000000,3997.435898,4068.205128
36,4603.589743,4527.179487,4532.307692,4235.897435,4478.461538,4202.051282,4431.282051,4232.820512,4227.692307,4456.923076,4204.615384,4660.000000,4000.000000,4069.230769
37,4601.025641,4517.948717,4529.230769,4231.282051,4482.564102,4195.897435,4429.743589,4228.717948,4220.512820,4452.820512,4200.000000,4656.410256,3987.179488,4061.538461
38,4601.025641,4511.282051,4532.820512,4236.410256,4483.076923,4200.512820,4429.230769,4231.282051,4219.487179,4451.794871,4197.948717,4660.000000,3988.205129,4062.051282
39,4601.538461,4517.948717,4534.358974,4234.871794,4477.948717,4201.025641,4429.743589,4235.897435,4222.051282,4447.692307,4203.589743,4661.025641,4001.538461,4067.179487
40,4598.974358,4518.974358,4528.205128,4228.717948,4477.435897,4188.717948,4427.179487,4226.666666,4215.897435,4441.538461,4196.410256,4655.384615,3994.358975,4060.512820
41,4598.461538,4511.282051,4528.717948,4232.307692,4482.051282,4190.769230,4428.717948,4224.102564,4213.333333,4442.564102,4191.282051,4654.871794,3981.538462,4054.871794
42,4603.589743,4515.897435,4534.871794,4239.487179,4487.692307,4202.564102,4433.333333,4229.230769,4217.435897,4445.641025,4206.153846,4658.461538,3986.153847,4060.512820
43,4604.102564,4526.153846,4530.769230,4237.435897,4490.256410,4196.923076,4428.717948,4220.512820,4216.410256,4441.538461,4211.282051,4655.384615,3988.717949,4060.512820
44,4600.512820,4521.025641,4527.692307,4231.282051,4487.179487,4189.743589,4423.589743,4216.410256,4218.974358,4443.589743,4197.948717,4655.384615,3989.230770,4061.025641
45,4605.641025,4516.923076,4534.871794,4238.974358,4488.205128,4198.974358,4434.358974,4232.307692,4230.256410,4456.923076,4196.410256,4665.128205,4001.538461,4072.820512
46,4611.794871,4533.333333,4538.461538,4253.846153,4492.307692,4205.128205,4444.102564,4239.487179,4231.794871,4459.487179,4211.282051,4670.769230,4002.051282,4074.871794
47,4601.025641,4538.461538,4535.384615,4249.230769,4490.256410,4198.974358,4434.871794,4226.153846,4220.000000,4446.666666,4214.871794,4665.128205,3986.153847,4065.641025
48,4579.487179,4518.974358,4530.256410,4235.897435,4488.205128,4191.794871,4424.615384,4216.923076,4214.871794,4441.025641,4203.589743,4656.410256,3986.666667,4061.025641
49,4556.410256,4509.230769,4524.102564,4235.384615,4490.256410,4191.794871,4426.666666,4215.384615,4217.948717,4446.153846,4199.487179,4653.846153,3995.384616,4058.974358
50,4540.512820,4522.564102,4523.076923,4236.410256,4487.179487,4193.846153,4428.717948,4212.820512,4209.743589,4438.974358,4201.538461,4655.384615,3989.743590,4057.435897
51,4537.948717,4527.692307,4527.179487,4241.025641,4481.025641,4188.717948,4426.666666,4212.820512,4201.025641,4426.153846,4201.538461,4655.384615,3984.615385,4059.487179
52,4531.282051,4518.974358,4529.230769,4243.076923,4479.487179,4187.179487,4426.153846,4219.487179,4206.666666,4432.307692,4202.051282,4656.410256,3987.179488,4060.000000
53,4521.025641,4523.076923,4531.282051,4236.923076,4480.512820,4197.435897,4427.692307,4229.743589,4214.871794,4446.153846,4211.794871,4662.564102,3987.692308,4058.461538
54,4521.538461,4528.205128,4533.846153,4237.948717,4484.102564,4202.564102,4430.256410,4235.897435,4223.589743,4447.179487,4219.487179,4669.230769,3991.282052,4063.589743
55,4520.000000,4523.589743,4532.820512,4242.564102,4491.282051,4199.487179,4436.923076,4234.871794,4229.230769,4443.589743,4213.846153,4667.179487,3989.743590,4065.128205
56,4505.641025,4520.000000,4529.743589,4242.051282,4493.333333,4202.564102,4441.538461,4231.794871,4227.179487,4445.641025,4206.666666,4661.538461,3977.948718,4055.384615
57,4492.307692,4521.538461,4527.692307,4244.615384,4487.179487,4205.128205,4443.589743,4235.384615,4228.717948,4443.589743,4206.153846,4658.974358,3973.846154,4046.666666
58,4492.307692,4524.615384,4528.717948,4246.153846,4488.205128,4206.153846,4452.307692,4244.102564,4237.948717,4444.102564,4204.615384,4660.512820,3980.000000,4051.282051
59,4489.230769,4520.512820,4529.230769,4233.846153,4492.307692,4208.717948,4456.410256,4245.641025,4235.897435,4445.641025,4202.051282,4660.512820,3976.923077,4054.358974
60,4480.000000,4517.948717,4526.666666,4229.743589,4484.615384,4207.179487,4447.692307,4234.871794,4224.615384,4437.435897,4198.461538,4656.410256,3970.256411,4045.641025
61,4476.923076,4520.512820,4526.153846,4237.948717,4477.435897,4203.589743,4443.589743,4232.307692,4222.051282,4434.871794,4195.384615,4654.871794,3976.923077,4046.153846
62,4472.820512,4510.256410,4528.717948,4234.871794,4476.923076,4202.564102,4449.743589,4243.076923,4228.717948,4444.102564,4200.512820,4657.435897,3977.435898,4049.230769
63,4459.487179,4501.025641,4523.076923,4231.282051,4476.410256,4202.051282,4448.717948,4240.512820,4226.666666,4441.538461,4207.179487,4655.897435,3961.025642,4040.512820
64,4454.358974,4515.384615,4516.923076,4234.871794,4476.410256,4200.512820,4440.000000,4222.051282,4214.358974,4426.666666,4203.076923,4649.743589,3957.948718,4037.435897
65,4460.512820,4529.230769,4517.435897,4235.384615,4476.923076,4196.410256,4436.410256,4213.846153,4210.256410,4421.538461,4192.307692,4647.692307,3965.641026,4040.512820
66,4460.512820,4528.717948,4517.435897,4237.435897,4473.846153,4193.846153,4437.948717,4217.948717,4215.897435,4425.128205,4186.666666,4650.256410,3961.025642,4039.487179
67,4461.025641,4537.435897,4522.564102,4248.205128,4481.025641,4196.923076,4437.435897,4224.102564,4217.948717,4434.871794,4193.333333,4657.948717,3964.102565,4047.179487
68,4460.512820,4542.051282,4532.307692,4252.820512,4486.666666,4197.435897,4434.871794,4227.692307,4215.897435,4438.974358,4215.897435,4665.128205,3973.333334,4058.461538
69,4449.230769,4531.282051,4532.307692,4248.717948,4478.461538,4194.358974,4428.717948,4225.641025,4217.948717,4433.846153,4221.538461,4665.641025,3968.205129,4055.897435
70,4443.076923,4533.846153,4527.179487,4249.230769,4481.025641,4196.410256,4427.692307,4224.102564,4221.025641,4434.871794,4202.564102,4665.128205,3964.615385,4048.205128
71,4446.153846,4542.564102,4528.717948,4249.230769,4493.333333,4201.538461,4436.410256,4226.153846,4220.000000,4438.974358,4198.974358,4667.179487,3970.256411,4048.205128
72,4440.000000,4540.000000,4529.743589,4251.282051,4490.769230,4202.564102,4438.974358,4221.538461,4216.923076,4431.282051,4204.615384,4665.641025,3968.717949,4050.256410
73,4430.256410,4537.435897,4524.615384,4253.333333,4479.487179,4196.923076,4429.230769,4215.384615,4215.897435,4426.153846,4197.435897,4656.410256,3963.589744,4052.307692
74,4428.205128,4540.000000,4518.461538,4238.461538,4476.410256,4189.230769,4422.564102,4217.435897,4217.948717,4431.794871,4195.384615,4650.769230,3961.025642,4047.179487
75,4426.666666,4534.358974,4514.871794,4232.820512,4482.051282,4190.256410,4426.153846,4216.923076,4213.333333,4425.128205,4202.051282,4651.794871,3952.307693,4037.948717
76,4420.000000,4525.128205,4518.461538,4249.743589,4492.307692,4197.948717,4434.871794,4217.435897,4205.128205,4414.871794,4194.871794,4652.307692,3941.538462,4035.897435
77,4407.692307,4522.051282,4522.051282,4245.128205,4488.717948,4200.512820,4438.974358,4219.487179,4205.128205,4422.051282,4182.051282,4651.282051,3943.589744,4036.923076
78,4387.692307,4521.538461,4517.435897,4224.615384,4473.846153,4192.820512,4430.256410,4216.923076,4207.179487,4426.153846,4182.564102,4648.205128,3949.230770,4034.358974
79,4369.230769,4523.076923,4513.846153,4235.897435,4474.871794,4187.179487,4423.076923,4216.410256,4204.102564,4416.410256,4193.333333,4645.641025,3949.230770,4032.307692
80,4358.974358,4527.179487,4516.923076,4251.794871,4482.051282,4192.307692,4427.692307,4217.435897,4199.487179,4415.384615,4199.487179,4649.230769,3952.820513,4033.846153
81,4349.230769,4527.179487,4517.948717,4235.384615,4478.461538,4201.025641,4428.717948,4215.384615,4198.461538,4422.051282,4196.410256,4652.820512,3955.897436,4035.897435
82,4340.000000,4527.692307,4519.487179,4231.282051,4477.948717,4200.512820,4425.641025,4216.410256,4201.538461,4420.512820,4198.974358,4651.282051,3951.794872,4037.435897
83,4337.948717,4534.358974,4527.179487,4249.743589,4488.205128,4197.435897,4428.717948,4222.051282,4211.282051,4423.589743,4198.461538,4654.358974,3956.410257,4039.487179
84,4336.923076,4534.358974,4531.794871,4252.307692,4492.820512,4202.051282,4431.282051,4226.666666,4216.923076,4433.333333,4194.358974,4661.538461,3965.641026,4042.564102
85,4333.846153,4522.564102,4529.230769,4244.102564,4487.179487,4202.051282,4429.743589,4228.205128,4216.410256,4432.307692,4206.666666,4659.487179,3963.076924,4044.615384
86,4332.820512,4520.000000,4527.692307,4247.692307,4480.000000,4192.820512,4427.179487,4224.615384,4216.410256,4427.179487,4213.333333,4654.358974,3961.025642,4044.615384
87,4335.897435,4533.846153,4526.666666,4247.179487,4476.410256,4186.153846,4425.128205,4217.435897,4209.230769,4424.615384,4194.358974,4652.820512,3960.512821,4039.487179
88,4341.025641,4533.846153,4524.615384,4242.564102,4475.384615,4184.615384,4422.051282,4215.384615,4203.589743,4424.615384,4186.666666,4655.384615,3953.333334,4034.358974
89,4340.000000,4524.615384,4526.153846,4247.692307,4477.435897,4189.230769,4425.128205,4217.435897,4211.282051,4427.179487,4199.487179,4660.000000,3949.743590,4037.948717
90,4334.871794,4532.307692,4529.230769,4249.743589,4478.461538,4194.871794,4427.692307,4215.897435,4215.384615,4428.205128,4202.051282,4658.974358,3950.769231,4043.076923
91,4328.717948,4541.025641,4524.102564,4247.692307,4473.846153,4190.769230,4423.076923,4211.794871,4205.128205,4425.641025,4197.948717,4652.820512,3950.256411,4043.076923
92,4319.487179,4534.358974,4520.000000,4249.743589,4472.307692,4188.717948,4421.025641,4209.230769,4201.025641,4423.589743,4197.435897,4651.282051,3954.358975,4037.948717
93,4311.282051,4528.717948,4524.102564,4249.743589,4480.512820,4198.461538,4427.692307,4213.846153,4210.256410,4426.153846,4184.615384,4651.794871,3952.820513,4034.358974
94,4304.102564,4528.205128,4524.102564,4245.641025,4482.051282,4199.487179,4430.769230,4221.025641,4218.461538,4431.794871,4176.923076,4651.282051,3943.076924,4035.897435
95,4293.846153,4522.564102,4517.948717,4244.102564,4473.846153,4185.641025,4425.641025,4217.435897,4215.897435,4430.769230,4192.820512,4650.769230,3944.102565,4035.384615
96,4289.743589,4522.564102,4517.948717,4245.128205,4473.846153,4182.051282,4423.589743,4211.794871,4209.743589,4424.615384,4209.743589,4651.794871,3961.025642,4033.333333
97,4294.871794,4526.666666,4521.025641,4246.666666,4477.435897,4189.743589,4426.153846,4214.871794,4211.282051,4427.692307,4205.128205,4653.846153,3972.820513,4038.974358
98,4295.384615,4521.538461,4517.435897,4246.666666,4474.871794,4192.307692,4429.743589,4218.461538,4214.358974,4437.948717,4195.897435,4652.820512,3970.256411,4044.615384
99,4291.794871,4519.487179,4514.871794,4242.564102,4474.871794,4191.794871,4428.205128,4214.358974,4213.846153,4439.487179,4201.538461,4650.769230,3971.282052,4043.076923
100,4299.487179,4531.282051,4520.512820,4245.641025,4483.589743,4194.871794,4425.641025,4216.923076,4218.974358,4439.487179,4201.538461,4651.794871,3985.641026,4049.743589
101,4308.717948,4540.512820,4524.615384,4252.820512,4488.205128,4200.512820,4428.717948,4226.153846,4226.666666,4444.615384,4197.948717,4654.358974,3996.410257,4062.564102
102,4311.282051,4533.333333,4524.102564,4256.410256,4488.717948,4202.051282,4430.769230,4225.641025,4223.076923,4445.128205,4206.666666,4655.897435,3994.358975,4063.076923
103,4310.256410,4522.051282,4524.102564,4257.435897,4488.717948,4198.974358,4426.153846,4217.948717,4215.897435,4441.538461,4205.128205,4654.358974,3992.820513,4061.025641
104,4310.256410,4524.102564,4522.051282,4254.358974,4485.128205,4199.487179,4420.512820,4214.358974,4214.358974,4438.461538,4194.871794,4650.769230,3997.948718,4065.641025
105,4316.410256,4533.846153,4521.538461,4256.923076,4485.641025,4202.051282,4423.076923,4218.974358,4220.000000,4442.051282,4205.641025,4653.846153,4007.179487,4072.820512
106,4325.128205,4539.487179,4531.794871,4261.538461,4487.692307,4203.076923,4429.743589,4225.641025,4227.179487,4445.641025,4212.307692,4664.615384,4012.307692,4076.923076
107,4323.589743,4541.025641,4535.384615,4256.923076,4486.153846,4200.000000,4426.153846,4222.051282,4224.615384,4442.564102,4193.333333,4663.076923,4002.564102,4072.307692
108,4316.923076,4534.358974,4525.641025,4253.333333,4483.076923,4195.384615,4420.512820,4215.384615,4213.333333,4438.974358,4191.282051,4651.794871,3994.358975,4067.179487
109,4319.487179,4521.025641,4527.179487,4253.846153,4480.000000,4196.923076,4424.615384,4216.923076,4212.820512,4436.410256,4209.743589,4653.846153,3996.923077,4072.820512
110,4322.564102,4523.076923,4534.871794,4255.384615,4476.410256,4201.538461,4426.666666,4218.974358,4221.025641,4438.461538,4208.205128,4661.025641,4000.512820,4078.974358
111,4314.358974,4532.307692,4530.256410,4253.333333,4476.410256,4197.435897,4423.589743,4215.384615,4215.384615,4438.974358,4198.461538,4656.410256,3996.410257,4070.769230
112,4301.025641,4524.102564,4525.128205,4246.666666,4475.384615,4190.256410,4422.564102,4212.307692,4203.076923,4432.307692,4201.538461,4651.282051,3994.358975,4062.051282
113,4303.076923,4521.025641,4534.871794,4248.205128,4476.923076,4199.487179,4427.179487,4221.025641,4211.794871,4433.846153,4203.589743,4660.512820,4000.000000,4070.769230
114,4314.358974,4533.333333,4543.589743,4264.102564,4483.589743,4212.307692,4432.820512,4232.820512,4227.179487,4443.076923,4202.564102,4669.743589,4003.076923,4078.461538
115,4306.666666,4529.230769,4536.410256,4261.538461,4479.487179,4206.153846,4431.282051,4226.666666,4220.000000,4441.025641,4201.025641,4664.102564,3993.846154,4067.179487
116,4295.384615,4520.512820,4530.769230,4247.179487,4472.307692,4196.923076,4427.179487,4214.871794,4210.769230,4434.358974,4197.435897,4662.051282,3987.179488,4064.102564
117,4295.384615,4525.641025,4536.923076,4250.769230,4477.435897,4201.025641,4426.666666,4219.487179,4218.461538,4436.410256,4200.512820,4667.692307,3993.333334,4077.435897
118,4287.692307,4524.102564,4535.384615,4252.820512,4476.923076,4201.025641,4424.102564,4221.025641,4217.435897,4435.384615,4202.564102,4661.025641,3992.307693,4076.923076
119,4276.410256,4524.615384,4529.743589,4250.256410,4471.794871,4197.435897,4421.025641,4215.897435,4210.769230,4437.948717,4197.948717,4653.846153,3989.743590,4070.256410
120,4284.102564,4538.974358,4538.461538,4262.564102,4482.564102,4203.076923,4424.615384,4221.538461,4223.076923,4447.179487,4201.025641,4664.102564,4003.589743,4077.435897
121,4285.641025,4541.538461,4541.538461,4270.769230,4490.769230,4204.615384,4425.641025,4223.589743,4231.282051,4444.102564,4214.871794,4666.153846,4005.128205,4078.461538
122,4272.820512,4531.794871,4532.307692,4262.564102,4480.512820,4200.512820,4424.102564,4217.435897,4221.538461,4440.000000,4215.384615,4655.897435,3990.769231,4067.179487
123,4269.743589,4532.307692,4529.743589,4253.846153,4473.846153,4201.025641,4425.128205,4217.435897,4215.384615,4444.615384,4204.615384,4653.846153,3989.743590,4064.615384
124,4274.358974,4531.794871,4527.692307,4248.717948,4477.435897,4198.974358,4423.589743,4218.974358,4218.461538,4442.051282,4200.000000,4653.846153,3999.487180,4067.179487
125,4273.333333,4526.666666,4518.974358,4247.179487,4477.435897,4191.282051,4417.435897,4215.384615,4216.410256,4436.923076,4189.743589,4649.230769,3996.923077,4061.538461
126,4272.307692,4528.205128,4518.461538,4250.769230,4472.307692,4188.717948,4412.820512,4214.358974,4215.384615,4440.512820,4181.025641,4650.256410,3986.666667,4057.948717
127,4284.615384,4535.384615,4527.179487,4256.923076,4472.820512,4189.743589,4414.871794,4216.410256,4218.974358,4442.564102,4195.384615,4657.435897,3984.615385,4060.512820
128,4303.589743,4539.487179,4530.256410,4258.974358,4475.897435,4192.307692,4423.076923,4215.384615,4216.923076,4436.923076,4209.230769,4660.000000,3989.743590,4060.000000
129,4315.384615,4534.871794,4529.743589,4261.025641,4477.435897,4198.461538,4427.179487,4216.410256,4214.358974,4438.461538,4202.051282,4659.487179,3997.435898,4061.025641
130,4326.666666,4534.871794,4534.871794,4262.051282,4480.000000,4202.564102,4428.717948,4221.538461,4220.512820,4448.205128,4200.000000,4664.102564,4000.000000,4069.743589
131,4337.435897,4539.487179,4537.948717,4260.512820,4483.589743,4203.589743,4429.230769,4221.538461,4227.692307,4449.743589,4206.153846,4667.179487,3993.333334,4069.230769
132,4330.256410,4530.769230,4531.282051,4260.000000,4477.948717,4201.538461,4422.564102,4216.923076,4222.051282,4443.076923,4200.000000,4658.974358,3986.153847,4056.923076
133,4318.461538,4524.615384,4525.128205,4264.102564,4475.384615,4198.974358,4421.025641,4214.871794,4214.358974,4441.025641,4196.410256,4651.794871,3987.692308,4053.846153
134,4317.948717,4533.846153,4527.692307,4266.666666,4485.128205,4201.025641,4427.692307,4216.410256,4215.897435,4444.102564,4204.102564,4658.461538,3992.307693,4063.076923
135,4316.410256,4534.358974,4532.820512,4262.051282,4486.666666,4205.128205,4427.692307,4217.948717,4218.974358,4443.076923,4204.102564,4662.564102,3992.820513,4064.615384
136,4313.333333,4523.076923,4530.769230,4254.358974,4475.897435,4203.076923,4425.641025,4218.461538,4220.512820,4441.025641,4199.487179,4655.384615,3993.846154,4056.410256
137,4319.487179,4522.564102,4527.692307,4246.666666,4473.846153,4197.948717,4427.692307,4217.435897,4220.512820,4441.538461,4199.487179,4655.384615,3984.615385,4055.384615
138,4323.076923,4524.102564,4528.205128,4249.230769,4478.974358,4198.974358,4428.205128,4217.948717,4218.974358,4443.589743,4200.512820,4660.512820,3973.333334,4060.512820
139,4319.487179,4523.076923,4530.769230,4257.948717,4477.435897,4201.025641,4427.692307,4218.461538,4216.410256,4447.692307,4199.487179,4660.512820,3983.076924,4059.487179
140,4312.307692,4527.692307,4530.256410,4254.871794,4474.358974,4196.410256,4426.153846,4216.410256,4216.410256,4449.230769,4201.025641,4658.461538,3995.384616,4058.461538
141,4300.512820,4527.179487,4527.692307,4249.743589,4474.871794,4195.384615,4424.102564,4215.897435,4217.435897,4444.615384,4202.051282,4660.000000,3991.282052,4060.512820
142,4295.384615,4522.051282,4529.230769,4254.358974,4476.923076,4196.923076,4428.205128,4218.461538,4215.384615,4441.025641,4201.025641,4664.102564,3985.641026,4055.897435
143,4293.333333,4522.564102,4531.794871,4258.461538,4476.923076,4193.333333,4428.717948,4218.974358,4211.794871,4442.051282,4201.538461,4663.589743,3984.615385,4052.820512
144,4285.128205,4523.076923,4531.282051,4255.897435,4474.358974,4189.743589,4417.435897,4216.410256,4212.307692,4441.025641,4199.487179,4658.974358,3981.538462,4057.435897
145,4276.923076,4523.076923,4528.205128,4253.846153,4474.358974,4187.179487,4414.358974,4215.384615,4213.846153,4433.846153,4195.897435,4656.923076,3982.051283,4056.410256
146,4270.769230,4525.128205,4531.794871,4257.435897,4474.871794,4191.794871,4423.076923,4216.410256,4213.333333,4435.384615,4201.538461,4661.025641,3988.205129,4053.333333
147,4268.205128,4525.128205,4537.948717,4261.025641,4473.846153,4196.923076,4425.128205,4219.487179,4215.897435,4449.230769,4212.307692,4667.179487,3988.717949,4059.487179
148,4269.230769,4522.564102,4535.897435,4258.461538,4475.384615,4192.820512,4418.974358,4220.512820,4220.000000,4451.794871,4206.153846,4666.153846,3981.538462,4064.102564
149,4263.076923,4520.000000,4527.692307,4247.179487,4470.256410,4182.564102,4413.333333,4212.820512,4213.333333,4432.307692,4186.153846,4656.923076,3972.307693,4049.230769
150,4251.794871,4520.512820,4524.615384,4239.487179,4460.512820,4181.025641,4414.871794,4209.230769,4203.076923,4423.076923,4177.948717,4652.820512,3969.743590,4035.897435
151,4245.641025,4520.512820,4526.666666,4248.205128,4465.128205,4191.282051,4416.923076,4216.410256,4207.179487,4436.923076,4188.717948,4656.923076,3974.871795,4040.512820
152,4238.461538,4520.000000,4528.717948,4261.025641,4476.923076,4195.897435,4417.948717,4219.487179,4216.923076,4444.102564,4196.410256,4657.435897,3975.897436,4046.666666
153,4231.282051,4522.051282,4528.717948,4263.589743,4476.410256,4193.333333,4423.076923,4216.410256,4217.948717,4439.487179,4195.384615,4659.487179,3974.358975,4045.128205
154,4226.666666,4521.538461,4526.666666,4257.948717,4472.307692,4194.358974,4425.641025,4217.948717,4215.897435,4441.025641,4197.435897,4664.615384,3973.846154,4045.128205
155,4225.128205,4521.538461,4526.666666,4261.538461,4475.384615,4196.410256,4418.974358,4218.461538,4217.435897,4444.615384,4201.025641,4663.589743,3975.897436,4047.692307
156,4226.666666,4530.769230,4528.205128,4264.102564,4475.384615,4190.256410,4411.794871,4215.897435,4215.384615,4440.000000,4202.051282,4659.487179,3981.538462,4047.692307
157,4223.076923,4538.461538,4528.717948,4261.025641,4472.820512,4187.692307,4413.846153,4215.384615,4214.871794,4439.487179,4198.461538,4660.000000,3984.102565,4048.717948
158,4215.384615,4536.410256,4528.205128,4264.102564,4475.384615,4197.435897,4415.384615,4214.871794,4218.461538,4445.641025,4192.307692,4662.564102,3977.948718,4051.282051
159,4214.358974,4535.384615,4527.179487,4267.179487,4476.923076,4201.538461,4413.846153,4215.384615,4217.435897,4443.589743,4193.333333,4660.000000,3973.333334,4050.769230
160,4213.846153,4538.461538,4527.692307,4264.615384,4474.871794,4193.846153,4413.333333,4217.948717,4217.948717,4441.025641,4203.076923,4657.948717,3978.461539,4052.307692
161,4206.666666,4541.025641,4530.769230,4264.615384,4474.358974,4187.692307,4413.333333,4218.974358,4221.538461,4448.205128,4203.589743,4662.051282,3987.179488,4053.333333
162,4201.538461,4537.948717,4531.282051,4264.615384,4474.871794,4189.230769,4412.307692,4216.923076,4219.487179,4450.769230,4196.923076,4662.051282,3987.179488,4049.230769
163,4198.974358,4526.666666,4524.102564,4256.923076,4473.846153,4191.282051,4410.769230,4214.358974,4214.871794,4444.615384,4200.000000,4653.333333,3975.897436,4044.615384
164,4196.923076,4523.589743,4521.538461,4255.384615,4473.846153,4187.692307,4411.794871,4214.358974,4214.871794,4442.564102,4203.076923,4650.256410,3965.128206,4042.564102
165,4198.974358,4534.358974,4526.153846,4262.051282,4474.358974,4184.615384,4414.358974,4212.307692,4215.897435,4444.102564,4200.000000,4656.410256,3968.717949,4044.615384
166,4197.948717,4543.076923,4528.205128,4264.102564,4474.358974,4189.743589,4414.358974,4210.769230,4215.384615,4442.564102,4200.512820,4656.410256,3976.923077,4045.128205
167,4191.794871,4536.410256,4526.666666,4263.589743,4476.410256,4195.897435,4413.333333,4211.282051,4214.358974,4437.435897,4199.487179,4653.846153,3969.743590,4042.051282
168,4181.538461,4521.025641,4521.538461,4263.076923,4472.307692,4192.307692,4413.333333,4209.743589,4213.846153,4431.794871,4189.743589,4651.794871,3958.974359,4037.948717
169,4171.794871,4515.384615,4521.538461,4255.384615,4467.692307,4186.153846,4412.307692,4208.717948,4216.923076,4434.358974,4183.589743,4649.743589,3956.923077,4036.410256
170,4166.666666,4521.538461,4524.615384,4245.641025,4468.717948,4185.128205,4411.794871,4212.820512,4215.384615,4438.974358,4184.615384,4649.743589,3956.410257,4033.846153
171,4167.179487,4527.692307,4524.102564,4251.794871,4468.717948,4187.179487,4417.435897,4215.897435,4211.794871,4437.948717,4184.615384,4650.256410,3957.435898,4031.794871
172,4164.615384,4532.820512,4524.102564,4264.615384,4469.230769,4193.846153,4422.564102,4216.923076,4217.948717,4438.974358,4184.102564,4653.333333,3967.692308,4040.000000
173,4157.435897,4537.435897,4526.153846,4265.128205,4472.820512,4197.948717,4422.564102,4219.487179,4223.076923,4445.641025,4196.410256,4657.948717,3975.384616,4046.666666
174,4150.256410,4535.897435,4520.512820,4262.051282,4474.358974,4195.897435,4419.487179,4218.974358,4218.461538,4445.128205,4204.102564,4654.358974,3964.102565,4038.461538
175,4147.692307,4531.794871,4514.871794,4263.076923,4472.307692,4194.358974,4416.923076,4216.410256,4213.846153,4438.974358,4188.717948,4647.692307,3954.358975,4030.769230
176,4149.743589,4529.230769,4518.461538,4254.871794,4472.820512,4195.384615,4423.076923,4220.000000,4216.410256,4439.487179,4178.974358,4649.230769,3960.000000,4035.897435
177,4149.743589,4524.102564,4516.923076,4248.205128,4471.282051,4192.820512,4428.205128,4220.000000,4218.461538,4441.025641,4187.692307,4650.256410,3962.051283,4034.871794
178,4147.692307,4520.512820,4511.282051,4256.410256,4469.743589,4187.179487,4422.564102,4216.410256,4210.256410,4435.897435,4184.615384,4642.051282,3952.307693,4023.589743
179,4157.435897,4521.025641,4511.282051,4257.948717,4472.307692,4187.179487,4417.948717,4215.897435,4206.666666,4434.358974,4178.974358,4640.000000,3946.153847,4021.025641
180,4175.897435,4520.512820,4511.794871,4246.153846,4474.358974,4192.307692,4422.051282,4216.410256,4214.871794,4440.000000,4197.948717,4645.128205,3950.256411,4025.641025
181,4190.256410,4521.538461,4514.358974,4249.743589,4474.358974,4192.820512,4425.128205,4215.384615,4215.897435,4441.538461,4197.435897,4646.666666,3956.923077,4026.153846
182,4199.487179,4526.666666,4515.897435,4263.076923,4472.820512,4186.666666,4425.128205,4216.410256,4209.743589,4442.051282,4167.692307,4648.717948,3961.538462,4027.179487
183,4202.051282,4520.512820,4510.769230,4255.897435,4467.692307,4185.128205,4425.128205,4217.435897,4207.179487,4440.000000,4166.153846,4648.205128,3952.820513,4026.666666
184,4204.102564,4510.256410,4505.641025,4246.153846,4461.025641,4185.641025,4422.051282,4214.871794,4210.256410,4433.333333,4185.641025,4644.615384,3943.076924,4021.538461
185,4213.333333,4517.435897,4511.794871,4251.282051,4461.538461,4182.564102,4418.974358,4215.384615,4214.358974,4436.410256,4189.230769,4648.717948,3955.897436,4025.128205
186,4221.025641,4522.051282,4515.384615,4253.846153,4463.589743,4184.615384,4418.974358,4217.948717,4213.333333,4444.102564,4190.256410,4650.256410,3964.615385,4031.794871
187,4224.102564,4512.307692,4509.230769,4249.230769,4464.102564,4185.641025,4419.487179,4216.923076,4208.205128,4441.025641,4187.179487,4642.564102,3947.179488,4022.564102
188,4229.743589,4508.717948,4511.282051,4248.717948,4468.717948,4184.102564,4421.025641,4214.871794,4210.256410,4434.358974,4168.205128,4642.051282,3932.820513,4014.358974
189,4233.846153,4515.897435,4516.410256,4249.230769,4474.871794,4188.717948,4424.102564,4215.384615,4213.846153,4437.948717,4168.717948,4646.666666,3941.538462,4020.000000
190,4237.948717,4520.000000,4511.794871,4247.692307,4474.358974,4191.794871,4427.692307,4215.384615,4203.076923,4436.923076,4185.128205,4641.025641,3950.256411,4021.538461
191,4245.128205,4516.923076,4509.230769,4249.230769,4469.230769,4187.179487,4426.666666,4212.307692,4195.897435,4429.230769,4183.076923,4638.461538,3945.641026,4014.358974
192,4253.333333,4514.871794,4516.410256,4251.794871,4468.205128,4187.692307,4424.615384,4214.871794,4205.641025,4428.717948,4176.410256,4646.153846,3943.589744,4018.974358
193,4268.205128,4517.435897,4519.487179,4259.487179,4472.820512,4193.846153,4428.717948,4226.153846,4214.358974,4438.461538,4182.564102,4653.846153,3950.769231,4034.358974
194,4279.487179,4525.128205,4519.487179,4265.641025,4475.384615,4195.897435,4432.820512,4233.333333,4218.974358,4449.743589,4192.307692,4658.461538,3961.538462,4038.974358
195,4280.000000,4530.769230,4524.102564,4261.025641,4473.846153,4195.897435,4431.282051,4231.794871,4223.076923,4454.358974,4197.435897,4657.435897,3966.153847,4032.307692
196,4286.666666,4532.820512,4525.128205,4261.025641,4475.384615,4196.923076,4435.897435,4229.743589,4222.051282,4450.769230,4199.487179,4656.923076,3964.102565,4035.384615
197,4297.435897,4529.230769,4521.025641,4264.615384,4478.974358,4198.974358,4442.564102,4232.307692,4223.589743,4446.153846,4201.025641,4659.487179,3958.461539,4039.487179
198,4295.897435,4518.974358,4518.974358,4262.051282,4475.384615,4196.923076,4437.435897,4229.743589,4226.666666,4443.589743,4203.076923,4657.948717,3954.871795,4032.307692
199,4296.410256,4520.512820,4518.974358,4262.564102,4471.794871,4195.897435,4431.282051,4228.205128,4224.615384,4444.615384,4199.487179,4655.384615,3962.564103,4033.333333
200,4309.743589,4535.897435,4518.461538,4266.153846,4478.974358,4196.923076,4431.794871,4230.256410,4223.076923,4450.769230,4195.384615,4657.435897,3971.794872,4041.025641
201,4313.333333,4539.487179,4518.461538,4266.666666,4484.102564,4202.051282,4436.923076,4224.615384,4224.615384,4455.384615,4199.487179,4654.871794,3968.205129,4037.948717
202,4305.641025,4522.564102,4517.948717,4266.666666,4483.076923,4203.589743,4436.410256,4214.358974,4220.000000,4448.717948,4198.461538,4648.717948,3958.974359,4031.282051
203,4301.025641,4517.948717,4517.435897,4263.589743,4486.153846,4198.974358,4432.820512,4213.333333,4214.358974,4442.051282,4185.641025,4649.230769,3955.897436,4029.743589
204,4301.025641,4537.435897,4523.076923,4266.153846,4486.666666,4202.051282,4435.897435,4218.974358,4218.461538,4445.128205,4184.615384,4653.333333,3960.512821,4032.820512
205,4297.435897,4541.025641,4526.153846,4275.384615,4477.948717,4203.589743,4442.051282,4218.974358,4221.025641,4446.666666,4208.717948,4652.307692,3965.128206,4036.410256
206,4288.205128,4523.076923,4519.487179,4271.794871,4472.820512,4192.820512,4433.846153,4216.410256,4214.871794,4442.051282,4212.307692,4647.179487,3958.461539,4028.205128
207,4278.974358,4516.410256,4512.307692,4261.538461,4472.820512,4184.102564,4423.076923,4215.384615,4210.256410,4436.923076,4182.564102,4642.564102,3944.615385,4019.487179
208,4278.461538,4522.564102,4513.846153,4267.179487,4472.307692,4187.692307,4426.666666,4214.871794,4209.230769,4436.410256,4173.333333,4642.564102,3949.230770,4024.102564
209,4284.102564,4525.641025,4519.487179,4271.794871,4474.871794,4191.282051,4429.743589,4215.384615,4208.717948,4438.974358,4187.179487,4644.615384,3958.974359,4026.666666
210,4277.948717,4520.512820,4516.410256,4263.589743,4474.358974,4186.666666,4428.205128,4214.358974,4204.102564,4432.820512,4191.282051,4642.051282,3949.743590,4019.487179
211,4265.641025,4513.846153,4508.717948,4256.923076,4470.769230,4184.615384,4426.666666,4212.820512,4202.051282,4424.102564,4184.102564,4639.487179,3946.153847,4018.461538
212,4268.717948,4516.923076,4507.692307,4258.461538,4471.282051,4184.615384,4424.615384,4212.307692,4206.666666,4426.666666,4176.410256,4640.000000,3960.512821,4025.641025
213,4283.076923,4523.589743,4512.820512,4265.641025,4474.358974,4184.615384,4426.666666,4214.871794,4213.333333,4437.435897,4171.794871,4642.051282,3970.769231,4032.307692
214,4289.743589,4516.923076,4516.410256,4269.230769,4475.384615,4183.589743,4427.179487,4216.923076,4216.923076,4443.076923,4178.974358,4644.102564,3970.769231,4035.384615
215,4292.820512,4507.692307,4517.435897,4264.615384,4472.820512,4189.743589,4426.666666,4216.923076,4213.333333,4440.000000,4188.717948,4645.641025,3971.282052,4035.897435
216,4305.128205,4515.384615,4517.948717,4265.641025,4473.846153,4194.871794,4429.230769,4218.974358,4215.384615,4440.000000,4190.256410,4647.179487,3982.051283,4044.102564
217,4317.948717,4523.589743,4518.974358,4270.256410,4477.435897,4190.769230,4431.282051,4220.000000,4221.025641,4447.179487,4190.256410,4647.692307,3993.846154,4052.820512
218,4324.615384,4522.564102,4524.102564,4269.230769,4476.923076,4191.794871,4429.230769,4218.461538,4219.487179,4447.692307,4184.102564,4648.205128,3992.307693,4050.256410
219,4327.692307,4519.487179,4523.076923,4272.820512,4474.358974,4195.384615,4428.205128,4216.410256,4215.897435,4444.615384,4184.102564,4650.256410,3986.153847,4050.256410
220,4329.230769,4517.435897,4521.025641,4280.512820,4474.358974,4191.282051,4426.153846,4219.487179,4217.435897,4447.179487,4202.051282,4651.282051,3992.820513,4058.974358
221,4327.179487,4521.025641,4523.589743,4282.051282,4475.384615,4187.179487,4423.589743,4217.948717,4217.435897,4448.717948,4204.615384,4650.769230,4003.076923,4063.076923
222,4318.974358,4526.666666,4520.000000,4278.974358,4476.410256,4187.692307,4423.076923,4207.692307,4207.179487,4440.512820,4179.487179,4648.717948,4000.512820,4059.487179
223,4308.717948,4523.589743,4518.974358,4276.923076,4477.948717,4192.307692,4425.128205,4206.153846,4204.102564,4437.948717,4177.435897,4650.769230,3989.230770,4060.000000
224,4308.205128,4519.487179,4524.615384,4280.000000,4478.461538,4195.897435,4428.205128,4214.871794,4208.205128,4443.589743,4200.512820,4655.897435,3987.179488,4064.615384
225,4312.307692,4524.102564,4521.538461,4284.102564,4476.923076,4196.923076,4424.615384,4214.871794,4207.692307,4441.025641,4200.512820,4654.358974,3994.871795,4060.512820
226,4303.076923,4524.615384,4514.358974,4282.051282,4475.384615,4191.794871,4414.871794,4203.589743,4204.615384,4436.410256,4180.000000,4649.230769,3988.205129,4054.871794
227,4292.820512,4522.051282,4518.974358,4280.000000,4475.384615,4187.179487,4411.282051,4198.974358,4205.128205,4440.000000,4170.256410,4651.282051,3978.974359,4055.384615
228,4298.461538,4523.589743,4526.153846,4280.512820,4476.410256,4189.743589,4414.871794,4205.641025,4210.256410,4443.589743,4183.589743,4657.948717,3988.205129,4060.000000
229,4304.102564,4522.564102,4529.230769,4279.487179,4475.384615,4189.743589,4413.846153,4209.743589,4208.205128,4439.487179,4201.025641,4656.410256,3992.820513,4062.564102
230,4305.128205,4528.205128,4532.820512,4285.641025,4473.846153,4189.230769,4416.923076,4211.282051,4205.641025,4442.564102,4196.410256,4655.384615,3986.666667,4064.102564
231,4309.743589,4534.871794,4531.794871,4297.948717,4475.384615,4195.384615,4428.205128,4214.871794,4209.743589,4450.769230,4183.076923,4661.025641,3990.769231,4065.128205
232,4311.794871,4527.179487,4530.256410,4294.358974,4477.948717,4198.974358,4429.230769,4217.435897,4209.743589,4445.641025,4185.641025,4662.051282,3993.333334,4062.564102
233,4314.871794,4526.153846,4533.333333,4282.564102,4478.974358,4193.846153,4420.000000,4216.410256,4207.692307,4441.538461,4191.282051,4660.512820,3987.692308,4062.051282
234,4318.461538,4534.358974,4530.769230,4278.461538,4478.461538,4189.743589,4413.333333,4210.256410,4208.205128,4445.641025,4186.153846,4660.000000,3986.666667,4060.000000
235,4311.282051,4525.641025,4521.025641,4277.435897,4475.897435,4190.256410,4410.256410,4201.025641,4205.641025,4443.589743,4187.179487,4650.256410,3985.641026,4055.384615
236,4305.128205,4514.358974,4521.025641,4277.948717,4474.871794,4191.282051,4411.282051,4203.076923,4201.025641,4439.487179,4188.717948,4642.564102,3984.102565,4055.897435
237,4312.307692,4521.025641,4527.692307,4282.564102,4477.435897,4191.794871,4415.897435,4213.333333,4203.589743,4441.538461,4180.512820,4649.230769,3983.076924,4057.435897
238,4309.743589,4524.102564,4526.153846,4282.564102,4477.948717,4185.641025,4413.846153,4213.333333,4205.641025,4439.487179,4175.897435,4650.256410,3978.461539,4053.333333
239,4303.589743,4517.948717,4526.666666,4275.384615,4473.846153,4187.179487,4414.358974,4210.256410,4208.717948,4436.410256,4179.487179,4649.230769,3982.051283,4052.820512
240,4318.461538,4525.128205,4535.897435,4276.923076,4478.461538,4198.974358,4424.615384,4215.897435,4217.435897,4447.179487,4190.256410,4661.025641,3998.461539,4064.615384
241,4337.948717,4538.974358,4543.589743,4293.846153,4491.794871,4204.102564,4429.743589,4221.025641,4218.461538,4457.948717,4207.692307,4671.282051,4007.692307,4073.846153
242,4343.076923,4540.512820,4542.051282,4303.076923,4490.769230,4198.461538,4427.692307,4218.461538,4215.897435,4457.948717,4212.307692,4666.666666,4000.512820,4070.769230
243,4343.076923,4527.692307,4534.358974,4289.230769,4481.538461,4194.358974,4423.589743,4215.384615,4216.923076,4457.435897,4194.358974,4658.974358,3992.820513,4062.051282
244,4350.256410,4519.487179,4531.794871,4277.435897,4483.076923,4194.871794,4418.461538,4213.846153,4214.871794,4454.871794,4178.974358,4656.923076,3993.846154,4057.435897
245,4361.025641,4525.641025,4536.410256,4281.538461,4484.102564,4193.333333,4415.384615,4208.205128,4208.205128,4448.205128,4190.256410,4658.974358,3994.871795,4057.435897
246,4369.743589,4533.846153,4533.846153,4282.051282,4477.435897,4184.615384,4413.333333,4201.025641,4202.051282,4441.025641,4204.102564,4656.923076,3990.769231,4058.974358
247,4370.769230,4531.282051,4529.230769,4282.051282,4475.897435,4183.076923,4411.282051,4199.487179,4200.512820,4441.025641,4195.384615,4651.282051,3984.615385,4058.461538
248,4366.153846,4522.564102,4530.769230,4289.230769,4477.948717,4185.641025,4410.769230,4200.512820,4202.051282,4443.589743,4184.615384,4654.871794,3981.538462,4055.897435
249,4362.051282,4520.512820,4532.307692,4287.692307,4476.410256,4183.589743,4411.794871,4200.512820,4208.717948,4443.589743,4188.717948,4659.487179,3981.538462,4053.333333
250,4352.307692,4524.615384,4530.256410,4283.076923,4475.384615,4184.615384,4418.461538,4204.615384,4215.897435,4445.641025,4193.333333,4655.897435,3982.564103,4052.307692
251,4341.538461,4526.666666,4525.128205,4281.538461,4474.871794,4187.179487,4421.538461,4204.615384,4208.717948,4444.102564,4185.641025,4649.743589,3982.051283,4049.230769
252,4339.487179,4517.948717,4517.435897,4271.282051,4475.384615,4186.153846,4421.538461,4202.051282,4195.897435,4441.025641,4180.512820,4648.205128,3974.358975,4042.564102
253,4344.615384,4509.230769,4516.410256,4267.179487,4477.948717,4188.717948,4425.128205,4209.743589,4206.153846,4444.102564,4191.794871,4651.794871,3969.230770,4038.974358
254,4349.743589,4516.923076,4524.102564,4276.923076,4476.923076,4187.179487,4424.615384,4209.743589,4215.897435,4447.179487,4194.871794,4653.846153,3978.461539,4046.153846
255,4356.923076,4527.179487,4531.282051,4283.589743,4475.384615,4183.076923,4420.512820,4201.025641,4205.128205,4443.589743,4187.179487,4657.948717,3997.435898,4058.974358
256,4366.666666,4522.051282,4533.846153,4282.564102,4476.410256,4190.769230,4425.128205,4206.153846,4206.153846,4448.717948,4192.307692,4664.615384,4004.102564,4063.076923
257,4376.923076,4518.974358,4534.358974,4276.923076,4477.435897,4196.410256,4428.205128,4214.871794,4213.846153,4455.897435,4203.076923,4667.179487,3998.461539,4057.948717
258,4385.641025,4525.128205,4533.846153,4275.897435,4475.384615,4189.230769,4425.128205,4214.871794,4208.205128,4449.230769,4205.641025,4663.589743,3994.358975,4053.846153
259,4392.307692,4525.128205,4531.282051,4278.974358,4473.846153,4188.205128,4427.179487,4212.820512,4203.076923,4443.076923,4200.000000,4658.461538,3988.205129,4054.358974
