,AF3,F7,F3,FC5,T7,P7,O1,O2,P8,T8,FC6,F4,F8,AF4
0,4380.000000,4498.461538,4524.615384,4241.025641,4463.589743,4181.538461,4443.589743,4210.769230,4212.820512,4470.256410,4185.128205,4651.282051,3982.564103,4023.589743
1,4372.820512,4497.948717,4518.974358,4242.051282,4464.102564,4176.410256,4436.923076,4204.102564,4209.230769,4473.333333,4177.435897,4645.641025,3988.717949,4021.538461
2,4381.025641,4508.205128,4520.512820,4250.769230,4467.692307,4172.307692,4433.846153,4203.589743,4218.461538,4476.923076,4167.692307,4641.538461,3997.948718,4029.743589
3,4395.384615,4516.923076,4530.256410,4255.897435,4471.794871,4180.000000,4442.051282,4211.282051,4228.205128,4483.076923,4187.179487,4655.384615,3997.948718,4038.461538
4,4396.923076,4511.794871,4535.897435,4253.333333,4470.769230,4185.641025,4447.692307,4214.871794,4223.589743,4485.128205,4212.820512,4669.230769,3998.461539,4038.974358
5,4383.076923,4501.538461,4529.743589,4241.538461,4466.666666,4178.461538,4440.512820,4211.794871,4214.358974,4474.871794,4201.538461,4660.512820,3996.923077,4027.179487
6,4385.128205,4505.128205,4529.230769,4242.051282,4464.102564,4176.923076,4440.512820,4213.846153,4213.333333,4473.846153,4185.641025,4656.410256,3995.897436,4030.256410
7,4405.641025,4517.435897,4540.512820,4260.000000,4467.692307,4183.076923,4450.256410,4226.666666,4230.256410,4488.205128,4204.615384,4670.256410,4008.717948,4051.282051
8,4407.692307,4511.794871,4542.051282,4265.641025,4471.282051,4178.461538,4449.743589,4231.794871,4248.205128,4491.794871,4220.000000,4673.333333,4012.307692,4054.871794
9,4390.256410,4495.384615,4532.307692,4249.743589,4465.128205,4173.846153,4443.589743,4228.205128,4244.102564,4487.692307,4209.230769,4660.512820,3998.461539,4038.974358
10,4385.128205,4492.820512,4527.179487,4244.615384,4458.974358,4179.487179,4447.692307,4224.615384,4225.128205,4485.128205,4198.974358,4655.384615,3995.384616,4030.256410
11,4384.615384,4497.948717,4528.205128,4249.743589,4461.025641,4177.948717,4444.102564,4214.358974,4209.743589,4471.794871,4195.897435,4653.846153,3992.820513,4029.743589
12,4376.410256,4492.307692,4523.589743,4244.102564,4457.948717,4171.282051,4434.871794,4200.000000,4210.769230,4464.615384,4185.128205,4646.666666,3980.000000,4020.000000
13,4374.871794,4485.128205,4518.974358,4240.000000,4454.871794,4173.333333,4435.384615,4197.948717,4219.487179,4474.871794,4176.923076,4641.025641,3977.435898,4010.769230
14,4377.435897,4492.307692,4518.461538,4244.102564,4465.641025,4175.897435,4438.974358,4202.564102,4215.384615,4475.897435,4183.076923,4637.948717,3985.128206,4013.333333
15,4383.589743,4505.641025,4521.538461,4254.358974,4475.897435,4177.435897,4437.435897,4204.615384,4208.717948,4464.102564,4191.282051,4643.589743,3988.717949,4021.538461
16,4395.897435,4516.923076,4530.256410,4266.153846,4475.384615,4187.692307,4444.102564,4214.871794,4221.538461,4472.307692,4198.974358,4656.410256,3995.897436,4030.256410
17,4395.384615,4522.564102,4531.282051,4266.666666,4471.794871,4189.743589,4454.871794,4220.000000,4232.307692,4489.743589,4201.538461,4656.410256,4002.564102,4035.384615
18,4387.179487,4518.461538,4526.153846,4262.564102,4474.358974,4185.641025,4452.820512,4213.333333,4219.487179,4487.179487,4200.000000,4645.641025,3999.487180,4037.435897
19,4396.923076,4515.897435,4526.666666,4260.000000,4477.948717,4188.205128,4446.666666,4214.358974,4218.974358,4482.051282,4202.051282,4647.179487,3995.384616,4033.846153
20,4397.435897,4512.307692,4527.692307,4245.128205,4472.820512,4185.128205,4442.051282,4215.897435,4229.230769,4483.076923,4200.000000,4654.358974,3991.282052,4025.641025
21,4380.512820,4506.666666,4525.128205,4234.358974,4466.153846,4178.461538,4440.000000,4212.307692,4225.128205,4480.512820,4192.820512,4651.794871,3990.256411,4017.435897
22,4387.179487,4512.307692,4527.179487,4255.384615,4467.692307,4184.615384,4447.179487,4220.000000,4226.153846,4483.076923,4197.435897,4651.282051,3997.948718,4026.153846
23,4400.000000,4520.512820,4530.256410,4272.820512,4473.846153,4192.307692,4454.358974,4228.205128,4233.333333,4488.205128,4211.794871,4653.333333,3998.461539,4038.461538
24,4385.641025,4514.871794,4526.666666,4266.153846,4476.410256,4188.205128,4448.717948,4221.538461,4226.153846,4486.666666,4206.666666,4650.769230,3991.794872,4031.794871
25,4375.897435,4511.282051,4523.076923,4258.974358,4475.384615,4186.153846,4446.666666,4217.435897,4214.871794,4485.641025,4186.666666,4650.256410,3992.307693,4018.461538
26,4390.256410,4518.461538,4526.153846,4259.487179,4474.358974,4192.820512,4457.435897,4228.205128,4227.179487,4492.307692,4190.769230,4656.410256,3997.435898,4025.128205
27,4397.435897,4515.897435,4534.871794,4259.487179,4470.769230,4191.282051,4458.974358,4239.487179,4243.076923,4497.948717,4212.307692,4662.564102,4002.564102,4040.000000
28,4398.461538,4513.846153,4542.051282,4255.384615,4471.282051,4183.589743,4454.358974,4243.589743,4246.666666,4496.410256,4215.897435,4666.666666,4007.179487,4042.564102
29,4405.128205,4522.564102,4544.615384,4258.974358,4477.948717,4186.153846,4458.974358,4245.128205,4250.769230,4499.487179,4214.871794,4670.769230,4003.076923,4041.538461
30,4405.128205,4523.589743,4546.153846,4271.282051,4477.435897,4191.282051,4463.076923,4243.076923,4247.692307,4502.564102,4218.461538,4673.333333,4002.051282,4044.102564
31,4400.000000,4523.076923,4542.051282,4275.384615,4475.384615,4189.230769,4455.384615,4238.974358,4237.948717,4496.923076,4208.717948,4671.794871,4011.794871,4041.538461
32,4400.000000,4526.153846,4537.948717,4265.128205,4478.461538,4187.179487,4453.846153,4235.897435,4236.410256,4489.743589,4201.025641,4669.743589,4012.820512,4035.384615
33,4396.410256,4519.487179,4537.948717,4253.333333,4470.256410,4185.128205,4455.897435,4231.282051,4237.948717,4492.307692,4209.743589,4668.717948,4000.000000,4034.358974
34,4392.307692,4511.282051,4535.897435,4256.923076,4460.000000,4181.025641,4451.794871,4229.743589,4234.871794,4495.897435,4218.461538,4667.179487,3996.410257,4041.025641
35,4395.384615,4518.974358,4531.794871,4273.333333,4467.692307,4186.153846,4452.307692,4232.307692,4237.948717,4492.820512,4220.000000,4665.128205,4003.076923,4042.051282
36,4395.384615,4521.538461,4530.256410,4275.384615,4479.487179,4194.871794,4454.358974,4226.666666,4240.000000,4488.717948,4209.230769,4660.512820,4004.615384,4029.230769
37,4390.769230,4515.384615,4527.692307,4261.538461,4477.948717,4191.794871,4449.743589,4217.948717,4229.230769,4482.564102,4194.358974,4654.871794,3995.897436,4017.948717
38,4391.794871,4521.025641,4526.666666,4266.153846,4474.358974,4188.717948,4450.256410,4222.051282,4224.615384,4490.769230,4198.974358,4653.333333,3993.846154,4026.666666
39,4397.435897,4526.153846,4530.256410,4280.512820,4470.769230,4189.743589,4451.794871,4227.179487,4233.333333,4504.615384,4212.307692,4655.897435,4005.641025,4036.923076
40,4391.794871,4518.461538,4531.282051,4269.743589,4468.205128,4185.641025,4443.589743,4216.923076,4233.846153,4498.461538,4209.743589,4655.897435,4009.743589,4023.589743
41,4380.000000,4510.256410,4525.641025,4249.230769,4465.641025,4179.487179,4441.025641,4213.333333,4230.256410,4483.589743,4201.538461,4653.333333,4000.512820,4010.769230
42,4377.948717,4513.333333,4520.000000,4245.641025,4463.076923,4177.435897,4444.102564,4219.487179,4226.666666,4480.512820,4191.282051,4646.666666,3986.666667,4015.384615
43,4387.179487,4521.538461,4521.025641,4254.358974,4464.102564,4177.948717,4437.948717,4214.358974,4213.846153,4478.974358,4178.974358,4640.000000,3978.461539,4021.538461
44,4397.948717,4528.205128,4526.666666,4264.102564,4466.153846,4181.025641,4436.923076,4209.230769,4209.230769,4473.846153,4185.641025,4649.230769,3984.615385,4027.179487
45,4401.025641,4536.410256,4534.358974,4268.205128,4471.282051,4190.769230,4449.743589,4222.564102,4227.179487,4487.179487,4204.102564,4666.666666,3999.487180,4032.307692
46,4406.666666,4545.641025,4544.615384,4272.820512,4480.000000,4196.923076,4458.461538,4233.846153,4246.666666,4503.589743,4214.358974,4673.846153,4006.666666,4036.410256
47,4412.307692,4548.205128,4547.179487,4284.102564,4480.512820,4192.820512,4452.820512,4227.692307,4244.615384,4495.384615,4220.512820,4669.230769,4008.717948,4042.564102
48,4406.153846,4536.923076,4538.461538,4282.051282,4473.846153,4186.153846,4446.153846,4218.461538,4230.256410,4478.974358,4214.871794,4662.051282,4006.666666,4038.974358
49,4392.307692,4523.589743,4532.307692,4260.512820,4475.384615,4187.692307,4447.179487,4216.923076,4221.538461,4484.102564,4197.435897,4658.461538,3996.410257,4025.128205
50,4391.282051,4525.128205,4534.871794,4257.948717,4477.435897,4187.692307,4448.717948,4223.589743,4224.615384,4501.538461,4202.564102,4661.025641,3999.487180,4028.205128
51,4401.025641,4531.282051,4536.410256,4277.948717,4474.871794,4182.051282,4447.692307,4229.743589,4234.358974,4505.128205,4219.487179,4665.641025,4012.820512,4046.666666
52,4406.666666,4529.230769,4535.897435,4278.461538,4475.384615,4183.589743,4448.205128,4226.153846,4240.512820,4495.897435,4211.794871,4667.179487,4010.256410,4047.179487
53,4406.666666,4528.205128,4536.410256,4265.641025,4474.358974,4186.153846,4451.282051,4221.025641,4236.410256,4488.717948,4201.538461,4667.692307,4002.051282,4034.358974
54,4399.487179,4535.897435,4535.384615,4272.307692,4473.846153,4183.589743,4448.717948,4218.974358,4219.487179,4484.615384,4202.564102,4660.512820,3998.461539,4025.128205
55,4394.871794,4540.512820,4531.282051,4282.564102,4480.000000,4185.128205,4446.666666,4216.410256,4208.717948,4482.564102,4201.538461,4650.256410,3996.410257,4029.743589
56,4395.897435,4538.974358,4530.256410,4272.820512,4482.564102,4191.794871,4449.230769,4213.846153,4212.820512,4482.564102,4208.205128,4651.282051,3997.948718,4039.487179
57,4388.205128,4532.820512,4525.128205,4252.307692,4475.384615,4192.307692,4449.743589,4214.871794,4215.897435,4478.974358,4204.615384,4650.769230,3996.410257,4022.051282
58,4380.000000,4524.615384,4520.512820,4248.205128,4472.820512,4185.128205,4450.769230,4220.000000,4218.461538,4480.000000,4180.000000,4641.538461,3986.153847,3999.487180
59,4390.256410,4526.666666,4527.692307,4265.641025,4471.794871,4185.128205,4452.307692,4226.666666,4227.692307,4492.307692,4184.615384,4642.051282,3990.769231,4022.564102
60,4392.307692,4528.717948,4531.282051,4270.256410,4467.692307,4188.717948,4449.743589,4229.743589,4234.358974,4490.256410,4206.666666,4648.205128,3998.974359,4043.076923
61,4373.333333,4516.923076,4519.487179,4256.410256,4469.230769,4184.102564,4448.717948,4227.179487,4235.384615,4471.282051,4200.000000,4641.025641,3985.128206,4011.282051
62,4370.769230,4512.307692,4515.384615,4256.923076,4469.230769,4180.512820,4454.871794,4228.717948,4235.897435,4473.846153,4191.282051,4634.358974,3976.410257,3993.846154
63,4389.743589,4519.487179,4533.846153,4267.179487,4469.743589,4192.307692,4461.538461,4239.487179,4231.794871,4495.897435,4201.025641,4645.641025,3992.307693,4028.717948
64,4398.461538,4524.615384,4545.641025,4268.717948,4473.333333,4196.923076,4460.000000,4240.000000,4228.717948,4499.487179,4206.666666,4661.538461,4003.589743,4048.717948
65,4390.256410,4525.641025,4536.923076,4263.589743,4472.307692,4186.666666,4453.333333,4228.205128,4234.871794,4489.230769,4201.025641,4663.589743,3998.974359,4026.153846
66,4384.615384,4522.564102,4531.794871,4256.923076,4469.230769,4182.564102,4445.128205,4222.051282,4234.358974,4486.153846,4198.974358,4658.461538,3995.384616,4013.333333
67,4386.153846,4518.461538,4534.871794,4257.948717,4470.256410,4182.564102,4443.589743,4220.000000,4224.102564,4484.615384,4201.538461,4655.384615,3989.743590,4027.692307
68,4384.102564,4516.923076,4530.769230,4266.153846,4469.743589,4178.461538,4442.564102,4213.333333,4222.564102,4483.076923,4205.128205,4651.282051,3981.025642,4030.769230
69,4376.923076,4515.897435,4525.128205,4261.025641,4464.615384,4175.384615,4437.948717,4209.743589,4226.666666,4482.564102,4195.384615,4648.205128,3978.974359,4012.820512
70,4384.102564,4517.435897,4529.230769,4253.846153,4464.102564,4180.512820,4442.564102,4216.410256,4229.230769,4485.128205,4183.076923,4654.358974,3989.230770,4014.871794
71,4398.461538,4522.051282,4533.846153,4261.538461,4467.692307,4184.615384,4450.769230,4221.538461,4228.717948,4487.179487,4189.743589,4661.538461,4004.615384,4036.410256
72,4391.282051,4516.923076,4527.692307,4259.487179,4464.615384,4178.974358,4447.692307,4219.487179,4224.615384,4479.487179,4192.820512,4657.948717,4001.538461,4035.384615
73,4373.846153,4507.179487,4521.025641,4253.846153,4457.948717,4175.897435,4444.102564,4220.512820,4223.076923,4480.000000,4190.256410,4651.794871,3984.102565,4017.948717
74,4375.384615,4516.410256,4526.666666,4264.102564,4461.538461,4181.538461,4451.282051,4226.153846,4228.717948,4494.871794,4198.461538,4653.846153,3982.564103,4014.871794
75,4390.256410,4527.179487,4533.846153,4271.794871,4474.358974,4188.205128,4456.923076,4226.153846,4234.358974,4497.948717,4208.717948,4660.512820,3994.871795,4020.512820
76,4390.256410,4525.641025,4529.743589,4265.128205,4475.897435,4191.282051,4456.410256,4222.051282,4230.769230,4484.615384,4201.025641,4656.410256,3994.358975,4024.615384
77,4385.641025,4526.153846,4527.179487,4268.205128,4470.769230,4192.820512,4456.410256,4224.615384,4225.641025,4479.487179,4185.128205,4652.820512,3992.307693,4029.230769
78,4389.743589,4528.717948,4529.743589,4273.333333,4473.333333,4189.743589,4458.461538,4229.230769,4228.717948,4482.564102,4189.743589,4656.410256,3996.923077,4024.102564
79,4381.025641,4520.000000,4525.128205,4253.846153,4475.384615,4184.102564,4456.410256,4226.666666,4233.846153,4481.538461,4197.435897,4650.769230,3990.256411,4010.256410
80,4374.358974,4518.461538,4522.051282,4244.615384,4474.871794,4185.641025,4452.820512,4222.564102,4229.230769,4477.948717,4190.256410,4641.538461,3984.615385,4014.871794
81,4390.769230,4528.717948,4528.205128,4263.589743,4475.897435,4192.820512,4455.897435,4226.153846,4224.102564,4482.051282,4190.256410,4648.717948,3996.410257,4028.717948
82,4397.948717,4534.871794,4533.846153,4278.461538,4473.846153,4196.923076,4460.000000,4232.307692,4230.256410,4494.358974,4200.512820,4657.948717,4001.025641,4026.666666
83,4389.230769,4540.512820,4529.230769,4279.487179,4469.743589,4192.307692,4460.000000,4230.769230,4232.307692,4491.794871,4194.871794,4651.794871,3987.179488,4021.538461
84,4389.743589,4543.589743,4520.512820,4280.512820,4467.179487,4184.102564,4454.871794,4223.589743,4225.641025,4474.358974,4177.948717,4643.589743,3978.974359,4022.564102
85,4390.769230,4531.794871,4515.897435,4269.230769,4465.128205,4181.025641,4447.179487,4220.512820,4220.000000,4473.846153,4179.487179,4641.025641,3978.974359,4012.820512
86,4385.128205,4521.025641,4518.974358,4260.512820,4466.153846,4179.487179,4446.666666,4220.000000,4221.025641,4483.589743,4191.282051,4642.564102,3976.410257,4007.179487
87,4386.153846,4533.333333,4526.153846,4275.897435,4471.794871,4183.589743,4454.358974,4219.487179,4223.076923,4481.025641,4188.717948,4648.717948,3976.410257,4020.512820
88,4387.179487,4543.589743,4530.256410,4280.000000,4472.307692,4188.205128,4457.435897,4219.487179,4222.564102,4478.974358,4183.076923,4652.820512,3979.487180,4026.666666
89,4382.051282,4535.384615,4527.692307,4268.717948,4468.717948,4185.128205,4453.333333,4220.512820,4222.564102,4481.538461,4178.974358,4651.282051,3976.923077,4017.435897
90,4382.564102,4528.205128,4526.153846,4265.641025,4469.230769,4184.102564,4452.820512,4223.589743,4225.128205,4475.384615,4172.820512,4651.282051,3970.256411,4012.820512
91,4388.205128,4532.307692,4530.769230,4269.743589,4472.307692,4186.666666,4454.871794,4225.128205,4224.102564,4477.948717,4180.512820,4657.435897,3975.897436,4021.538461
92,4389.230769,4535.384615,4533.846153,4275.897435,4470.256410,4185.641025,4457.435897,4228.717948,4228.205128,4494.871794,4197.948717,4663.589743,3991.282052,4031.794871
93,4386.153846,4526.666666,4528.205128,4264.615384,4465.128205,4184.102564,4460.000000,4234.358974,4238.461538,4503.589743,4196.410256,4660.512820,3994.358975,4030.769230
94,4387.179487,4521.025641,4526.153846,4246.666666,4465.641025,4188.717948,4461.025641,4234.871794,4235.384615,4505.128205,4195.897435,4660.512820,3983.589744,4032.307692
95,4395.384615,4525.641025,4534.358974,4258.974358,4471.794871,4194.358974,4461.025641,4237.948717,4231.282051,4502.564102,4211.282051,4671.794871,3983.589744,4039.487179
96,4393.846153,4528.205128,4536.923076,4277.435897,4471.282051,4189.743589,4455.897435,4236.410256,4234.871794,4488.205128,4198.974358,4670.769230,3989.230770,4033.333333
97,4385.641025,4527.692307,4528.717948,4267.179487,4463.589743,4181.538461,4450.256410,4225.128205,4232.820512,4482.051282,4177.435897,4654.871794,3984.102565,4020.000000
98,4382.564102,4528.205128,4524.615384,4258.461538,4460.512820,4182.564102,4449.743589,4218.974358,4224.102564,4491.794871,4181.538461,4649.743589,3977.435898,4017.948717
99,4377.948717,4521.538461,4527.179487,4263.589743,4466.153846,4186.153846,4446.666666,4217.948717,4214.358974,4489.230769,4176.410256,4651.794871,3977.948718,4021.538461
100,4371.794871,4514.871794,4522.051282,4257.435897,4469.743589,4182.564102,4441.025641,4213.333333,4208.717948,4475.384615,4159.487179,4645.128205,3978.974359,4023.589743
101,4376.923076,4524.615384,4518.974358,4253.333333,4468.717948,4184.615384,4446.153846,4217.435897,4220.000000,4480.512820,4168.717948,4644.102564,3978.461539,4027.179487
102,4385.641025,4534.358974,4526.666666,4260.000000,4467.179487,4189.743589,4454.871794,4227.179487,4233.846153,4497.948717,4182.051282,4652.820512,3983.589744,4034.871794
103,4387.692307,4535.897435,4532.307692,4268.205128,4471.794871,4189.230769,4455.384615,4225.128205,4227.179487,4501.538461,4172.820512,4657.435897,3990.256411,4043.589743
104,4391.794871,4538.974358,4530.769230,4270.769230,4477.435897,4191.794871,4456.410256,4224.102564,4221.538461,4494.358974,4172.820512,4657.948717,3994.358975,4048.717948
105,4389.743589,4538.461538,4530.256410,4264.102564,4471.282051,4193.846153,4455.384615,4229.743589,4230.256410,4495.897435,4184.615384,4656.410256,3994.871795,4045.128205
106,4380.512820,4529.743589,4530.256410,4264.102564,4466.153846,4186.153846,4448.717948,4226.666666,4229.230769,4493.846153,4179.487179,4652.307692,3988.205129,4044.102564
107,4378.974358,4520.512820,4528.205128,4263.589743,4466.153846,4180.512820,4445.128205,4218.974358,4215.384615,4474.871794,4163.589743,4651.282051,3978.461539,4043.589743
108,4378.974358,4516.923076,4529.230769,4250.256410,4466.153846,4184.102564,4444.102564,4219.487179,4213.846153,4471.794871,4161.538461,4651.794871,3973.333334,4031.794871
109,4375.897435,4524.102564,4531.794871,4246.153846,4467.692307,4185.641025,4446.666666,4217.435897,4218.974358,4486.666666,4174.358974,4651.282051,3979.487180,4029.230769
110,4378.974358,4533.333333,4532.307692,4261.025641,4471.794871,4183.076923,4450.256410,4213.333333,4214.871794,4488.717948,4175.897435,4651.794871,3987.179488,4045.641025
111,4385.128205,4530.769230,4534.358974,4266.666666,4474.358974,4185.128205,4451.282051,4215.384615,4214.871794,4491.794871,4170.256410,4653.333333,3984.615385,4055.384615
112,4388.205128,4530.769230,4537.435897,4264.102564,4474.358974,4189.743589,4451.282051,4215.384615,4224.102564,4493.846153,4176.923076,4654.358974,3980.512821,4047.179487
113,4387.692307,4530.256410,4536.410256,4264.615384,4472.820512,4188.717948,4450.256410,4214.871794,4224.102564,4478.461538,4182.564102,4655.384615,3984.102565,4037.948717
114,4376.923076,4516.923076,4532.307692,4254.358974,4470.256410,4184.615384,4449.230769,4218.461538,4216.923076,4477.948717,4171.794871,4652.820512,3981.538462,4034.871794
115,4374.358974,4515.384615,4530.256410,4246.666666,4475.897435,4184.102564,4450.256410,4215.384615,4221.538461,4496.410256,4172.820512,4650.769230,3975.897436,4038.974358
116,4395.384615,4540.512820,4535.897435,4265.128205,4483.076923,4187.179487,4452.820512,4214.871794,4235.384615,4507.179487,4189.743589,4658.974358,3990.769231,4048.205128
117,4409.230769,4558.461538,4545.128205,4278.461538,4477.435897,4191.794871,4456.410256,4226.153846,4240.000000,4505.128205,4189.230769,4671.282051,4008.205128,4054.358974
118,4399.487179,4549.230769,4547.692307,4261.538461,4472.307692,4190.256410,4455.384615,4225.641025,4228.205128,4497.948717,4177.948717,4671.282051,4003.589743,4055.384615
119,4394.871794,4542.051282,4546.153846,4260.000000,4476.923076,4188.205128,4452.307692,4216.923076,4217.948717,4492.307692,4184.102564,4663.589743,3993.846154,4058.461538
120,4400.000000,4546.153846,4545.128205,4283.589743,4481.538461,4190.769230,4455.384615,4224.615384,4224.102564,4491.282051,4195.384615,4665.641025,3997.435898,4057.435897
121,4401.025641,4546.153846,4542.564102,4280.512820,4482.564102,4192.307692,4456.923076,4228.717948,4236.410256,4489.230769,4191.794871,4669.230769,4002.564102,4050.769230
122,4401.538461,4540.512820,4540.512820,4264.102564,4479.487179,4188.717948,4448.205128,4218.974358,4236.410256,4493.333333,4187.179487,4663.076923,3993.333334,4051.282051
123,4400.512820,4541.538461,4536.923076,4271.282051,4476.410256,4184.102564,4443.589743,4211.794871,4220.512820,4502.564102,4186.153846,4654.871794,3982.564103,4055.897435
124,4397.435897,4544.615384,4530.256410,4280.512820,4478.461538,4181.538461,4445.641025,4211.282051,4207.692307,4496.410256,4176.923076,4652.307692,3986.666667,4047.692307
125,4395.384615,4539.487179,4529.743589,4276.923076,4478.974358,4182.051282,4443.589743,4212.307692,4214.358974,4479.487179,4175.384615,4654.871794,3995.897436,4039.487179
126,4390.769230,4532.307692,4534.358974,4269.230769,4473.846153,4183.076923,4442.051282,4215.384615,4224.102564,4481.538461,4180.000000,4654.871794,3994.871795,4046.153846
127,4385.128205,4533.846153,4535.384615,4254.358974,4471.794871,4180.000000,4444.102564,4216.923076,4220.000000,4494.358974,4172.307692,4649.743589,3983.589744,4052.307692
128,4393.333333,4545.128205,4540.000000,4253.846153,4470.769230,4180.000000,4450.256410,4219.487179,4223.076923,4497.435897,4176.923076,4652.307692,3986.153847,4050.256410
129,4404.615384,4547.692307,4547.692307,4276.410256,4470.256410,4187.692307,4455.384615,4226.153846,4238.461538,4498.461538,4198.974358,4662.564102,4000.000000,4044.102564
130,4397.435897,4535.897435,4540.512820,4285.641025,4472.307692,4188.717948,4450.769230,4224.102564,4240.000000,4498.461538,4189.743589,4660.512820,3993.846154,4035.384615
131,4381.538461,4531.794871,4528.717948,4271.282051,4469.743589,4178.974358,4441.025641,4211.794871,4220.000000,4485.641025,4164.615384,4648.205128,3972.307693,4031.794871
132,4381.538461,4536.923076,4532.820512,4262.051282,4465.641025,4181.538461,4442.564102,4205.641025,4209.230769,4479.487179,4173.846153,4646.153846,3970.769231,4033.846153
133,4394.871794,4536.410256,4543.076923,4263.589743,4472.820512,4194.871794,4454.358974,4213.333333,4216.923076,4491.282051,4189.230769,4654.358974,3987.179488,4038.461538
134,4396.923076,4535.897435,4544.615384,4260.000000,4477.948717,4196.410256,4456.923076,4221.538461,4225.641025,4501.025641,4180.000000,4658.461538,3995.897436,4043.589743
135,4384.102564,4537.435897,4534.358974,4245.128205,4470.769230,4185.128205,4446.666666,4217.435897,4232.820512,4499.487179,4169.230769,4653.333333,3987.692308,4035.384615
136,4376.410256,4533.846153,4525.128205,4241.538461,4466.153846,4178.974358,4435.384615,4205.128205,4225.128205,4487.692307,4161.025641,4645.641025,3972.307693,4016.410256
137,4383.076923,4533.846153,4531.282051,4264.615384,4470.256410,4182.051282,4438.974358,4205.641025,4210.256410,4478.461538,4160.512820,4647.179487,3972.820513,4021.538461
138,4394.871794,4538.461538,4540.512820,4275.384615,4471.794871,4186.153846,4446.666666,4216.923076,4215.897435,4492.307692,4184.615384,4655.384615,3990.769231,4047.692307
139,4402.564102,4538.461538,4538.974358,4255.897435,4471.794871,4187.692307,4449.230769,4223.076923,4230.769230,4506.153846,4206.666666,4660.512820,4000.000000,4061.025641
140,4402.564102,4544.615384,4539.487179,4250.256410,4474.871794,4188.717948,4450.769230,4223.589743,4226.666666,4504.615384,4204.102564,4663.589743,4004.102564,4054.871794
141,4395.897435,4548.205128,4543.076923,4265.641025,4471.282051,4188.205128,4451.794871,4217.435897,4216.923076,4498.461538,4189.230769,4662.051282,4003.589743,4044.102564
142,4390.769230,4535.897435,4535.384615,4270.256410,4467.179487,4186.153846,4445.641025,4207.179487,4215.384615,4484.102564,4179.487179,4652.307692,3983.076924,4036.923076
143,4387.692307,4529.230769,4528.205128,4262.564102,4471.282051,4186.666666,4440.512820,4210.769230,4218.461538,4476.923076,4175.897435,4647.179487,3972.307693,4038.461538
144,4386.153846,4539.487179,4530.256410,4257.948717,4474.358974,4188.717948,4446.153846,4215.384615,4220.000000,4488.205128,4176.923076,4653.846153,3986.153847,4037.435897
145,4387.179487,4541.538461,4528.717948,4257.948717,4474.358974,4184.102564,4446.153846,4207.179487,4212.820512,4488.717948,4177.435897,4651.794871,3988.717949,4026.153846
146,4385.128205,4530.256410,4525.128205,4263.589743,4472.307692,4182.564102,4440.512820,4205.641025,4207.179487,4481.025641,4180.000000,4646.153846,3977.435898,4027.692307
147,4381.538461,4526.666666,4529.230769,4263.076923,4469.230769,4186.666666,4446.153846,4218.461538,4218.461538,4490.256410,4186.153846,4649.743589,3978.461539,4037.435897
148,4389.230769,4536.410256,4535.897435,4263.076923,4467.179487,4186.666666,4456.923076,4227.692307,4234.871794,4502.051282,4192.307692,4655.897435,3991.282052,4038.461538
149,4397.948717,4541.025641,4539.487179,4267.692307,4467.692307,4186.153846,4453.846153,4228.717948,4236.410256,4502.051282,4192.307692,4658.974358,3995.897436,4032.307692
150,4387.692307,4530.769230,4536.923076,4256.923076,4467.179487,4185.641025,4445.641025,4225.641025,4224.102564,4495.897435,4185.128205,4656.923076,3986.153847,4026.153846
151,4387.692307,4527.692307,4541.538461,4251.794871,4465.128205,4184.615384,4451.282051,4226.666666,4223.076923,4503.076923,4193.846153,4662.051282,3993.333334,4033.846153
152,4406.666666,4539.487179,4548.205128,4265.128205,4467.692307,4187.179487,4456.923076,4228.717948,4230.769230,4513.846153,4210.769230,4674.871794,4016.923076,4048.205128
153,4402.051282,4533.846153,4541.538461,4262.051282,4470.769230,4185.641025,4445.641025,4214.358974,4218.974358,4494.358974,4198.974358,4670.769230,4003.076923,4036.923076
154,4381.025641,4518.974358,4530.256410,4256.410256,4468.717948,4181.025641,4436.923076,4203.589743,4211.282051,4477.948717,4180.512820,4655.897435,3974.358975,4021.025641
155,4385.128205,4531.794871,4535.897435,4274.358974,4468.717948,4190.256410,4449.230769,4218.461538,4224.102564,4497.435897,4185.641025,4659.487179,3991.282052,4031.794871
156,4403.589743,4550.769230,4547.692307,4281.538461,4474.871794,4198.461538,4457.948717,4228.205128,4230.256410,4507.692307,4195.897435,4671.282051,4012.307692,4039.487179
157,4404.102564,4544.102564,4546.153846,4266.153846,4478.974358,4192.307692,4450.769230,4220.512820,4231.282051,4497.948717,4198.461538,4671.282051,3998.974359,4032.820512
158,4397.948717,4532.820512,4543.076923,4262.564102,4475.897435,4192.307692,4448.717948,4220.000000,4234.358974,4506.153846,4205.641025,4671.794871,3995.384616,4034.358974
159,4397.435897,4533.846153,4540.000000,4264.102564,4474.871794,4193.333333,4452.820512,4224.615384,4224.102564,4510.256410,4196.410256,4669.743589,4005.128205,4036.923076
160,4394.871794,4531.282051,4534.358974,4258.974358,4474.871794,4188.717948,4451.794871,4220.512820,4221.025641,4491.794871,4173.333333,4660.512820,4001.538461,4033.333333
161,4392.820512,4521.538461,4536.410256,4256.923076,4471.794871,4189.230769,4453.333333,4224.102564,4238.461538,4497.948717,4179.487179,4661.025641,3998.461539,4033.333333
162,4399.487179,4525.128205,4544.102564,4260.512820,4469.230769,4194.871794,4462.564102,4237.948717,4247.179487,4523.076923,4206.153846,4671.794871,4006.666666,4036.923076
163,4403.589743,4537.948717,4546.153846,4269.743589,4474.871794,4197.435897,4464.102564,4237.435897,4239.487179,4516.923076,4215.897435,4673.846153,4010.769230,4041.025641
164,4400.512820,4539.487179,4543.076923,4270.769230,4482.051282,4194.358974,4456.923076,4223.076923,4229.743589,4494.358974,4200.512820,4669.230769,4003.589743,4035.897435
165,4398.974358,4533.846153,4541.538461,4260.000000,4483.589743,4191.282051,4454.358974,4220.512820,4227.692307,4498.461538,4193.846153,4667.692307,3997.435898,4024.615384
166,4397.948717,4533.846153,4542.051282,4265.128205,4481.025641,4192.820512,4456.410256,4227.179487,4236.410256,4507.692307,4196.410256,4668.205128,3995.897436,4024.615384
167,4399.487179,4540.000000,4542.564102,4283.076923,4482.564102,4201.025641,4460.000000,4232.307692,4238.974358,4501.538461,4194.358974,4667.179487,3998.974359,4034.871794
168,4401.025641,4544.615384,4540.000000,4275.897435,4485.641025,4204.615384,4462.051282,4233.333333,4232.307692,4501.025641,4195.384615,4666.153846,4008.205128,4035.897435
169,4391.794871,4532.307692,4533.846153,4256.410256,4480.000000,4196.410256,4461.025641,4229.230769,4228.205128,4505.641025,4196.410256,4664.102564,4009.743589,4027.179487
170,4385.128205,4522.051282,4529.743589,4260.512820,4472.820512,4189.230769,4455.384615,4220.000000,4223.076923,4501.025641,4195.384615,4657.948717,3999.487180,4024.102564
171,4391.794871,4531.282051,4530.256410,4271.282051,4473.333333,4189.230769,4452.307692,4211.794871,4217.948717,4486.666666,4192.307692,4651.794871,3987.692308,4020.000000
172,4398.974358,4533.846153,4534.871794,4264.615384,4474.358974,4190.256410,4456.923076,4214.871794,4221.538461,4479.487179,4188.205128,4655.384615,3986.153847,4015.384615
173,4402.564102,4525.641025,4537.435897,4256.923076,4471.282051,4191.282051,4461.025641,4225.128205,4226.666666,4491.282051,4188.717948,4663.076923,3996.410257,4027.179487
174,4400.512820,4525.641025,4531.282051,4258.461538,4471.282051,4194.358974,4458.974358,4229.230769,4228.717948,4500.000000,4193.333333,4660.000000,3998.974359,4037.948717
175,4391.794871,4531.282051,4529.230769,4269.743589,4477.948717,4194.358974,4460.512820,4227.692307,4234.358974,4503.076923,4194.871794,4653.846153,3994.358975,4025.641025
176,4395.897435,4536.923076,4541.025641,4279.487179,4486.666666,4197.435897,4467.179487,4230.256410,4232.820512,4507.692307,4194.358974,4662.051282,4001.538461,4016.410256
177,4402.051282,4538.461538,4542.051282,4273.333333,4488.717948,4203.076923,4465.641025,4226.153846,4222.564102,4495.897435,4203.076923,4667.692307,4006.153846,4026.153846
178,4395.384615,4534.871794,4534.871794,4269.230769,4485.641025,4202.051282,4459.487179,4218.461538,4222.051282,4483.589743,4207.179487,4665.128205,4000.000000,4033.846153
179,4398.974358,4536.410256,4542.051282,4273.846153,4484.615384,4195.897435,4461.538461,4221.025641,4225.128205,4493.846153,4198.461538,4667.179487,4001.025641,4029.230769
180,4408.717948,4542.564102,4548.205128,4271.794871,4483.076923,4195.897435,4465.128205,4225.128205,4221.025641,4500.000000,4190.256410,4668.717948,3999.487180,4021.538461
181,4402.051282,4537.435897,4542.051282,4262.051282,4477.435897,4198.974358,4460.512820,4222.051282,4216.923076,4494.358974,4184.102564,4661.538461,3987.179488,4021.538461
182,4390.256410,4523.076923,4535.897435,4257.435897,4472.307692,4196.923076,4458.461538,4220.512820,4218.974358,4494.358974,4184.102564,4656.410256,3985.641026,4025.128205
183,4391.282051,4521.538461,4532.820512,4266.666666,4477.435897,4192.820512,4461.538461,4218.974358,4227.692307,4495.384615,4190.769230,4657.948717,3993.846154,4021.025641
184,4394.871794,4536.410256,4531.794871,4274.871794,4483.589743,4191.282051,4456.923076,4215.384615,4232.307692,4499.487179,4191.282051,4658.974358,3992.307693,4010.769230
185,4392.820512,4548.205128,4533.333333,4270.769230,4484.615384,4192.307692,4453.333333,4217.948717,4225.128205,4502.564102,4185.641025,4656.410256,3989.743590,4013.846153
186,4392.820512,4539.487179,4529.743589,4270.256410,4484.102564,4192.820512,4456.923076,4220.000000,4220.512820,4491.794871,4189.230769,4652.307692,3996.410257,4027.179487
187,4396.923076,4531.794871,4523.076923,4278.461538,4484.102564,4194.871794,4456.410256,4212.820512,4224.102564,4484.615384,4194.358974,4652.307692,4000.000000,4025.641025
188,4392.307692,4531.282051,4517.948717,4269.230769,4478.461538,4190.256410,4448.205128,4206.666666,4213.333333,4483.589743,4180.000000,4651.282051,3988.205129,4010.256410
189,4376.923076,4519.487179,4509.743589,4245.641025,4470.769230,4179.487179,4440.512820,4203.589743,4195.897435,4471.282051,4158.974358,4637.948717,3970.256411,3997.948718
190,4376.410256,4514.871794,4509.230769,4242.564102,4469.743589,4181.025641,4443.076923,4208.717948,4204.615384,4471.282051,4160.512820,4633.846153,3971.282052,4003.589743
191,4388.205128,4522.051282,4521.025641,4255.384615,4473.333333,4189.230769,4453.846153,4218.461538,4223.076923,4488.717948,4182.051282,4647.179487,3985.641026,4014.871794
192,4390.769230,4520.512820,4525.641025,4262.564102,4470.769230,4189.230769,4458.461538,4229.743589,4232.307692,4500.512820,4195.384615,4653.846153,3990.769231,4013.333333
193,4385.641025,4515.897435,4524.615384,4257.948717,4466.666666,4188.717948,4458.461538,4237.948717,4235.897435,4508.717948,4194.358974,4649.743589,3994.358975,4005.641025
194,4381.538461,4518.974358,4525.641025,4246.666666,4472.820512,4190.256410,4456.410256,4232.820512,4231.794871,4510.256410,4193.333333,4652.307692,4006.666666,4008.205128
195,4387.179487,4522.051282,4522.051282,4247.692307,4483.076923,4189.230769,4449.230769,4221.025641,4230.256410,4502.564102,4202.051282,4658.461538,4014.358974,4024.102564
196,4396.923076,4524.102564,4518.974358,4259.487179,4478.974358,4188.205128,4446.666666,4221.538461,4236.410256,4508.205128,4210.256410,4659.487179,4002.564102,4026.153846
197,4389.230769,4523.589743,4522.564102,4263.589743,4473.846153,4188.205128,4450.769230,4222.564102,4228.717948,4514.871794,4198.461538,4654.358974,3986.666667,4007.179487
198,4374.358974,4515.897435,4516.923076,4263.076923,4477.948717,4187.179487,4450.769230,4214.358974,4210.256410,4502.051282,4175.897435,4640.000000,3985.128206,3997.435898
199,4376.410256,4517.435897,4510.769230,4263.589743,4477.435897,4190.256410,4451.282051,4220.512820,4213.846153,4498.461538,4175.897435,4636.923076,3995.897436,4006.666666
200,4385.641025,4523.076923,4520.512820,4257.435897,4474.871794,4194.358974,4460.000000,4238.974358,4233.333333,4511.794871,4193.333333,4651.282051,4004.102564,4012.820512
201,4385.128205,4514.358974,4523.589743,4247.179487,4477.948717,4190.769230,4461.538461,4236.923076,4240.000000,4513.846153,4193.333333,4656.410256,3998.974359,4004.615384
202,4377.435897,4510.769230,4515.897435,4248.205128,4473.333333,4184.615384,4453.333333,4222.564102,4231.282051,4497.948717,4183.076923,4649.743589,3988.717949,4001.538461
203,4368.717948,4514.871794,4512.307692,4244.102564,4461.025641,4179.487179,4444.615384,4215.384615,4212.820512,4483.589743,4176.410256,4646.666666,3979.487180,4004.615384
204,4368.205128,4507.692307,4517.435897,4237.435897,4460.512820,4178.461538,4441.538461,4217.948717,4205.128205,4480.000000,4171.282051,4648.717948,3977.435898,4005.128205
205,4379.487179,4504.615384,4525.128205,4246.666666,4474.871794,4187.179487,4446.666666,4227.179487,4221.025641,4490.256410,4177.948717,4656.410256,3982.564103,4005.128205
206,4388.717948,4515.897435,4527.179487,4256.410256,4480.512820,4191.794871,4449.230769,4233.846153,4237.948717,4508.717948,4188.205128,4665.641025,3987.179488,4013.846153
207,4391.794871,4523.076923,4529.230769,4254.871794,4474.358974,4186.666666,4445.641025,4231.794871,4241.025641,4518.974358,4194.358974,4665.128205,3996.410257,4028.717948
208,4390.256410,4523.076923,4531.282051,4251.794871,4472.820512,4184.102564,4444.102564,4227.179487,4236.923076,4517.948717,4202.051282,4660.000000,4009.743589,4027.179487
209,4387.692307,4524.102564,4530.769230,4252.820512,4475.897435,4191.794871,4450.769230,4229.230769,4234.358974,4518.461538,4200.000000,4660.000000,4012.820512,4018.461538
210,4393.846153,4527.179487,4532.820512,4258.974358,4476.410256,4196.410256,4461.025641,4236.923076,4244.102564,4520.512820,4197.435897,4663.589743,4008.717948,4029.743589
211,4400.512820,4526.153846,4538.461538,4264.102564,4477.948717,4193.846153,4460.000000,4243.076923,4254.358974,4514.358974,4203.589743,4665.128205,4006.153846,4042.051282
212,4395.897435,4518.461538,4541.538461,4261.025641,4475.897435,4192.820512,4453.333333,4243.589743,4247.179487,4512.307692,4199.487179,4666.153846,4002.564102,4037.435897
213,4391.282051,4521.025641,4543.076923,4261.025641,4472.307692,4192.307692,4457.435897,4243.589743,4238.974358,4519.487179,4196.410256,4669.230769,4007.692307,4036.923076
214,4391.282051,4529.743589,4539.487179,4264.615384,4472.820512,4187.692307,4463.076923,4236.410256,4233.333333,4510.256410,4200.512820,4664.102564,4010.256410,4043.076923
215,4385.128205,4520.000000,4528.205128,4258.461538,4476.410256,4183.076923,4453.333333,4218.974358,4216.410256,4492.307692,4187.692307,4649.743589,3993.333334,4034.358974
216,4380.000000,4509.230769,4524.615384,4245.641025,4474.871794,4188.205128,4445.128205,4216.923076,4210.769230,4488.717948,4180.512820,4647.179487,3985.128206,4022.564102
217,4387.692307,4520.000000,4531.282051,4241.538461,4471.794871,4194.358974,4453.333333,4230.256410,4223.589743,4493.333333,4195.897435,4658.461538,4000.512820,4032.820512
218,4397.435897,4528.717948,4532.307692,4251.282051,4472.820512,4189.230769,4456.410256,4232.820512,4232.820512,4501.025641,4193.846153,4661.025641,4008.205128,4046.666666
219,4401.025641,4524.102564,4534.871794,4259.487179,4474.871794,4187.179487,4450.256410,4233.846153,4240.512820,4510.256410,4178.974358,4657.435897,4001.025641,4041.538461
220,4397.435897,4520.000000,4542.051282,4260.000000,4473.846153,4190.256410,4451.794871,4241.025641,4249.230769,4517.435897,4188.205128,4664.102564,3998.974359,4035.384615
221,4401.538461,4524.615384,4548.717948,4264.102564,4476.923076,4194.871794,4461.538461,4243.589743,4252.307692,4526.666666,4212.820512,4674.871794,4007.692307,4047.179487
222,4411.282051,4532.307692,4554.871794,4269.230769,4481.025641,4198.974358,4462.564102,4242.051282,4248.717948,4525.128205,4220.000000,4674.358974,4013.846153,4057.435897
223,4405.128205,4530.256410,4555.897435,4261.538461,4473.846153,4195.897435,4454.358974,4237.948717,4237.948717,4504.615384,4203.076923,4667.692307,4012.307692,4045.641025
224,4391.282051,4523.589743,4547.692307,4250.256410,4469.230769,4191.282051,4453.333333,4234.871794,4240.000000,4501.538461,4191.282051,4667.692307,4008.205128,4034.358974
225,4393.333333,4518.461538,4541.025641,4244.615384,4475.384615,4194.871794,4458.974358,4240.512820,4250.769230,4513.333333,4195.384615,4671.794871,4007.692307,4040.512820
226,4402.051282,4513.846153,4541.538461,4245.641025,4475.384615,4195.384615,4461.538461,4242.564102,4245.641025,4506.666666,4200.000000,4672.307692,4008.717948,4047.179487
227,4397.435897,4514.871794,4542.051282,4248.717948,4470.769230,4189.743589,4460.512820,4238.461538,4229.230769,4493.846153,4197.435897,4670.769230,4007.692307,4041.538461
228,4390.769230,4514.871794,4535.897435,4242.051282,4467.692307,4189.230769,4453.846153,4231.794871,4220.000000,4487.692307,4190.769230,4666.153846,3997.948718,4029.230769
229,4393.333333,4511.794871,4534.358974,4239.487179,4469.230769,4189.230769,4445.641025,4226.153846,4225.128205,4493.846153,4188.717948,4663.589743,3990.256411,4029.743589
230,4396.923076,4511.794871,4544.615384,4248.717948,4467.692307,4183.076923,4447.179487,4229.230769,4236.923076,4511.282051,4195.384615,4671.282051,3994.358975,4041.025641
231,4393.846153,4510.769230,4547.692307,4250.769230,4462.564102,4182.564102,4452.307692,4236.923076,4235.384615,4513.846153,4201.025641,4674.358974,3998.461539,4042.051282
232,4389.743589,4510.256410,4540.000000,4249.230769,4465.128205,4183.589743,4450.769230,4236.410256,4227.179487,4504.615384,4207.179487,4667.179487,4001.025641,4036.410256
233,4398.461538,4523.076923,4544.615384,4260.000000,4469.743589,4182.564102,4455.384615,4236.410256,4237.948717,4512.307692,4222.051282,4670.256410,4013.333333,4047.692307
234,4405.128205,4533.333333,4549.743589,4266.153846,4470.256410,4190.769230,4461.025641,4238.461538,4254.871794,4519.487179,4224.615384,4677.435897,4018.974358,4060.512820
235,4398.974358,4526.666666,4544.615384,4264.615384,4476.923076,4197.948717,4456.410256,4235.897435,4248.205128,4513.846153,4212.820512,4672.307692,4013.333333,4048.717948
236,4400.000000,4524.102564,4546.666666,4271.282051,4484.102564,4195.384615,4457.948717,4238.461538,4236.410256,4514.358974,4211.794871,4671.282051,4013.846153,4036.923076
237,4403.589743,4528.205128,4549.743589,4270.769230,4476.410256,4190.769230,4462.051282,4240.000000,4241.538461,4508.717948,4205.641025,4673.333333,4015.384615,4042.564102
238,4396.410256,4525.128205,4542.051282,4260.000000,4469.743589,4190.256410,4456.410256,4240.000000,4253.333333,4503.076923,4197.435897,4669.230769,4011.282051,4047.692307
239,4403.076923,4526.153846,4544.615384,4266.666666,4476.923076,4194.871794,4458.974358,4248.717948,4253.333333,4512.820512,4212.307692,4669.743589,4017.948717,4053.846153
240,4413.333333,4533.333333,4549.743589,4274.358974,4477.435897,4197.435897,4463.589743,4250.769230,4245.128205,4516.410256,4222.564102,4675.384615,4024.102564,4052.307692
241,4398.461538,4526.153846,4537.948717,4248.717948,4467.179487,4191.282051,4453.846153,4238.461538,4245.641025,4506.666666,4206.153846,4669.743589,4006.666666,4032.307692
242,4384.102564,4511.794871,4531.794871,4234.358974,4464.615384,4186.153846,4447.692307,4235.384615,4252.307692,4504.102564,4197.948717,4663.076923,3993.333334,4023.076923
243,4398.461538,4519.487179,4542.564102,4258.461538,4469.743589,4193.333333,4455.897435,4246.666666,4252.307692,4515.384615,4211.282051,4671.794871,4007.692307,4046.666666
244,4406.666666,4531.282051,4541.025641,4266.153846,4468.717948,4194.358974,4454.871794,4245.641025,4246.153846,4516.410256,4212.307692,4674.871794,4020.512820,4054.358974
245,4389.230769,4521.025641,4524.615384,4247.692307,4464.615384,4181.025641,4441.025641,4227.692307,4239.487179,4497.948717,4195.897435,4662.051282,4004.615384,4023.076923
246,4379.487179,4511.794871,4522.564102,4253.333333,4467.692307,4180.512820,4438.461538,4223.589743,4242.051282,4496.923076,4192.820512,4657.948717,3994.358975,4014.871794
247,4392.820512,4517.948717,4537.948717,4272.307692,4470.769230,4192.820512,4451.794871,4236.923076,4252.820512,4516.410256,4210.769230,4670.769230,4012.307692,4046.153846
248,4404.102564,4517.948717,4544.102564,4262.051282,4471.282051,4196.410256,4460.000000,4238.461538,4249.743589,4509.743589,4223.589743,4677.435897,4020.512820,4056.410256
249,4394.871794,4511.794871,4536.923076,4247.179487,4467.692307,4186.666666,4450.256410,4225.128205,4235.384615,4487.179487,4204.102564,4669.743589,4011.282051,4035.384615
250,4389.230769,4516.923076,4535.384615,4253.846153,4458.461538,4178.974358,4440.512820,4223.589743,4242.564102,4495.384615,4183.076923,4665.641025,4009.743589,4029.230769
251,4395.897435,4518.461538,4538.974358,4255.897435,4456.410256,4180.000000,4441.538461,4229.743589,4256.923076,4511.282051,4192.820512,4668.205128,4011.282051,4043.076923
252,4394.871794,4510.769230,4533.333333,4243.076923,4462.051282,4180.000000,4444.102564,4228.205128,4243.076923,4503.076923,4202.051282,4665.641025,4002.564102,4038.461538
253,4388.717948,4512.307692,4528.205128,4239.487179,4461.538461,4180.512820,4444.615384,4227.179487,4226.666666,4495.897435,4198.974358,4664.102564,3999.487180,4020.000000
254,4391.282051,4516.923076,4532.307692,4252.307692,4462.051282,4184.615384,4446.666666,4224.615384,4230.256410,4498.974358,4199.487179,4668.205128,4007.692307,4023.589743
255,4394.871794,4513.846153,4531.794871,4253.333333,4469.743589,4183.589743,4444.102564,4223.589743,4238.461538,4491.794871,4196.923076,4665.641025,4008.205128,4040.512820
256,4390.769230,4515.897435,4528.717948,4244.615384,4470.256410,4184.102564,4441.025641,4228.205128,4246.153846,4488.717948,4192.307692,4660.512820,3997.948718,4034.871794
257,4390.256410,4525.641025,4528.717948,4246.666666,4464.615384,4187.692307,4443.589743,4228.717948,4244.102564,4494.358974,4202.564102,4660.512820,3991.794872,4022.564102
258,4394.358974,4523.076923,4527.692307,4255.897435,4464.102564,4185.128205,4443.076923,4222.051282,4227.179487,4491.282051,4208.205128,4658.461538,3996.923077,4028.205128
259,4393.846153,4514.871794,4531.282051,4257.948717,4465.641025,4184.615384,4442.564102,4221.025641,4225.641025,4487.179487,4200.000000,4655.897435,4005.641025,4032.820512
