,AF3,F7,F3,FC5,T7,P7,O1,O2,P8,T8,FC6,F4,F8,AF4
0,4409.230769,4525.128205,4531.282051,4266.153846,4495.384615,4200.512820,4443.076923,4207.179487,4214.358974,4497.435897,4281.025641,4652.307692,3989.743590,4063.076923
1,4397.435897,4520.512820,4527.179487,4261.025641,4494.358974,4198.461538,4437.948717,4204.102564,4213.846153,4495.384615,4281.538461,4652.307692,3976.923077,4061.025641
2,4396.923076,4514.871794,4523.589743,4256.923076,4487.179487,4188.717948,4433.846153,4201.025641,4209.743589,4495.897435,4267.692307,4647.692307,3974.871795,4057.948717
3,4408.717948,4520.000000,4528.205128,4263.076923,4489.230769,4191.794871,4438.974358,4205.128205,4208.717948,4494.358974,4270.256410,4650.769230,3987.692308,4062.564102
4,4416.923076,4527.692307,4535.897435,4270.769230,4494.871794,4203.076923,4447.179487,4213.846153,4212.820512,4502.564102,4281.025641,4660.512820,3995.384616,4076.410256
5,4412.820512,4524.102564,4535.897435,4266.153846,4493.846153,4202.051282,4445.128205,4218.974358,4219.487179,4511.282051,4283.076923,4662.051282,3992.307693,4080.512820
6,4405.128205,4522.051282,4530.256410,4261.538461,4490.769230,4197.948717,4435.384615,4214.871794,4217.948717,4497.948717,4280.000000,4655.897435,3987.692308,4066.153846
7,4402.051282,4522.051282,4523.589743,4257.948717,4490.769230,4194.358974,4428.717948,4205.128205,4205.641025,4481.025641,4272.820512,4649.230769,3983.076924,4057.435897
8,4404.615384,4517.948717,4522.564102,4252.307692,4488.717948,4189.230769,4425.641025,4199.487179,4202.564102,4490.256410,4261.538461,4645.128205,3977.948718,4059.487179
9,4410.769230,4517.948717,4527.692307,4257.435897,4486.666666,4193.333333,4427.179487,4203.589743,4212.820512,4510.256410,4266.666666,4648.205128,3980.512821,4060.000000
10,4413.846153,4522.051282,4531.282051,4266.153846,4487.692307,4201.025641,4434.358974,4211.794871,4216.923076,4512.307692,4283.076923,4657.435897,3989.230770,4064.615384
11,4414.871794,4529.743589,4536.923076,4273.846153,4501.538461,4204.102564,4444.615384,4216.923076,4219.487179,4504.615384,4285.641025,4663.589743,3994.358975,4073.333333
12,4412.307692,4534.871794,4542.564102,4277.435897,4509.230769,4207.179487,4446.153846,4218.461538,4223.589743,4507.692307,4276.923076,4663.589743,3993.333334,4074.871794
13,4407.692307,4526.666666,4534.358974,4272.307692,4497.435897,4206.666666,4441.538461,4216.410256,4218.974358,4509.743589,4275.384615,4659.487179,3992.307693,4067.179487
14,4408.717948,4520.000000,4527.179487,4267.179487,4495.384615,4200.000000,4443.076923,4217.435897,4219.487179,4505.641025,4278.461538,4657.435897,3990.256411,4064.615384
15,4414.358974,4525.641025,4532.820512,4270.256410,4503.589743,4200.000000,4445.128205,4219.487179,4225.641025,4505.128205,4272.307692,4662.564102,3988.205129,4070.256410
16,4413.846153,4528.205128,4535.897435,4269.230769,4500.000000,4208.205128,4444.615384,4217.948717,4222.564102,4508.717948,4265.641025,4663.076923,3988.205129,4069.743589
17,4410.256410,4523.076923,4531.794871,4263.076923,4493.333333,4208.717948,4445.128205,4216.923076,4215.897435,4503.589743,4271.794871,4659.487179,3986.666667,4061.025641
18,4405.128205,4521.025641,4529.743589,4263.589743,4492.820512,4201.538461,4443.589743,4215.384615,4215.897435,4493.846153,4283.589743,4660.512820,3981.025642,4057.948717
19,4396.410256,4521.025641,4528.205128,4263.076923,4489.230769,4198.461538,4441.538461,4212.820512,4221.538461,4496.410256,4282.051282,4660.512820,3980.000000,4062.051282
20,4398.461538,4523.076923,4527.692307,4264.102564,4486.666666,4203.589743,4443.076923,4214.358974,4227.179487,4507.692307,4269.230769,4662.051282,3986.153847,4066.153846
21,4411.282051,4525.128205,4531.282051,4267.179487,4494.358974,4204.615384,4445.641025,4219.487179,4222.564102,4505.128205,4273.333333,4666.666666,3990.769231,4069.230769
22,4409.743589,4523.076923,4530.256410,4264.615384,4502.051282,4201.538461,4443.589743,4216.923076,4213.333333,4490.769230,4286.153846,4662.564102,3983.076924,4065.641025
23,4391.794871,4520.512820,4523.589743,4262.564102,4501.025641,4200.512820,4441.025641,4208.717948,4211.794871,4489.743589,4275.384615,4650.769230,3976.923077,4057.435897
24,4388.717948,4520.512820,4523.589743,4262.564102,4490.769230,4199.487179,4441.538461,4210.256410,4213.333333,4505.641025,4263.076923,4649.230769,3983.589744,4056.923076
25,4404.102564,4519.487179,4526.666666,4261.538461,4487.179487,4201.025641,4442.051282,4213.846153,4216.410256,4508.717948,4275.897435,4656.923076,3986.666667,4060.512820
26,4404.615384,4521.025641,4523.076923,4258.974358,4492.307692,4202.564102,4441.025641,4210.769230,4219.487179,4498.974358,4282.051282,4656.923076,3982.051283,4060.000000
27,4394.871794,4516.410256,4522.564102,4252.820512,4492.307692,4201.538461,4441.538461,4210.256410,4217.435897,4497.948717,4272.307692,4650.769230,3978.461539,4058.461538
28,4393.846153,4506.666666,4524.615384,4246.666666,4492.820512,4200.512820,4442.564102,4216.410256,4216.923076,4499.487179,4276.923076,4647.692307,3980.512821,4059.487179
29,4396.410256,4511.794871,4522.564102,4252.820512,4491.794871,4198.974358,4442.051282,4216.410256,4217.435897,4491.282051,4281.538461,4648.717948,3976.410257,4060.512820
30,4395.384615,4522.564102,4525.641025,4265.641025,4489.230769,4198.974358,4444.102564,4211.794871,4215.897435,4487.179487,4274.358974,4651.282051,3971.794872,4053.333333
31,4391.794871,4517.948717,4525.128205,4258.974358,4490.769230,4200.512820,4444.615384,4212.820512,4212.820512,4495.384615,4266.153846,4649.743589,3976.410257,4043.076923
32,4389.743589,4504.615384,4516.923076,4244.102564,4492.820512,4200.000000,4438.461538,4210.769230,4210.769230,4498.461538,4260.000000,4646.153846,3978.461539,4048.205128
33,4393.333333,4505.128205,4517.948717,4250.256410,4491.282051,4197.948717,4435.897435,4203.076923,4213.333333,4497.435897,4263.076923,4647.692307,3974.358975,4063.076923
34,4397.948717,4517.435897,4527.179487,4265.128205,4488.205128,4198.974358,4441.025641,4205.128205,4216.410256,4497.948717,4273.846153,4652.307692,3979.487180,4061.025641
35,4396.923076,4522.564102,4527.179487,4266.153846,4488.205128,4202.564102,4446.153846,4215.897435,4214.871794,4493.846153,4278.461538,4652.820512,3988.717949,4054.871794
36,4395.897435,4513.846153,4522.564102,4256.410256,4490.769230,4203.589743,4445.128205,4218.461538,4215.384615,4488.205128,4279.487179,4652.820512,3978.974359,4060.000000
37,4397.435897,4505.128205,4525.641025,4248.717948,4492.307692,4202.051282,4443.589743,4216.923076,4224.102564,4496.410256,4281.538461,4657.435897,3975.897436,4063.076923
38,4395.897435,4505.641025,4521.538461,4251.794871,4489.230769,4198.974358,4443.589743,4218.974358,4224.615384,4505.128205,4280.000000,4657.948717,3988.205129,4055.384615
39,4395.897435,4513.333333,4517.948717,4263.076923,4495.384615,4205.641025,4444.102564,4218.974358,4223.076923,4501.538461,4275.384615,4651.794871,3985.641026,4054.358974
40,4400.000000,4524.615384,4527.692307,4269.743589,4503.589743,4216.923076,4447.179487,4218.461538,4230.769230,4502.564102,4273.846153,4651.282051,3981.025642,4064.102564
41,4396.410256,4520.000000,4530.769230,4257.948717,4498.461538,4211.794871,4445.641025,4220.000000,4230.256410,4510.769230,4275.384615,4653.846153,3986.666667,4065.128205
42,4390.256410,4504.102564,4522.564102,4245.128205,4488.717948,4197.948717,4440.000000,4217.435897,4224.102564,4509.743589,4278.461538,4652.820512,3984.615385,4056.923076
43,4396.410256,4510.769230,4525.641025,4252.820512,4489.743589,4198.974358,4441.025641,4217.948717,4231.282051,4503.076923,4281.025641,4656.410256,3987.179488,4056.410256
44,4403.589743,4527.179487,4534.871794,4266.153846,4494.358974,4210.256410,4447.179487,4222.051282,4238.974358,4503.589743,4281.538461,4662.051282,3996.923077,4063.076923
45,4393.846153,4520.000000,4530.256410,4262.564102,4492.307692,4206.666666,4446.666666,4219.487179,4229.743589,4500.512820,4278.461538,4659.487179,3984.615385,4062.564102
46,4387.692307,4508.717948,4522.564102,4255.384615,4490.256410,4198.974358,4441.025641,4214.871794,4223.076923,4494.871794,4275.384615,4656.410256,3971.794872,4058.461538
47,4396.923076,4517.948717,4527.692307,4262.051282,4488.717948,4208.205128,4441.538461,4216.410256,4228.717948,4498.974358,4277.948717,4662.564102,3986.153847,4061.538461
48,4404.102564,4525.128205,4535.897435,4268.717948,4491.282051,4216.923076,4446.153846,4222.564102,4232.307692,4502.564102,4275.897435,4666.666666,3991.282052,4065.641025
49,4398.974358,4513.846153,4533.333333,4262.564102,4494.871794,4205.641025,4440.000000,4217.435897,4224.615384,4493.333333,4264.615384,4660.512820,3974.871795,4062.051282
50,4394.358974,4503.589743,4524.615384,4256.410256,4487.692307,4193.846153,4428.205128,4202.051282,4208.717948,4480.000000,4259.487179,4652.307692,3966.153847,4053.333333
51,4396.410256,4510.256410,4524.615384,4261.538461,4477.435897,4198.974358,4430.256410,4197.435897,4204.102564,4483.589743,4265.641025,4650.256410,3972.307693,4052.307692
52,4398.461538,4512.307692,4526.153846,4264.615384,4483.589743,4202.051282,4442.051282,4204.102564,4209.230769,4487.179487,4265.641025,4650.769230,3974.358975,4052.820512
53,4395.384615,4505.128205,4520.000000,4261.538461,4491.794871,4199.487179,4444.102564,4202.051282,4206.153846,4475.384615,4260.000000,4648.205128,3965.128206,4043.589743
54,4395.384615,4509.230769,4518.461538,4262.051282,4488.205128,4201.025641,4440.000000,4199.487179,4204.102564,4470.769230,4262.564102,4644.615384,3958.461539,4046.153846
55,4401.025641,4522.051282,4526.666666,4264.615384,4495.384615,4201.538461,4441.025641,4205.641025,4213.846153,4485.128205,4266.153846,4646.666666,3965.128206,4056.410256
56,4404.102564,4527.179487,4531.794871,4264.615384,4509.743589,4201.025641,4442.051282,4207.692307,4222.564102,4497.435897,4263.589743,4654.871794,3977.948718,4052.307692
57,4405.128205,4522.564102,4530.769230,4264.615384,4506.666666,4207.692307,4442.051282,4209.230769,4219.487179,4490.256410,4264.102564,4660.000000,3977.435898,4049.230769
58,4403.589743,4518.974358,4528.205128,4265.128205,4492.307692,4210.769230,4442.051282,4210.256410,4213.846153,4484.102564,4268.717948,4655.384615,3969.230770,4058.461538
59,4404.102564,4521.025641,4528.205128,4263.076923,4491.282051,4209.743589,4442.051282,4208.717948,4214.871794,4487.179487,4270.769230,4650.256410,3974.871795,4063.589743
60,4406.153846,4522.564102,4528.205128,4262.564102,4502.564102,4210.769230,4442.051282,4211.794871,4218.974358,4491.794871,4269.743589,4652.820512,3988.205129,4060.512820
61,4402.051282,4520.000000,4524.615384,4263.589743,4504.102564,4212.307692,4441.538461,4214.871794,4221.025641,4489.230769,4263.589743,4651.282051,3983.589744,4053.333333
62,4401.025641,4520.000000,4521.025641,4265.128205,4501.025641,4212.820512,4442.564102,4212.820512,4216.923076,4488.717948,4264.102564,4645.128205,3971.282052,4047.179487
63,4404.615384,4521.538461,4524.102564,4264.615384,4498.461538,4214.871794,4445.128205,4213.333333,4216.923076,4497.435897,4271.282051,4647.692307,3977.948718,4053.846153
64,4402.051282,4523.076923,4528.717948,4263.076923,4495.384615,4220.000000,4446.666666,4218.461538,4220.512820,4501.538461,4263.589743,4650.769230,3990.256411,4064.615384
65,4398.974358,4521.025641,4524.615384,4263.076923,4500.512820,4216.410256,4444.102564,4214.871794,4218.461538,4492.820512,4245.641025,4644.102564,3984.102565,4058.974358
66,4406.666666,4513.333333,4516.923076,4261.025641,4505.128205,4205.641025,4440.512820,4203.589743,4213.333333,4485.128205,4245.641025,4637.435897,3973.846154,4047.692307
67,4411.282051,4515.897435,4517.948717,4258.974358,4495.897435,4205.641025,4440.000000,4204.615384,4221.025641,4493.846153,4258.461538,4641.538461,3976.410257,4046.153846
68,4406.153846,4517.948717,4526.666666,4258.974358,4485.641025,4212.820512,4441.538461,4216.410256,4230.769230,4503.589743,4264.615384,4648.205128,3978.974359,4048.205128
69,4404.102564,4513.846153,4529.230769,4261.538461,4492.820512,4215.897435,4442.564102,4220.000000,4225.641025,4494.871794,4264.615384,4646.153846,3977.435898,4054.871794
70,4404.615384,4518.974358,4522.051282,4262.564102,4500.512820,4212.820512,4441.025641,4216.923076,4221.025641,4486.666666,4263.589743,4638.974358,3983.589744,4059.487179
71,4403.589743,4521.025641,4517.435897,4261.538461,4497.948717,4209.230769,4441.538461,4213.846153,4223.076923,4495.384615,4261.538461,4638.974358,3986.666667,4054.358974
72,4404.615384,4511.282051,4515.897435,4260.512820,4499.487179,4204.102564,4441.025641,4209.230769,4223.589743,4502.564102,4255.897435,4643.076923,3975.384616,4052.307692
73,4403.076923,4505.641025,4517.948717,4259.487179,4498.461538,4199.487179,4435.384615,4207.179487,4222.564102,4494.871794,4250.256410,4643.589743,3970.256411,4056.923076
74,4405.641025,4516.410256,4525.641025,4262.564102,4492.307692,4203.076923,4437.435897,4214.358974,4230.256410,4496.923076,4260.000000,4648.205128,3981.025642,4063.076923
75,4413.333333,4526.666666,4530.256410,4267.692307,4495.897435,4209.230769,4443.076923,4218.974358,4237.948717,4508.205128,4274.358974,4655.897435,3988.205129,4063.589743
76,4411.282051,4519.487179,4527.179487,4265.128205,4501.538461,4206.666666,4437.435897,4215.897435,4233.333333,4502.051282,4272.820512,4652.307692,3983.589744,4054.871794
77,4407.179487,4510.256410,4526.153846,4261.025641,4496.923076,4204.615384,4433.846153,4214.358974,4231.794871,4493.846153,4270.256410,4646.666666,3980.000000,4052.820512
78,4415.897435,4519.487179,4530.769230,4264.102564,4497.435897,4214.358974,4443.076923,4217.435897,4243.589743,4501.025641,4270.769230,4652.307692,3980.512821,4068.717948
79,4416.923076,4525.128205,4530.256410,4265.641025,4501.025641,4216.923076,4448.205128,4220.000000,4248.205128,4507.692307,4268.717948,4654.871794,3983.589744,4075.897435
80,4406.153846,4517.435897,4527.179487,4263.076923,4491.282051,4210.256410,4443.589743,4216.923076,4237.435897,4504.102564,4269.230769,4648.717948,3989.743590,4061.025641
81,4403.076923,4514.871794,4525.641025,4264.615384,4486.666666,4209.230769,4443.076923,4214.871794,4231.794871,4504.102564,4270.256410,4647.692307,3987.692308,4054.871794
82,4403.589743,4513.333333,4519.487179,4266.153846,4495.897435,4207.692307,4444.102564,4215.384615,4235.384615,4509.743589,4265.641025,4647.692307,3981.538462,4058.974358
83,4404.102564,4512.820512,4515.897435,4262.564102,4502.564102,4207.692307,4442.051282,4214.358974,4238.974358,4510.256410,4261.538461,4644.102564,3980.512821,4056.923076
84,4410.769230,4519.487179,4521.538461,4263.589743,4503.076923,4216.410256,4442.051282,4209.743589,4238.461538,4503.589743,4265.641025,4643.589743,3981.025642,4062.564102
85,4414.358974,4525.641025,4525.128205,4267.179487,4497.435897,4218.461538,4443.076923,4209.743589,4234.358974,4498.461538,4274.871794,4644.102564,3982.051283,4074.871794
86,4407.692307,4523.589743,4520.512820,4265.641025,4491.282051,4210.256410,4443.076923,4210.769230,4231.794871,4498.461538,4279.487179,4641.538461,3984.102565,4072.307692
87,4398.974358,4514.871794,4515.897435,4261.025641,4491.282051,4203.589743,4440.512820,4206.153846,4233.846153,4497.948717,4267.179487,4638.974358,3984.615385,4056.410256
88,4398.974358,4509.230769,4516.923076,4258.974358,4492.820512,4203.076923,4440.512820,4206.153846,4236.410256,4500.000000,4257.435897,4639.487179,3980.512821,4051.282051
89,4406.153846,4509.743589,4517.948717,4261.538461,4491.282051,4203.589743,4441.025641,4206.153846,4235.384615,4499.487179,4261.538461,4640.512820,3976.923077,4056.923076
90,4412.307692,4516.410256,4518.974358,4265.128205,4493.846153,4203.076923,4441.025641,4206.153846,4233.333333,4498.974358,4261.538461,4646.666666,3981.025642,4062.051282
91,4412.307692,4520.000000,4527.692307,4265.641025,4502.051282,4207.179487,4442.564102,4212.307692,4230.769230,4506.153846,4261.025641,4654.358974,3987.179488,4070.769230
92,4411.794871,4515.384615,4531.282051,4263.589743,4501.025641,4208.205128,4442.564102,4211.794871,4225.128205,4507.179487,4268.205128,4648.205128,3981.025642,4074.358974
93,4409.743589,4511.282051,4524.102564,4265.128205,4491.794871,4201.025641,4440.512820,4201.538461,4220.512820,4500.000000,4269.743589,4638.461538,3974.358975,4064.615384
94,4408.717948,4520.000000,4522.051282,4266.666666,4487.179487,4200.000000,4441.025641,4199.487179,4224.102564,4497.948717,4262.051282,4644.102564,3984.615385,4052.307692
95,4414.358974,4528.205128,4528.717948,4263.589743,4493.333333,4205.128205,4443.589743,4207.692307,4228.717948,4502.564102,4261.025641,4654.358974,3992.307693,4053.333333
96,4413.333333,4519.487179,4529.743589,4262.564102,4499.487179,4203.589743,4445.128205,4210.256410,4228.205128,4500.512820,4266.666666,4652.820512,3985.128206,4067.692307
97,4403.589743,4508.205128,4526.153846,4263.076923,4493.846153,4198.974358,4442.564102,4205.128205,4230.256410,4497.435897,4261.025641,4647.179487,3978.461539,4071.794871
98,4404.102564,4508.717948,4525.128205,4263.589743,4490.256410,4203.076923,4443.076923,4203.589743,4233.846153,4497.948717,4252.307692,4645.641025,3975.897436,4063.076923
99,4411.282051,4517.435897,4526.666666,4263.076923,4502.051282,4211.794871,4453.333333,4210.769230,4233.333333,4502.564102,4257.948717,4647.179487,3978.461539,4062.051282
100,4411.794871,4526.666666,4530.769230,4265.128205,4510.256410,4216.923076,4461.025641,4218.974358,4239.487179,4510.256410,4274.871794,4653.333333,3986.666667,4073.333333
101,4420.000000,4533.846153,4533.333333,4273.333333,4504.615384,4217.948717,4460.000000,4223.076923,4249.230769,4519.487179,4281.025641,4659.487179,3994.358975,4073.333333
102,4429.230769,4534.358974,4533.846153,4274.358974,4507.179487,4217.435897,4460.000000,4224.102564,4246.153846,4520.000000,4274.871794,4658.461538,3996.923077,4065.128205
103,4421.025641,4523.076923,4531.794871,4267.179487,4512.307692,4215.384615,4456.410256,4217.948717,4238.461538,4508.205128,4273.333333,4651.794871,3991.794872,4072.307692
104,4420.512820,4520.512820,4531.282051,4263.589743,4502.564102,4214.358974,4450.256410,4215.384615,4240.512820,4508.205128,4282.051282,4653.846153,3992.820513,4086.153846
105,4429.743589,4528.717948,4532.820512,4266.153846,4496.410256,4217.435897,4448.717948,4221.538461,4245.641025,4517.435897,4284.615384,4660.000000,4003.589743,4083.589743
106,4421.025641,4525.641025,4530.769230,4268.205128,4504.102564,4216.410256,4445.641025,4217.948717,4242.564102,4510.256410,4267.179487,4654.871794,4004.615384,4068.717948
107,4410.769230,4518.974358,4529.230769,4268.717948,4505.641025,4210.769230,4442.051282,4213.333333,4238.461538,4503.076923,4260.512820,4648.717948,3993.333334,4065.641025
108,4415.384615,4525.128205,4531.794871,4267.692307,4498.974358,4210.769230,4443.589743,4217.435897,4237.948717,4505.128205,4273.846153,4649.230769,3982.564103,4066.153846
109,4415.897435,4525.128205,4530.769230,4264.102564,4502.564102,4208.717948,4443.076923,4212.307692,4233.846153,4505.641025,4279.487179,4647.692307,3978.461539,4057.435897
110,4411.794871,4512.820512,4527.179487,4263.076923,4508.205128,4201.025641,4440.000000,4203.589743,4231.794871,4505.641025,4274.358974,4646.153846,3977.435898,4056.410256
111,4410.256410,4511.794871,4529.230769,4264.102564,4501.538461,4205.128205,4442.564102,4207.692307,4237.948717,4503.589743,4274.871794,4648.717948,3978.461539,4069.230769
112,4412.307692,4522.564102,4533.333333,4266.153846,4491.282051,4215.384615,4446.666666,4217.948717,4241.025641,4503.076923,4278.461538,4650.769230,3987.179488,4076.410256
113,4412.820512,4516.923076,4528.205128,4264.102564,4493.333333,4209.230769,4444.615384,4217.435897,4234.358974,4508.205128,4270.256410,4646.153846,3993.846154,4061.025641
114,4407.179487,4503.076923,4518.974358,4256.410256,4496.410256,4198.461538,4440.000000,4210.769230,4227.692307,4505.641025,4261.025641,4641.025641,3982.051283,4048.205128
115,4405.641025,4507.179487,4521.025641,4256.410256,4495.384615,4207.692307,4440.512820,4211.794871,4231.282051,4503.076923,4267.692307,4647.179487,3969.743590,4053.846153
116,4411.794871,4522.051282,4531.282051,4266.666666,4501.025641,4217.948717,4444.615384,4217.948717,4240.000000,4507.692307,4283.076923,4657.948717,3980.512821,4067.179487
117,4411.282051,4518.974358,4532.307692,4266.666666,4501.538461,4211.282051,4444.615384,4214.871794,4238.461538,4497.948717,4278.974358,4656.410256,3989.743590,4072.820512
118,4408.717948,4513.333333,4525.641025,4254.871794,4490.769230,4201.538461,4442.051282,4207.692307,4227.692307,4491.794871,4265.128205,4647.692307,3976.923077,4064.615384
119,4411.794871,4515.384615,4526.153846,4254.358974,4497.948717,4201.025641,4441.025641,4209.743589,4224.615384,4501.025641,4269.230769,4646.153846,3965.128206,4054.358974
120,4408.205128,4513.333333,4529.743589,4264.102564,4510.256410,4204.102564,4442.051282,4213.333333,4229.743589,4496.410256,4276.923076,4646.153846,3969.743590,4061.025641
121,4406.666666,4512.307692,4527.179487,4267.179487,4496.410256,4202.564102,4444.615384,4213.846153,4237.948717,4491.794871,4265.128205,4647.179487,3986.153847,4071.794871
122,4412.307692,4520.512820,4528.205128,4263.589743,4484.615384,4202.051282,4445.128205,4217.435897,4244.102564,4506.153846,4259.487179,4652.307692,3988.717949,4066.153846
123,4411.282051,4522.564102,4529.230769,4263.076923,4495.384615,4203.589743,4443.589743,4217.435897,4238.974358,4511.794871,4278.461538,4650.769230,3976.923077,4059.487179
124,4411.282051,4520.512820,4529.743589,4265.641025,4503.076923,4203.589743,4445.128205,4215.897435,4235.384615,4505.128205,4283.589743,4644.615384,3979.487180,4067.692307
125,4413.846153,4518.461538,4531.794871,4267.692307,4507.692307,4204.102564,4445.641025,4218.974358,4243.076923,4501.025641,4265.641025,4647.179487,3987.692308,4070.769230
126,4407.179487,4514.358974,4527.692307,4264.615384,4509.743589,4202.564102,4439.487179,4216.410256,4237.948717,4492.307692,4264.615384,4647.692307,3977.435898,4061.025641
127,4406.153846,4513.846153,4522.051282,4261.025641,4496.410256,4201.025641,4438.461538,4213.333333,4227.179487,4493.846153,4277.948717,4645.128205,3973.846154,4060.000000
128,4408.717948,4514.358974,4521.025641,4261.025641,4490.769230,4201.025641,4442.051282,4211.794871,4233.333333,4503.589743,4274.358974,4647.692307,3980.000000,4060.512820
129,4400.000000,4505.641025,4517.435897,4258.974358,4498.461538,4198.461538,4434.358974,4203.076923,4231.794871,4491.794871,4255.897435,4643.589743,3971.794872,4044.615384
130,4398.974358,4504.102564,4514.871794,4260.512820,4495.384615,4196.410256,4428.717948,4197.948717,4217.948717,4482.564102,4246.153846,4636.923076,3968.205129,4041.538461
131,4407.692307,4513.333333,4522.564102,4263.076923,4491.282051,4200.512820,4435.897435,4201.538461,4218.974358,4491.794871,4253.846153,4642.051282,3975.897436,4064.615384
132,4408.717948,4518.461538,4528.205128,4261.025641,4496.923076,4202.564102,4443.589743,4201.025641,4228.205128,4489.743589,4266.153846,4651.282051,3971.794872,4070.256410
133,4409.743589,4520.000000,4530.256410,4264.615384,4503.589743,4205.128205,4445.128205,4206.153846,4231.282051,4486.666666,4268.205128,4654.871794,3971.282052,4058.461538
134,4415.897435,4524.615384,4533.333333,4274.358974,4500.512820,4211.794871,4446.666666,4218.461538,4233.846153,4502.564102,4271.794871,4655.384615,3985.128206,4061.025641
135,4415.384615,4524.102564,4531.794871,4271.794871,4494.358974,4208.717948,4446.666666,4220.512820,4237.435897,4505.128205,4276.410256,4656.410256,3986.666667,4064.615384
136,4412.307692,4513.333333,4529.230769,4263.589743,4499.487179,4201.025641,4444.102564,4215.897435,4233.846153,4487.179487,4268.205128,4654.358974,3976.923077,4062.051282
137,4410.256410,4508.717948,4531.794871,4264.102564,4501.025641,4203.589743,4445.641025,4216.410256,4229.230769,4486.666666,4267.692307,4653.846153,3973.333334,4063.589743
138,4411.794871,4518.974358,4535.897435,4266.153846,4492.820512,4210.256410,4448.205128,4218.974358,4235.897435,4505.128205,4281.025641,4660.512820,3977.435898,4070.769230
139,4417.948717,4527.179487,4542.564102,4266.153846,4494.871794,4210.256410,4448.205128,4221.025641,4246.153846,4511.282051,4282.051282,4667.179487,3985.128206,4078.461538
140,4415.897435,4518.974358,4541.025641,4264.102564,4499.487179,4205.128205,4443.589743,4218.461538,4242.564102,4496.410256,4276.923076,4661.538461,3984.615385,4073.333333
141,4411.794871,4511.282051,4534.358974,4261.025641,4492.307692,4209.743589,4444.615384,4217.435897,4240.512820,4488.717948,4279.487179,4657.435897,3980.512821,4061.025641
142,4415.897435,4518.461538,4534.871794,4262.564102,4494.871794,4216.410256,4448.205128,4223.589743,4244.102564,4500.512820,4280.512820,4664.102564,3984.102565,4061.025641
143,4416.923076,4524.102564,4534.871794,4266.153846,4498.461538,4207.692307,4444.102564,4222.051282,4240.512820,4511.794871,4276.923076,4664.615384,3986.666667,4069.230769
144,4412.820512,4520.512820,4533.333333,4269.230769,4492.820512,4203.589743,4441.025641,4216.410256,4237.948717,4507.692307,4277.435897,4658.461538,3985.641026,4073.333333
145,4415.897435,4520.512820,4537.435897,4269.743589,4497.948717,4209.743589,4441.025641,4216.410256,4242.564102,4496.410256,4280.000000,4660.000000,3990.769231,4073.333333
146,4415.897435,4526.666666,4536.410256,4267.179487,4506.153846,4209.230769,4439.487179,4220.000000,4243.589743,4493.333333,4278.461538,4662.564102,3992.820513,4067.179487
147,4411.794871,4523.589743,4529.743589,4270.256410,4502.564102,4208.205128,4440.512820,4221.538461,4244.615384,4501.538461,4276.410256,4663.076923,3989.230770,4063.589743
148,4416.410256,4521.538461,4530.769230,4274.358974,4495.384615,4209.743589,4442.051282,4223.076923,4250.256410,4509.230769,4276.923076,4663.589743,3990.256411,4068.205128
149,4422.051282,4530.769230,4535.384615,4274.871794,4494.358974,4206.666666,4435.384615,4223.589743,4247.179487,4508.205128,4275.897435,4662.051282,3989.230770,4071.794871
150,4423.076923,4536.410256,4535.384615,4275.384615,4501.538461,4209.743589,4433.846153,4220.512820,4244.102564,4504.615384,4278.461538,4660.512820,3994.358975,4073.846153
151,4424.102564,4533.846153,4535.384615,4275.384615,4507.692307,4216.923076,4442.051282,4224.102564,4250.769230,4512.307692,4287.692307,4662.051282,4003.589743,4077.435897
152,4423.076923,4528.717948,4531.794871,4267.179487,4504.615384,4208.205128,4441.025641,4228.205128,4251.282051,4520.512820,4292.820512,4661.538461,3993.846154,4072.820512
153,4417.948717,4524.615384,4527.692307,4261.538461,4503.076923,4200.000000,4435.384615,4223.076923,4247.179487,4513.846153,4283.076923,4654.358974,3982.564103,4067.692307
154,4417.435897,4529.743589,4529.230769,4268.717948,4509.230769,4209.743589,4441.538461,4219.487179,4246.153846,4504.102564,4271.282051,4652.307692,3994.358975,4071.794871
155,4424.102564,4537.435897,4536.410256,4277.435897,4505.641025,4215.897435,4446.666666,4225.128205,4246.666666,4502.564102,4278.974358,4660.512820,4007.179487,4075.384615
156,4431.282051,4533.846153,4543.076923,4283.076923,4495.384615,4208.717948,4445.128205,4230.769230,4251.282051,4508.717948,4301.025641,4669.230769,3999.487180,4076.923076
157,4427.179487,4521.538461,4540.000000,4280.512820,4498.461538,4204.615384,4445.128205,4226.153846,4251.282051,4514.871794,4300.000000,4667.692307,3987.692308,4077.435897
158,4412.820512,4518.974358,4533.333333,4268.717948,4503.589743,4205.641025,4442.564102,4217.435897,4238.974358,4507.692307,4276.410256,4658.461538,3984.102565,4073.333333
159,4409.743589,4523.076923,4531.794871,4265.128205,4498.974358,4203.076923,4439.487179,4215.897435,4238.974358,4496.923076,4271.282051,4655.384615,3989.743590,4066.666666
160,4415.384615,4520.512820,4533.333333,4273.333333,4496.923076,4208.717948,4444.102564,4226.153846,4251.282051,4502.051282,4276.410256,4660.000000,3990.256411,4063.589743
161,4415.384615,4520.512820,4531.282051,4274.358974,4496.410256,4220.000000,4449.743589,4228.717948,4247.692307,4505.128205,4269.230769,4660.000000,3980.000000,4061.538461
162,4412.820512,4523.076923,4530.256410,4265.128205,4495.897435,4215.384615,4448.205128,4217.435897,4237.948717,4493.846153,4262.051282,4655.897435,3975.897436,4060.512820
163,4405.128205,4512.820512,4525.641025,4261.538461,4500.512820,4203.589743,4438.974358,4213.846153,4233.846153,4484.102564,4261.025641,4650.769230,3976.410257,4058.974358
164,4395.384615,4505.128205,4516.923076,4263.076923,4499.487179,4197.948717,4434.358974,4216.410256,4233.333333,4482.564102,4269.743589,4646.153846,3976.923077,4055.897435
165,4399.487179,4513.846153,4518.974358,4263.589743,4487.179487,4199.487179,4441.025641,4214.871794,4237.435897,4487.692307,4277.948717,4647.179487,3981.538462,4054.358974
166,4412.820512,4517.948717,4526.153846,4266.153846,4489.230769,4205.641025,4447.692307,4216.410256,4241.538461,4495.897435,4273.333333,4651.794871,3984.102565,4060.512820
167,4413.333333,4513.333333,4526.666666,4264.102564,4502.051282,4205.641025,4446.153846,4219.487179,4240.512820,4493.846153,4267.692307,4650.769230,3977.948718,4065.128205
168,4407.179487,4512.820512,4526.153846,4259.487179,4502.564102,4198.974358,4443.076923,4212.307692,4237.948717,4488.717948,4270.769230,4649.230769,3974.358975,4058.974358
169,4410.256410,4517.435897,4529.743589,4268.205128,4497.948717,4200.512820,4443.589743,4208.205128,4234.871794,4493.333333,4268.717948,4653.846153,3980.000000,4054.871794
170,4414.358974,4520.512820,4530.769230,4274.358974,4496.923076,4209.743589,4442.564102,4211.282051,4236.410256,4496.923076,4265.641025,4655.897435,3984.615385,4060.512820
171,4413.333333,4524.102564,4531.794871,4265.641025,4496.923076,4214.871794,4446.666666,4216.410256,4245.641025,4495.384615,4273.333333,4655.897435,3989.230770,4066.666666
172,4414.871794,4526.666666,4536.923076,4265.128205,4501.025641,4217.435897,4456.923076,4226.666666,4251.282051,4494.358974,4276.923076,4658.461538,3992.307693,4067.692307
173,4414.358974,4521.538461,4535.897435,4271.282051,4507.692307,4213.333333,4455.384615,4227.692307,4245.641025,4492.307692,4266.153846,4655.897435,3982.051283,4062.051282
174,4409.743589,4509.743589,4528.717948,4267.179487,4501.538461,4204.102564,4442.051282,4216.410256,4237.948717,4492.307692,4259.487179,4649.743589,3971.794872,4053.846153
175,4409.743589,4510.256410,4528.205128,4265.641025,4488.205128,4206.153846,4446.153846,4219.487179,4242.564102,4501.025641,4272.307692,4655.897435,3981.025642,4053.846153
176,4410.256410,4520.000000,4532.820512,4270.256410,4487.179487,4213.333333,4460.512820,4229.230769,4252.307692,4502.564102,4278.974358,4669.743589,3989.230770,4059.487179
177,4407.179487,4513.846153,4534.358974,4268.205128,4493.333333,4213.846153,4454.358974,4222.051282,4248.717948,4500.512820,4270.256410,4669.230769,3983.076924,4063.589743
178,4404.102564,4502.564102,4529.743589,4263.589743,4498.461538,4213.846153,4444.615384,4215.384615,4243.589743,4500.512820,4264.102564,4657.435897,3981.025642,4067.179487
179,4398.974358,4506.153846,4521.025641,4263.076923,4500.000000,4211.794871,4445.128205,4218.974358,4246.666666,4495.384615,4255.384615,4648.717948,3983.589744,4058.461538
180,4399.487179,4515.897435,4521.538461,4262.051282,4492.307692,4203.076923,4443.076923,4223.076923,4248.205128,4498.461538,4257.948717,4647.692307,3975.897436,4042.564102
181,4405.128205,4518.974358,4524.615384,4262.051282,4485.641025,4200.512820,4441.538461,4228.205128,4249.743589,4507.692307,4275.897435,4652.820512,3971.794872,4045.128205
182,4400.000000,4512.307692,4519.487179,4262.564102,4495.897435,4211.794871,4444.102564,4226.666666,4251.794871,4503.589743,4276.923076,4652.307692,3982.051283,4060.512820
183,4392.307692,4505.128205,4516.410256,4262.051282,4503.589743,4212.820512,4442.564102,4214.871794,4244.102564,4492.820512,4260.512820,4644.102564,3984.615385,4056.410256
184,4399.487179,4506.666666,4520.000000,4265.641025,4494.358974,4203.589743,4441.538461,4207.692307,4235.384615,4496.923076,4256.410256,4644.615384,3975.897436,4042.564102
185,4405.128205,4509.230769,4520.000000,4265.641025,4486.666666,4205.641025,4443.589743,4203.589743,4229.743589,4491.794871,4252.820512,4650.769230,3972.307693,4044.102564
186,4400.000000,4505.128205,4517.435897,4261.538461,4487.179487,4211.282051,4442.564102,4198.974358,4224.102564,4473.333333,4242.051282,4648.205128,3975.384616,4051.282051
187,4395.897435,4510.256410,4517.435897,4261.538461,4490.769230,4209.743589,4443.076923,4209.743589,4235.897435,4482.051282,4248.717948,4643.076923,3976.923077,4050.769230
188,4395.897435,4516.923076,4516.923076,4264.615384,4497.948717,4212.307692,4446.666666,4223.076923,4251.794871,4505.641025,4256.410256,4640.000000,3981.025642,4048.717948
189,4402.051282,4511.794871,4517.435897,4265.128205,4496.923076,4219.487179,4446.153846,4222.051282,4250.256410,4512.307692,4254.871794,4639.487179,3986.666667,4048.717948
190,4410.256410,4510.769230,4520.512820,4263.589743,4492.820512,4219.487179,4446.666666,4225.128205,4253.846153,4514.358974,4258.461538,4648.205128,3990.256411,4051.282051
191,4413.333333,4514.871794,4528.717948,4261.025641,4501.538461,4214.871794,4447.692307,4232.307692,4265.641025,4520.512820,4259.487179,4659.487179,3996.410257,4057.435897
192,4410.769230,4513.333333,4534.871794,4265.641025,4501.538461,4211.282051,4443.589743,4226.666666,4258.461538,4518.461538,4260.000000,4660.512820,3997.435898,4062.051282
193,4406.153846,4510.769230,4535.384615,4275.384615,4489.230769,4212.307692,4448.717948,4222.051282,4250.769230,4511.794871,4268.717948,4659.487179,3992.307693,4062.051282
194,4405.128205,4512.820512,4537.948717,4273.846153,4491.794871,4220.000000,4458.974358,4231.794871,4260.000000,4510.256410,4272.307692,4664.615384,3988.717949,4060.000000
195,4412.307692,4519.487179,4540.000000,4271.282051,4497.435897,4222.051282,4462.564102,4237.435897,4266.153846,4510.769230,4268.717948,4666.666666,3991.282052,4062.051282
196,4420.000000,4522.564102,4535.384615,4272.307692,4490.769230,4214.871794,4455.897435,4232.820512,4262.564102,4511.794871,4265.128205,4660.512820,3994.871795,4065.128205
197,4415.384615,4513.846153,4527.692307,4269.743589,4489.743589,4208.205128,4445.641025,4229.743589,4260.000000,4510.256410,4258.461538,4651.794871,3990.769231,4068.717948
198,4413.846153,4509.230769,4529.743589,4271.794871,4502.564102,4211.794871,4446.153846,4230.256410,4262.051282,4513.846153,4267.179487,4657.435897,3992.307693,4070.769230
199,4416.410256,4518.974358,4534.358974,4273.846153,4505.641025,4220.000000,4457.435897,4228.717948,4263.076923,4523.589743,4289.743589,4668.205128,4002.564102,4065.641025
200,4411.794871,4518.974358,4533.333333,4272.820512,4493.333333,4218.974358,4458.974358,4220.512820,4253.333333,4516.410256,4285.641025,4665.641025,3996.410257,4061.538461
201,4414.358974,4515.384615,4536.923076,4274.358974,4495.384615,4214.871794,4453.333333,4216.923076,4243.076923,4500.512820,4263.076923,4662.564102,3980.512821,4070.769230
202,4428.717948,4523.589743,4544.102564,4274.358974,4509.743589,4217.435897,4458.461538,4223.589743,4247.179487,4504.102564,4263.076923,4663.076923,3986.153847,4083.076923
203,4426.153846,4525.128205,4538.461538,4270.769230,4500.512820,4219.487179,4457.948717,4228.205128,4254.358974,4513.333333,4278.974358,4656.923076,3996.410257,4076.923076
204,4409.743589,4517.948717,4528.205128,4273.333333,4484.615384,4215.897435,4447.179487,4229.743589,4257.948717,4513.846153,4272.820512,4651.794871,3995.897436,4062.051282
205,4416.923076,4522.051282,4530.256410,4278.974358,4492.820512,4215.384615,4445.128205,4235.384615,4270.769230,4523.589743,4262.051282,4659.487179,4008.205128,4069.230769
206,4434.358974,4535.897435,4538.461538,4281.538461,4506.666666,4218.974358,4449.743589,4238.974358,4283.589743,4537.948717,4282.051282,4666.153846,4024.102564,4088.717948
207,4425.128205,4529.743589,4533.846153,4275.897435,4505.641025,4213.846153,4446.153846,4229.743589,4274.358974,4527.179487,4293.333333,4659.487179,4012.820512,4084.102564
208,4407.179487,4507.179487,4523.076923,4261.538461,4493.333333,4204.615384,4439.487179,4224.102564,4261.538461,4511.794871,4267.692307,4650.256410,3995.897436,4062.051282
209,4408.717948,4504.102564,4525.641025,4261.538461,4488.205128,4204.102564,4443.076923,4228.205128,4261.538461,4518.974358,4261.538461,4652.307692,3998.974359,4062.564102
210,4409.743589,4514.871794,4534.358974,4268.205128,4493.333333,4205.128205,4442.051282,4227.692307,4260.512820,4521.538461,4284.102564,4658.461538,4001.025641,4070.769230
211,4404.102564,4508.205128,4531.282051,4262.564102,4492.307692,4200.000000,4429.743589,4219.487179,4252.307692,4508.205128,4283.589743,4656.410256,3988.717949,4068.205128
212,4411.282051,4507.179487,4527.179487,4263.076923,4491.282051,4197.948717,4426.153846,4221.025641,4253.333333,4513.333333,4270.769230,4656.923076,3987.179488,4069.230769
213,4414.871794,4520.512820,4528.717948,4270.769230,4501.538461,4202.564102,4430.769230,4228.205128,4259.487179,4524.615384,4266.153846,4657.948717,4002.564102,4064.102564
214,4403.589743,4518.974358,4526.153846,4269.743589,4503.589743,4203.076923,4435.897435,4224.615384,4254.871794,4514.358974,4262.051282,4650.769230,4004.102564,4049.230769
215,4394.358974,4507.692307,4519.487179,4262.564102,4493.846153,4205.641025,4443.076923,4218.461538,4248.717948,4503.076923,4265.128205,4644.102564,3985.641026,4045.641025
216,4391.282051,4504.615384,4512.307692,4256.410256,4486.153846,4209.230769,4444.615384,4213.333333,4244.615384,4503.589743,4260.512820,4640.512820,3973.333334,4047.179487
217,4389.230769,4504.102564,4507.692307,4257.435897,4492.307692,4205.641025,4437.435897,4202.564102,4237.435897,4497.435897,4244.102564,4634.358974,3975.384616,4041.538461
218,4392.307692,4507.179487,4511.282051,4262.051282,4505.641025,4204.102564,4431.282051,4197.435897,4229.230769,4490.769230,4244.615384,4633.333333,3972.307693,4037.948717
219,4401.538461,4517.948717,4521.025641,4264.102564,4507.692307,4210.769230,4432.307692,4205.641025,4234.871794,4498.974358,4261.025641,4644.102564,3968.717949,4045.641025
220,4413.333333,4527.692307,4530.256410,4270.769230,4503.589743,4215.384615,4440.000000,4217.948717,4255.384615,4510.256410,4267.179487,4653.846153,3986.153847,4061.538461
221,4416.410256,4533.846153,4533.333333,4281.025641,4506.666666,4215.384615,4447.179487,4222.564102,4264.102564,4515.384615,4264.102564,4654.358974,4005.128205,4072.307692
222,4410.769230,4538.974358,4532.307692,4283.589743,4509.230769,4218.974358,4448.205128,4222.564102,4257.948717,4522.051282,4265.128205,4655.897435,4004.102564,4066.666666
223,4409.743589,4535.384615,4533.333333,4275.384615,4506.153846,4216.410256,4444.102564,4213.846153,4248.717948,4518.461538,4267.692307,4660.512820,3994.358975,4061.538461
224,4405.641025,4518.461538,4530.769230,4266.153846,4500.000000,4204.615384,4435.897435,4199.487179,4236.410256,4498.974358,4268.205128,4656.410256,3983.076924,4066.153846
225,4393.846153,4503.076923,4522.051282,4261.025641,4490.769230,4199.487179,4428.717948,4202.051282,4229.230769,4487.179487,4266.666666,4647.692307,3975.384616,4062.564102
226,4392.820512,4509.230769,4520.512820,4261.025641,4488.205128,4198.974358,4429.743589,4215.384615,4236.923076,4496.410256,4259.487179,4648.717948,3977.435898,4048.717948
227,4403.076923,4523.076923,4529.230769,4267.692307,4491.282051,4200.512820,4431.282051,4219.487179,4248.205128,4506.666666,4257.435897,4657.948717,3984.615385,4047.179487
228,4411.282051,4523.076923,4533.333333,4277.948717,4491.794871,4203.076923,4430.769230,4224.102564,4256.410256,4510.769230,4270.256410,4663.589743,3994.871795,4063.589743
229,4413.846153,4518.461538,4530.769230,4276.410256,4495.384615,4204.102564,4432.820512,4231.282051,4264.102564,4518.974358,4277.435897,4662.051282,4002.051282,4076.923076
230,4412.820512,4524.615384,4531.794871,4266.666666,4497.435897,4202.051282,4429.743589,4222.564102,4261.538461,4521.538461,4269.230769,4658.461538,4000.512820,4078.974358
231,4412.820512,4527.179487,4531.282051,4268.205128,4492.307692,4201.538461,4422.051282,4204.615384,4248.205128,4511.794871,4261.538461,4658.461538,3995.897436,4072.307692
232,4415.384615,4520.512820,4527.692307,4271.282051,4490.256410,4198.974358,4421.025641,4200.512820,4241.025641,4504.615384,4265.641025,4661.025641,3988.717949,4060.512820
233,4410.256410,4511.794871,4527.692307,4265.128205,4490.256410,4188.717948,4425.128205,4204.102564,4236.410256,4497.435897,4267.179487,4658.461538,3979.487180,4053.333333
234,4394.871794,4504.102564,4525.128205,4259.487179,4489.743589,4188.205128,4426.153846,4200.000000,4230.256410,4483.589743,4257.948717,4651.794871,3974.871795,4047.692307
235,4386.153846,4503.076923,4517.435897,4255.897435,4488.205128,4198.461538,4431.794871,4200.512820,4231.794871,4487.692307,4249.230769,4648.205128,3971.794872,4045.641025
236,4391.794871,4505.128205,4519.487179,4255.897435,4486.666666,4203.076923,4443.589743,4210.256410,4243.076923,4506.153846,4251.794871,4648.717948,3968.205129,4051.794871
237,4405.128205,4508.717948,4528.205128,4263.076923,4486.153846,4198.974358,4448.205128,4211.794871,4248.205128,4501.538461,4252.307692,4652.820512,3975.897436,4053.333333
238,4412.307692,4511.282051,4527.692307,4266.666666,4490.256410,4205.641025,4445.641025,4208.205128,4244.102564,4489.743589,4248.717948,4654.871794,3988.205129,4053.333333
239,4407.179487,4507.692307,4525.128205,4263.076923,4498.461538,4216.410256,4447.179487,4213.333333,4244.615384,4500.512820,4255.384615,4654.871794,3983.589744,4064.102564
240,4398.461538,4506.666666,4523.589743,4260.512820,4500.000000,4211.282051,4447.179487,4218.974358,4247.692307,4507.692307,4264.615384,4653.333333,3973.846154,4063.589743
241,4400.000000,4516.923076,4522.564102,4262.564102,4494.871794,4206.153846,4443.589743,4221.538461,4247.179487,4497.435897,4268.205128,4654.871794,3981.538462,4048.717948
242,4406.153846,4527.179487,4526.666666,4270.256410,4491.794871,4212.820512,4445.128205,4229.743589,4253.333333,4498.974358,4271.282051,4661.025641,3986.666667,4048.717948
243,4413.333333,4528.205128,4532.820512,4277.435897,4492.307692,4220.512820,4448.717948,4236.923076,4265.128205,4515.384615,4270.769230,4667.179487,3979.487180,4065.641025
244,4416.410256,4525.641025,4532.307692,4276.923076,4497.948717,4215.897435,4448.205128,4230.256410,4265.641025,4512.820512,4266.153846,4666.666666,3985.128206,4070.769230
245,4404.102564,4522.051282,4528.717948,4269.230769,4500.000000,4205.128205,4443.589743,4216.410256,4253.333333,4496.923076,4267.179487,4658.461538,3990.256411,4056.923076
246,4393.333333,4522.051282,4528.205128,4262.564102,4493.333333,4199.487179,4442.051282,4215.384615,4253.333333,4504.102564,4270.256410,4654.871794,3982.564103,4051.794871
247,4401.025641,4519.487179,4531.282051,4262.051282,4487.179487,4202.564102,4446.666666,4227.179487,4262.051282,4523.076923,4269.743589,4662.051282,3989.230770,4063.076923
248,4403.076923,4513.846153,4527.179487,4263.076923,4488.717948,4204.615384,4447.179487,4228.205128,4251.794871,4514.358974,4263.589743,4660.512820,3989.230770,4054.871794
249,4394.871794,4517.435897,4518.461538,4262.564102,4489.743589,4200.000000,4442.564102,4216.410256,4233.846153,4491.282051,4249.743589,4645.128205,3965.641026,4034.358974
250,4395.384615,4517.435897,4517.435897,4259.487179,4492.307692,4201.025641,4447.692307,4216.410256,4233.846153,4482.564102,4239.487179,4639.487179,3961.025642,4037.948717
251,4391.794871,4506.666666,4519.487179,4254.871794,4494.358974,4204.615384,4454.871794,4220.000000,4237.948717,4479.487179,4240.000000,4644.102564,3976.923077,4048.205128
252,4383.076923,4509.230769,4517.948717,4254.871794,4490.256410,4202.564102,4449.230769,4211.282051,4228.717948,4475.897435,4242.051282,4642.564102,3971.794872,4042.051282
253,4388.205128,4523.589743,4516.410256,4261.538461,4488.717948,4201.025641,4443.589743,4201.538461,4225.641025,4476.923076,4249.230769,4641.025641,3961.025642,4040.000000
254,4397.948717,4525.128205,4522.051282,4268.717948,4496.923076,4203.589743,4443.589743,4200.000000,4238.461538,4482.051282,4261.025641,4648.205128,3967.692308,4048.717948
255,4397.948717,4522.051282,4528.205128,4275.384615,4499.487179,4202.564102,4436.923076,4200.000000,4241.025641,4489.230769,4253.846153,4653.846153,3975.897436,4046.666666
