,AF3,F7,F3,FC5,T7,P7,O1,O2,P8,T8,FC6,F4,F8,AF4
0,4409.743589,4455.384615,4535.897435,4257.948717,4502.051282,4198.461538,4446.153846,4213.846153,4241.538461,4500.000000,4221.538461,4646.666666,3992.820513,4062.564102
1,4411.794871,4463.589743,4540.512820,4265.128205,4507.179487,4200.000000,4447.692307,4214.871794,4232.820512,4503.589743,4224.615384,4650.256410,3996.410257,4066.153846
2,4409.230769,4467.692307,4541.538461,4266.666666,4510.769230,4202.564102,4444.615384,4214.871794,4229.743589,4504.615384,4220.000000,4648.205128,3994.871795,4068.205128
3,4401.025641,4462.564102,4532.820512,4248.205128,4506.666666,4197.435897,4438.974358,4211.794871,4233.333333,4498.461538,4210.256410,4641.025641,3995.897436,4062.564102
4,4402.564102,4463.589743,4529.230769,4245.641025,4501.538461,4193.846153,4445.641025,4221.538461,4240.512820,4498.461538,4217.948717,4646.666666,3998.974359,4063.589743
5,4415.384615,4468.717948,4537.948717,4263.589743,4503.076923,4199.487179,4454.358974,4233.333333,4244.615384,4508.717948,4231.282051,4657.435897,3998.974359,4072.307692
6,4416.923076,4464.102564,4538.461538,4261.538461,4507.179487,4197.435897,4452.307692,4228.717948,4238.974358,4507.692307,4220.512820,4653.846153,3996.923077,4068.205128
7,4404.615384,4453.846153,4528.717948,4246.153846,4507.692307,4192.820512,4444.615384,4221.025641,4234.358974,4491.794871,4203.589743,4641.538461,3987.692308,4056.410256
8,4397.948717,4455.384615,4528.205128,4252.820512,4503.076923,4196.410256,4442.051282,4222.564102,4240.512820,4494.871794,4209.230769,4638.974358,3979.487180,4053.846153
9,4403.076923,4467.179487,4537.948717,4265.641025,4502.051282,4203.076923,4448.717948,4225.641025,4247.692307,4521.025641,4225.128205,4649.743589,3991.794872,4058.974358
10,4417.948717,4474.358974,4547.179487,4266.153846,4511.282051,4206.153846,4457.435897,4229.743589,4254.358974,4532.307692,4237.435897,4659.487179,4010.256410,4066.666666
11,4425.641025,4472.307692,4547.179487,4266.666666,4515.897435,4207.692307,4460.512820,4234.358974,4258.974358,4520.512820,4240.512820,4661.025641,4008.717948,4076.923076
12,4413.333333,4469.230769,4539.487179,4266.666666,4516.410256,4207.692307,4457.435897,4233.333333,4253.333333,4512.307692,4224.615384,4654.871794,4000.512820,4076.410256
13,4410.769230,4470.256410,4537.948717,4266.666666,4518.974358,4203.076923,4456.923076,4230.769230,4244.615384,4514.871794,4207.179487,4655.897435,4007.179487,4065.128205
14,4416.923076,4473.333333,4540.000000,4266.153846,4514.871794,4203.076923,4454.358974,4228.205128,4238.974358,4515.384615,4220.512820,4659.487179,4014.871794,4059.487179
15,4403.589743,4468.717948,4534.871794,4257.948717,4505.128205,4199.487179,4448.205128,4218.974358,4236.923076,4507.692307,4236.410256,4650.256410,4003.589743,4058.974358
16,4390.256410,4456.923076,4527.692307,4244.102564,4500.512820,4188.717948,4440.512820,4209.743589,4229.230769,4492.307692,4215.384615,4636.410256,3982.564103,4052.820512
17,4392.820512,4447.179487,4522.564102,4238.974358,4500.000000,4181.538461,4432.820512,4203.076923,4222.051282,4476.923076,4186.153846,4630.769230,3967.692308,4043.076923
18,4393.333333,4447.179487,4517.948717,4242.564102,4495.897435,4181.538461,4427.179487,4198.461538,4222.051282,4480.512820,4188.717948,4630.769230,3965.641026,4032.820512
19,4391.282051,4453.333333,4517.435897,4246.666666,4495.897435,4184.102564,4429.743589,4199.487179,4221.538461,4495.897435,4209.230769,4630.256410,3973.846154,4027.692307
20,4396.410256,4455.897435,4525.641025,4248.717948,4500.512820,4186.153846,4435.384615,4206.153846,4222.564102,4503.076923,4216.923076,4636.923076,3987.179488,4041.538461
21,4394.358974,4456.410256,4529.230769,4251.282051,4504.102564,4182.051282,4432.307692,4206.666666,4231.794871,4500.512820,4211.794871,4642.564102,3992.820513,4055.384615
22,4390.256410,4459.487179,4523.076923,4252.307692,4503.589743,4180.512820,4429.230769,4205.128205,4234.358974,4495.897435,4209.743589,4639.487179,3987.179488,4047.179487
23,4394.871794,4458.461538,4521.025641,4247.179487,4502.564102,4189.743589,4435.384615,4212.820512,4228.205128,4494.871794,4213.333333,4636.923076,3986.153847,4036.410256
24,4404.615384,4460.512820,4531.282051,4250.769230,4506.666666,4194.871794,4445.128205,4220.512820,4230.256410,4498.974358,4208.717948,4644.102564,3994.358975,4046.153846
25,4412.307692,4473.846153,4541.538461,4265.641025,4513.333333,4194.871794,4447.692307,4221.025641,4237.435897,4500.512820,4207.692307,4650.256410,4001.025641,4058.974358
26,4406.666666,4473.846153,4537.435897,4264.102564,4514.358974,4197.948717,4446.666666,4223.589743,4237.948717,4505.641025,4223.076923,4649.743589,3998.461539,4056.410256
27,4397.435897,4465.641025,4531.282051,4248.205128,4506.666666,4196.410256,4446.666666,4223.076923,4238.461538,4511.794871,4229.743589,4646.666666,3993.846154,4048.717948
28,4404.615384,4474.871794,4533.846153,4253.333333,4501.025641,4193.846153,4445.641025,4216.410256,4238.461538,4504.102564,4213.333333,4642.051282,3991.282052,4049.230769
29,4411.282051,4480.512820,4534.358974,4267.692307,4505.641025,4201.025641,4447.179487,4217.435897,4237.435897,4496.410256,4198.461538,4637.948717,3986.666667,4052.307692
30,4401.025641,4470.256410,4529.743589,4258.461538,4508.717948,4204.102564,4447.179487,4221.025641,4238.461538,4494.358974,4192.307692,4634.871794,3981.538462,4046.153846
31,4391.282051,4463.076923,4527.692307,4244.615384,4505.128205,4195.384615,4443.076923,4214.358974,4232.307692,4489.230769,4193.333333,4629.743589,3977.948718,4035.897435
32,4395.897435,4467.179487,4530.769230,4251.794871,4506.666666,4194.358974,4443.589743,4208.717948,4229.230769,4493.333333,4209.230769,4634.871794,3982.051283,4036.410256
33,4406.153846,4478.461538,4537.435897,4265.128205,4516.410256,4199.487179,4451.794871,4215.384615,4237.435897,4500.512820,4215.897435,4647.692307,3989.743590,4049.743589
34,4410.769230,4479.487179,4542.051282,4266.666666,4521.025641,4198.974358,4450.769230,4220.000000,4237.948717,4495.897435,4204.615384,4648.205128,3990.769231,4058.461538
35,4408.205128,4470.769230,4538.974358,4261.025641,4519.487179,4195.384615,4444.102564,4213.846153,4229.743589,4496.410256,4205.128205,4640.000000,3990.769231,4053.333333
36,4410.256410,4478.974358,4538.974358,4261.538461,4520.000000,4199.487179,4451.794871,4215.897435,4232.307692,4504.615384,4214.358974,4643.589743,3997.435898,4048.205128
37,4410.256410,4489.230769,4543.589743,4264.615384,4518.974358,4206.153846,4462.564102,4229.743589,4244.102564,4501.538461,4214.358974,4649.743589,3998.461539,4050.256410
38,4404.102564,4477.435897,4541.025641,4265.641025,4512.820512,4203.076923,4461.025641,4234.358974,4245.128205,4497.948717,4208.717948,4646.153846,3989.230770,4050.769230
39,4403.076923,4467.179487,4533.333333,4261.538461,4505.641025,4193.846153,4450.256410,4224.615384,4236.923076,4500.512820,4206.666666,4641.025641,3984.102565,4050.256410
40,4400.000000,4462.564102,4531.282051,4253.333333,4502.051282,4191.282051,4440.000000,4217.435897,4231.282051,4500.000000,4204.102564,4637.948717,3984.615385,4047.179487
41,4393.333333,4462.051282,4530.256410,4247.179487,4502.051282,4192.820512,4438.461538,4216.923076,4234.358974,4496.410256,4201.538461,4634.871794,3983.589744,4034.871794
42,4396.923076,4472.820512,4529.743589,4249.743589,4507.179487,4188.205128,4442.051282,4216.410256,4239.487179,4496.410256,4201.025641,4635.384615,3982.051283,4032.307692
43,4402.051282,4483.589743,4533.333333,4256.923076,4514.358974,4183.076923,4445.128205,4220.512820,4237.435897,4498.974358,4207.179487,4640.000000,3983.589744,4042.051282
44,4401.538461,4485.641025,4536.410256,4261.538461,4518.974358,4188.717948,4447.179487,4226.153846,4240.512820,4504.615384,4216.923076,4643.076923,3993.846154,4046.666666
45,4408.205128,4483.589743,4534.871794,4262.564102,4521.538461,4189.743589,4451.794871,4229.230769,4254.358974,4514.871794,4223.076923,4645.641025,4005.641025,4048.717948
46,4414.358974,4480.512820,4535.384615,4263.589743,4520.000000,4181.025641,4452.307692,4231.794871,4261.025641,4523.076923,4224.102564,4647.692307,4005.641025,4054.358974
47,4416.923076,4483.076923,4542.051282,4265.128205,4518.974358,4174.358974,4450.769230,4234.871794,4256.410256,4524.615384,4217.948717,4648.717948,4003.589743,4058.974358
48,4414.358974,4489.230769,4541.538461,4266.666666,4518.974358,4172.307692,4453.846153,4234.358974,4251.282051,4515.384615,4210.256410,4647.692307,4003.589743,4057.435897
49,4402.564102,4486.666666,4531.282051,4264.102564,4509.230769,4165.128205,4454.358974,4226.666666,4247.179487,4502.564102,4211.282051,4646.666666,3998.974359,4053.846153
50,4402.564102,4485.128205,4530.769230,4265.128205,4501.538461,4162.051282,4453.846153,4224.102564,4247.692307,4501.538461,4218.461538,4647.179487,3997.435898,4050.256410
51,4409.743589,4487.179487,4534.358974,4264.102564,4509.230769,4160.512820,4451.794871,4226.666666,4250.769230,4503.076923,4208.205128,4640.512820,3998.974359,4045.128205
52,4404.102564,4490.256410,4529.743589,4252.820512,4512.820512,4152.307692,4446.153846,4222.051282,4245.128205,4499.487179,4189.743589,4633.333333,3997.435898,4042.564102
53,4403.076923,4499.487179,4529.743589,4252.820512,4505.641025,4149.230769,4444.615384,4214.358974,4236.410256,4498.461538,4191.282051,4635.897435,3993.846154,4048.205128
54,4405.128205,4503.076923,4532.820512,4260.512820,4504.102564,4148.205128,4446.666666,4214.871794,4231.282051,4498.974358,4197.435897,4636.923076,3995.897436,4055.384615
55,4400.000000,4503.076923,4531.794871,4254.358974,4504.615384,4144.102564,4446.666666,4220.000000,4230.256410,4495.897435,4196.923076,4634.871794,4005.128205,4058.974358
56,4406.153846,4515.384615,4537.948717,4252.307692,4501.025641,4145.641025,4449.743589,4227.179487,4235.384615,4497.435897,4203.589743,4639.487179,4011.282051,4065.641025
57,4417.948717,4526.153846,4548.205128,4265.641025,4500.000000,4148.717948,4454.358974,4233.846153,4243.589743,4504.102564,4208.205128,4647.179487,4012.307692,4074.871794
58,4415.384615,4515.897435,4546.153846,4269.230769,4498.461538,4145.128205,4451.282051,4236.923076,4247.692307,4505.128205,4204.102564,4646.153846,4013.333333,4078.461538
59,4407.692307,4506.153846,4542.564102,4261.025641,4495.384615,4144.102564,4450.769230,4237.948717,4251.282051,4498.461538,4212.820512,4643.589743,4013.846153,4076.410256
60,4401.538461,4515.897435,4541.538461,4252.307692,4495.897435,4145.641025,4455.897435,4242.051282,4254.871794,4496.410256,4218.461538,4642.051282,4014.358974,4072.820512
61,4401.025641,4524.615384,4536.410256,4246.666666,4495.897435,4140.512820,4453.333333,4243.076923,4246.666666,4504.615384,4196.410256,4640.512820,4012.307692,4069.743589
62,4403.076923,4516.410256,4533.846153,4246.666666,4492.307692,4135.384615,4447.692307,4238.461538,4240.512820,4512.820512,4187.692307,4641.025641,4008.717948,4067.179487
63,4404.102564,4506.153846,4533.333333,4246.153846,4491.282051,4138.974358,4448.717948,4238.461538,4249.743589,4511.794871,4207.692307,4643.589743,4012.820512,4071.794871
64,4410.256410,4511.282051,4536.923076,4250.256410,4494.358974,4144.615384,4455.384615,4245.641025,4258.974358,4510.769230,4215.384615,4648.717948,4018.461538,4082.564102
65,4411.282051,4516.923076,4542.564102,4262.564102,4495.384615,4143.589743,4462.564102,4252.820512,4258.974358,4513.333333,4211.794871,4651.794871,4013.846153,4083.589743
66,4399.487179,4509.743589,4538.974358,4258.461538,4494.358974,4140.512820,4462.051282,4254.871794,4254.871794,4507.692307,4212.820512,4650.256410,4005.641025,4073.333333
67,4395.384615,4502.051282,4530.769230,4246.153846,4495.897435,4141.538461,4456.923076,4253.846153,4255.897435,4501.538461,4204.102564,4645.641025,4003.589743,4070.256410
68,4402.564102,4500.512820,4530.769230,4245.128205,4491.794871,4140.000000,4453.846153,4250.256410,4252.307692,4504.102564,4188.717948,4643.076923,4004.102564,4074.358974
69,4402.051282,4502.051282,4539.487179,4244.102564,4486.153846,4134.358974,4453.846153,4243.589743,4244.102564,4503.076923,4188.205128,4643.589743,4001.538461,4071.282051
70,4402.051282,4507.692307,4546.153846,4249.230769,4491.282051,4137.435897,4458.974358,4244.615384,4242.564102,4494.871794,4199.487179,4647.179487,3994.871795,4065.641025
71,4402.051282,4508.717948,4542.051282,4261.025641,4494.871794,4144.102564,4462.564102,4249.230769,4247.692307,4495.384615,4211.282051,4648.205128,3994.871795,4066.666666
72,4395.897435,4502.564102,4536.923076,4256.410256,4489.743589,4144.102564,4456.923076,4245.128205,4252.307692,4504.615384,4210.256410,4644.102564,4006.666666,4073.333333
73,4395.897435,4502.564102,4538.461538,4245.641025,4484.102564,4141.025641,4451.794871,4239.487179,4250.769230,4505.641025,4193.846153,4638.461538,4012.820512,4076.923076
74,4403.589743,4509.230769,4540.000000,4249.743589,4486.666666,4140.512820,4455.384615,4243.076923,4246.153846,4496.923076,4191.282051,4638.974358,4003.076923,4071.794871
75,4404.615384,4507.692307,4535.897435,4252.307692,4491.794871,4140.512820,4454.871794,4244.615384,4244.615384,4493.333333,4205.641025,4642.051282,3992.307693,4069.743589
76,4396.410256,4501.538461,4533.333333,4249.743589,4491.794871,4140.512820,4451.794871,4240.512820,4245.128205,4502.051282,4209.230769,4639.487179,3997.948718,4069.743589
77,4393.333333,4503.076923,4536.923076,4252.820512,4491.282051,4141.025641,4452.307692,4239.487179,4249.230769,4504.102564,4195.897435,4638.974358,4011.794871,4067.692307
78,4398.461538,4504.615384,4538.974358,4253.846153,4491.282051,4137.435897,4450.256410,4238.974358,4254.358974,4496.410256,4179.487179,4639.487179,4007.692307,4068.205128
79,4400.512820,4505.128205,4536.410256,4248.205128,4487.692307,4134.871794,4448.205128,4233.846153,4248.205128,4495.384615,4181.025641,4634.871794,3987.692308,4062.564102
80,4396.923076,4503.589743,4536.923076,4249.230769,4486.153846,4138.974358,4450.256410,4234.871794,4239.487179,4496.923076,4202.051282,4633.333333,3984.615385,4058.461538
81,4395.384615,4495.384615,4537.435897,4251.282051,4494.871794,4143.076923,4447.692307,4236.923076,4239.487179,4495.384615,4212.307692,4638.974358,3999.487180,4066.666666
82,4393.846153,4490.256410,4537.435897,4248.717948,4498.974358,4140.000000,4442.564102,4234.871794,4242.564102,4497.948717,4202.564102,4642.051282,4001.025641,4072.307692
83,4393.846153,4498.974358,4541.025641,4254.358974,4496.923076,4140.512820,4447.692307,4238.974358,4252.307692,4503.076923,4205.641025,4642.051282,3996.410257,4069.743589
84,4402.051282,4506.153846,4547.179487,4264.102564,4500.000000,4148.205128,4456.923076,4244.615384,4263.076923,4504.102564,4216.410256,4648.205128,3997.435898,4070.256410
85,4407.692307,4502.564102,4543.076923,4265.128205,4497.435897,4149.743589,4456.923076,4241.538461,4253.333333,4503.076923,4211.282051,4652.820512,3997.948718,4070.256410
86,4406.153846,4495.384615,4535.897435,4263.589743,4491.794871,4142.051282,4452.307692,4231.282051,4236.923076,4497.435897,4204.615384,4653.333333,4003.076923,4071.794871
87,4408.205128,4495.897435,4536.410256,4265.641025,4492.307692,4144.102564,4453.846153,4232.307692,4241.025641,4494.871794,4212.307692,4655.384615,4013.333333,4077.435897
88,4410.769230,4510.256410,4540.512820,4267.692307,4498.974358,4155.384615,4461.025641,4245.128205,4259.487179,4508.205128,4222.051282,4662.051282,4012.307692,4080.000000
89,4409.743589,4515.384615,4545.128205,4266.153846,4503.589743,4156.410256,4463.076923,4249.230769,4268.205128,4518.461538,4218.461538,4663.076923,4005.128205,4082.051282
90,4408.717948,4496.923076,4542.051282,4262.051282,4497.948717,4147.692307,4454.358974,4237.435897,4253.846153,4505.128205,4210.256410,4654.358974,4009.230769,4077.948717
91,4408.717948,4491.282051,4537.948717,4262.564102,4494.358974,4144.615384,4447.692307,4230.769230,4244.102564,4495.897435,4210.256410,4650.256410,4016.923076,4067.179487
92,4407.179487,4503.076923,4541.538461,4267.179487,4497.948717,4149.230769,4452.820512,4237.435897,4254.358974,4507.692307,4221.025641,4653.333333,4014.871794,4068.717948
93,4402.564102,4500.000000,4541.538461,4265.128205,4498.461538,4152.820512,4456.410256,4235.897435,4256.923076,4515.897435,4227.692307,4654.358974,4011.282051,4077.948717
94,4402.564102,4499.487179,4540.512820,4263.076923,4498.974358,4157.435897,4455.384615,4236.410256,4256.923076,4516.410256,4219.487179,4654.358974,4013.846153,4075.384615
95,4409.230769,4511.282051,4543.076923,4265.641025,4503.589743,4160.512820,4451.794871,4242.564102,4265.641025,4518.461538,4213.333333,4657.435897,4013.333333,4069.743589
96,4411.282051,4507.179487,4544.102564,4264.615384,4503.589743,4159.487179,4449.230769,4236.923076,4261.538461,4514.871794,4208.205128,4657.435897,4009.743589,4068.717948
97,4406.666666,4497.435897,4543.076923,4263.076923,4501.025641,4157.435897,4452.307692,4231.282051,4250.256410,4508.717948,4201.538461,4654.358974,4012.820512,4068.205128
98,4401.025641,4498.461538,4539.487179,4264.102564,4500.000000,4156.923076,4453.846153,4231.282051,4252.307692,4506.153846,4198.461538,4649.743589,4010.256410,4066.666666
99,4393.846153,4498.461538,4530.769230,4261.538461,4504.615384,4159.487179,4451.794871,4226.666666,4254.358974,4502.564102,4201.538461,4645.128205,3995.384616,4063.589743
100,4391.794871,4498.461538,4532.307692,4260.512820,4512.820512,4166.153846,4454.358974,4229.743589,4254.358974,4501.538461,4208.205128,4648.205128,3989.230770,4058.974358
101,4401.025641,4504.102564,4540.000000,4263.076923,4514.358974,4168.205128,4455.384615,4237.948717,4254.871794,4498.974358,4210.769230,4653.333333,3995.384616,4058.461538
102,4403.076923,4495.897435,4534.358974,4264.102564,4509.743589,4163.076923,4450.256410,4231.282051,4244.615384,4494.358974,4199.487179,4651.282051,4001.538461,4064.615384
103,4400.512820,4489.230769,4534.871794,4264.102564,4513.333333,4167.179487,4454.871794,4229.230769,4243.076923,4504.615384,4197.435897,4650.256410,4004.102564,4070.769230
104,4405.128205,4500.000000,4543.076923,4266.153846,4517.948717,4172.307692,4462.564102,4240.000000,4256.410256,4513.333333,4213.846153,4652.820512,3996.410257,4066.153846
105,4401.538461,4498.974358,4540.512820,4266.666666,4513.333333,4168.717948,4458.461538,4238.974358,4261.025641,4503.589743,4214.358974,4652.307692,3988.717949,4058.461538
106,4393.846153,4484.102564,4532.820512,4258.461538,4509.230769,4167.692307,4450.769230,4232.820512,4255.384615,4495.384615,4200.512820,4649.743589,3997.435898,4057.435897
107,4400.512820,4483.076923,4532.820512,4253.846153,4507.179487,4170.256410,4446.666666,4230.769230,4248.205128,4500.000000,4199.487179,4649.743589,4002.051282,4055.897435
108,4406.666666,4492.307692,4537.435897,4260.000000,4503.076923,4168.205128,4445.641025,4230.256410,4244.615384,4504.615384,4198.461538,4648.205128,3994.871795,4055.384615
109,4401.025641,4486.153846,4536.923076,4261.538461,4497.435897,4164.102564,4443.589743,4230.256410,4245.641025,4505.128205,4194.871794,4650.256410,3996.410257,4061.025641
110,4404.102564,4481.538461,4538.974358,4263.076923,4499.487179,4166.666666,4448.717948,4235.384615,4253.846153,4509.743589,4204.102564,4659.487179,4006.153846,4066.666666
111,4407.692307,4494.358974,4543.589743,4266.153846,4511.282051,4174.358974,4460.512820,4240.512820,4261.025641,4515.384615,4220.000000,4663.076923,4008.205128,4067.179487
112,4396.410256,4493.846153,4545.128205,4256.923076,4518.974358,4179.487179,4458.974358,4234.358974,4254.358974,4508.205128,4216.410256,4654.871794,4004.615384,4063.589743
113,4394.358974,4487.179487,4542.051282,4248.717948,4517.435897,4177.435897,4454.871794,4222.564102,4239.487179,4495.897435,4199.487179,4648.717948,3998.461539,4060.512820
114,4403.589743,4492.307692,4537.948717,4260.512820,4515.384615,4177.948717,4460.512820,4216.410256,4236.923076,4489.743589,4197.435897,4652.820512,3997.435898,4059.487179
115,4398.461538,4491.794871,4533.333333,4266.153846,4512.820512,4181.538461,4458.461538,4216.410256,4242.564102,4487.179487,4201.538461,4652.820512,3998.974359,4052.820512
116,4387.692307,4481.538461,4528.717948,4252.820512,4504.102564,4176.410256,4448.717948,4216.410256,4238.974358,4490.256410,4191.794871,4646.153846,3995.384616,4045.128205
117,4390.256410,4480.000000,4528.717948,4250.769230,4498.461538,4170.769230,4448.717948,4220.512820,4237.435897,4499.487179,4184.615384,4650.769230,3992.307693,4048.717948
118,4401.025641,4490.256410,4536.410256,4261.025641,4505.641025,4178.974358,4455.384615,4229.230769,4246.666666,4503.589743,4195.384615,4665.641025,3993.846154,4055.384615
119,4405.641025,4496.410256,4542.051282,4264.615384,4510.769230,4187.692307,4460.000000,4235.897435,4255.897435,4504.102564,4209.743589,4673.333333,3992.820513,4056.923076
120,4394.358974,4486.153846,4535.384615,4258.974358,4507.179487,4184.615384,4460.512820,4234.871794,4251.794871,4503.076923,4208.205128,4667.692307,3988.717949,4051.282051
121,4385.128205,4475.384615,4528.717948,4257.435897,4505.641025,4182.051282,4452.820512,4226.153846,4241.538461,4497.435897,4201.538461,4659.487179,3991.794872,4047.692307
122,4394.358974,4485.641025,4533.846153,4262.051282,4506.666666,4183.589743,4448.205128,4222.051282,4237.948717,4494.358974,4203.589743,4660.000000,3996.923077,4053.333333
123,4402.564102,4496.410256,4538.974358,4265.641025,4507.179487,4183.589743,4451.794871,4228.205128,4243.589743,4498.974358,4209.743589,4666.666666,3994.358975,4056.923076
124,4401.025641,4495.384615,4539.487179,4267.692307,4508.717948,4187.179487,4457.435897,4237.435897,4255.384615,4506.666666,4212.307692,4670.769230,3991.794872,4056.410256
125,4404.102564,4495.384615,4543.589743,4266.153846,4509.230769,4190.256410,4457.435897,4244.102564,4261.025641,4511.282051,4215.384615,4672.307692,3997.435898,4060.512820
126,4406.153846,4495.384615,4546.153846,4262.051282,4507.692307,4186.666666,4453.333333,4242.051282,4255.897435,4513.333333,4210.769230,4676.923076,4008.717948,4060.512820
127,4405.128205,4494.871794,4541.025641,4263.076923,4510.769230,4190.256410,4454.871794,4236.410256,4257.948717,4516.923076,4205.641025,4679.487179,4010.256410,4056.410256
128,4406.153846,4495.897435,4539.487179,4266.153846,4513.846153,4196.923076,4456.410256,4230.769230,4256.923076,4512.820512,4213.846153,4671.282051,3999.487180,4060.000000
129,4404.615384,4487.179487,4540.512820,4256.410256,4510.769230,4192.307692,4451.282051,4224.615384,4245.641025,4505.641025,4211.794871,4665.128205,3991.282052,4057.948717
130,4399.487179,4480.512820,4535.384615,4250.256410,4509.230769,4184.615384,4447.692307,4225.128205,4247.692307,4506.666666,4202.564102,4667.692307,3987.179488,4049.743589
131,4396.923076,4487.692307,4535.384615,4258.974358,4507.692307,4185.128205,4447.692307,4230.256410,4252.820512,4504.615384,4208.717948,4668.717948,3991.282052,4049.743589
132,4403.589743,4498.974358,4545.128205,4268.717948,4512.820512,4192.307692,4451.282051,4231.794871,4251.282051,4505.128205,4209.743589,4669.230769,4008.205128,4053.846153
133,4409.743589,4497.435897,4542.564102,4266.666666,4519.487179,4193.846153,4452.820512,4229.230769,4254.871794,4507.692307,4198.974358,4671.282051,4012.307692,4060.512820
134,4401.025641,4487.692307,4527.179487,4252.820512,4512.820512,4188.205128,4447.692307,4225.128205,4251.794871,4500.000000,4199.487179,4663.589743,3989.230770,4054.871794
135,4393.333333,4483.589743,4524.615384,4253.846153,4508.717948,4189.743589,4448.717948,4223.589743,4239.487179,4493.846153,4204.102564,4655.384615,3980.512821,4040.000000
136,4397.948717,4490.256410,4531.282051,4264.102564,4518.974358,4195.897435,4453.333333,4222.051282,4236.923076,4500.000000,4200.000000,4659.487179,3996.923077,4042.564102
137,4399.487179,4500.512820,4529.743589,4258.974358,4517.435897,4197.435897,4450.769230,4223.076923,4241.538461,4500.512820,4195.384615,4663.589743,4003.589743,4054.871794
138,4399.487179,4501.025641,4530.769230,4252.820512,4504.615384,4195.384615,4444.615384,4225.641025,4244.102564,4497.435897,4195.897435,4662.564102,3992.307693,4055.897435
139,4406.666666,4493.846153,4538.974358,4263.589743,4505.641025,4194.358974,4446.666666,4227.179487,4248.205128,4507.692307,4201.538461,4663.589743,3984.615385,4054.358974
140,4409.743589,4493.846153,4540.000000,4269.230769,4509.743589,4192.820512,4451.794871,4226.153846,4244.102564,4506.666666,4206.153846,4664.102564,3991.794872,4053.846153
141,4405.641025,4502.051282,4535.384615,4264.102564,4507.179487,4197.948717,4454.871794,4227.692307,4234.871794,4490.256410,4201.538461,4664.102564,3999.487180,4047.692307
142,4401.538461,4505.641025,4536.923076,4266.153846,4507.179487,4205.641025,4456.410256,4232.820512,4234.871794,4488.717948,4203.076923,4666.153846,3997.948718,4053.846153
143,4406.153846,4503.076923,4544.615384,4266.153846,4507.179487,4205.128205,4457.435897,4238.461538,4247.692307,4502.051282,4215.897435,4671.282051,3995.384616,4066.153846
144,4414.358974,4503.589743,4545.641025,4265.641025,4503.589743,4197.948717,4454.358974,4241.025641,4260.512820,4510.256410,4215.384615,4674.358974,3997.948718,4061.538461
145,4411.282051,4503.076923,4542.564102,4265.641025,4501.025641,4191.282051,4447.692307,4232.307692,4254.358974,4512.820512,4204.615384,4671.794871,4002.051282,4054.358974
146,4408.205128,4499.487179,4544.102564,4264.102564,4502.051282,4195.897435,4445.128205,4226.666666,4242.051282,4513.333333,4208.717948,4669.230769,4004.615384,4062.564102
147,4412.307692,4502.051282,4547.179487,4267.179487,4507.692307,4204.615384,4450.256410,4233.846153,4243.589743,4506.666666,4217.948717,4672.307692,4006.153846,4069.743589
148,4401.538461,4502.564102,4540.000000,4260.512820,4508.205128,4202.051282,4453.333333,4233.846153,4242.051282,4495.384615,4212.820512,4667.692307,3994.871795,4060.000000
149,4385.641025,4490.769230,4528.205128,4241.538461,4497.435897,4194.358974,4448.205128,4221.538461,4234.358974,4487.692307,4202.564102,4652.307692,3974.871795,4040.512820
150,4391.282051,4485.641025,4528.717948,4246.666666,4496.923076,4192.820512,4444.615384,4218.461538,4235.384615,4490.256410,4188.717948,4649.743589,3976.410257,4032.307692
151,4407.692307,4495.384615,4541.538461,4275.897435,4505.128205,4197.435897,4453.333333,4228.717948,4242.564102,4498.974358,4175.384615,4665.641025,3997.948718,4050.769230
152,4409.743589,4498.461538,4546.153846,4278.974358,4502.051282,4203.589743,4462.564102,4237.435897,4249.230769,4506.153846,4193.846153,4672.820512,4002.564102,4067.692307
153,4398.461538,4494.358974,4541.025641,4261.025641,4496.410256,4201.025641,4459.487179,4238.974358,4252.307692,4504.615384,4223.076923,4665.641025,3985.641026,4054.358974
154,4393.333333,4497.435897,4535.897435,4258.974358,4503.076923,4197.435897,4452.307692,4229.743589,4243.589743,4495.384615,4209.230769,4660.512820,3980.000000,4036.410256
155,4397.435897,4503.076923,4532.307692,4263.589743,4511.794871,4205.128205,4451.282051,4223.076923,4237.435897,4492.820512,4182.564102,4654.871794,3988.717949,4042.564102
156,4400.000000,4498.461538,4531.282051,4262.564102,4510.256410,4211.794871,4450.769230,4226.153846,4242.051282,4497.435897,4187.692307,4648.205128,3987.179488,4050.769230
157,4405.128205,4494.358974,4536.410256,4263.589743,4507.692307,4206.153846,4448.717948,4226.153846,4242.051282,4504.102564,4202.051282,4653.333333,3977.948718,4050.769230
158,4412.307692,4502.051282,4544.615384,4269.743589,4514.358974,4207.179487,4451.794871,4224.615384,4240.000000,4508.717948,4203.589743,4663.589743,3987.692308,4054.871794
159,4405.128205,4512.820512,4543.589743,4267.179487,4520.512820,4213.846153,4455.384615,4226.153846,4242.564102,4506.666666,4203.589743,4663.589743,4002.051282,4053.846153
160,4400.000000,4509.743589,4533.846153,4254.871794,4513.846153,4207.692307,4447.179487,4218.461538,4237.948717,4493.333333,4198.461538,4656.410256,3986.153847,4047.179487
161,4407.692307,4500.512820,4530.769230,4254.871794,4503.076923,4200.512820,4438.461538,4208.205128,4230.256410,4488.205128,4192.307692,4654.358974,3974.358975,4051.794871
162,4412.307692,4505.128205,4537.435897,4266.153846,4505.641025,4206.666666,4443.589743,4214.358974,4233.333333,4493.846153,4194.871794,4658.974358,3991.794872,4061.025641
163,4405.641025,4513.333333,4538.974358,4268.717948,4509.743589,4208.717948,4446.666666,4218.974358,4239.487179,4496.410256,4190.769230,4660.512820,4005.641025,4055.897435
164,4395.897435,4516.923076,4531.794871,4260.512820,4501.538461,4200.000000,4442.051282,4214.871794,4237.948717,4498.974358,4180.000000,4654.871794,4001.025641,4050.256410
165,4398.974358,4521.025641,4531.794871,4253.333333,4496.923076,4201.538461,4443.589743,4220.512820,4238.461538,4503.076923,4187.692307,4654.358974,4001.025641,4060.000000
166,4411.794871,4531.794871,4541.538461,4255.384615,4511.282051,4211.282051,4446.153846,4230.256410,4248.205128,4508.717948,4207.179487,4662.564102,4007.179487,4072.820512
167,4416.410256,4539.487179,4546.153846,4262.564102,4524.102564,4211.282051,4444.102564,4229.743589,4251.794871,4509.743589,4212.307692,4665.128205,4008.205128,4074.358974
168,4409.230769,4531.282051,4537.435897,4256.923076,4516.923076,4208.205128,4444.615384,4224.615384,4243.076923,4499.487179,4198.461538,4654.871794,4009.230769,4067.179487
169,4399.487179,4527.179487,4532.820512,4246.666666,4513.846153,4210.256410,4447.179487,4227.179487,4237.435897,4493.846153,4187.692307,4649.230769,4010.769230,4065.128205
170,4396.410256,4534.871794,4537.948717,4250.256410,4524.102564,4211.794871,4447.692307,4233.333333,4237.948717,4497.948717,4190.769230,4653.846153,4006.666666,4070.769230
171,4403.589743,4540.512820,4540.512820,4252.307692,4527.179487,4209.743589,4452.820512,4236.923076,4240.512820,4497.948717,4195.897435,4655.384615,4000.000000,4072.307692
172,4409.743589,4536.923076,4539.487179,4246.153846,4524.615384,4212.307692,4453.846153,4237.435897,4245.641025,4499.487179,4197.435897,4653.846153,4004.615384,4074.358974
173,4406.153846,4534.871794,4536.923076,4245.128205,4527.692307,4212.307692,4451.794871,4240.512820,4249.743589,4509.743589,4193.846153,4656.410256,4015.897435,4076.410256
174,4406.666666,4529.743589,4539.487179,4245.641025,4525.641025,4212.307692,4453.333333,4243.589743,4250.769230,4511.794871,4192.820512,4660.000000,4012.307692,4077.435897
175,4403.589743,4527.179487,4541.025641,4247.179487,4515.384615,4216.923076,4455.897435,4241.025641,4248.205128,4504.615384,4203.076923,4656.923076,4000.512820,4079.487179
176,4392.307692,4534.358974,4536.923076,4249.743589,4512.820512,4216.923076,4456.410256,4238.974358,4238.461538,4492.307692,4202.564102,4652.820512,3997.435898,4077.948717
177,4394.358974,4532.307692,4532.307692,4248.205128,4518.974358,4215.384615,4453.333333,4240.512820,4230.769230,4483.589743,4187.179487,4652.820512,4002.564102,4074.871794
178,4404.102564,4524.615384,4531.794871,4247.692307,4521.538461,4217.435897,4450.769230,4245.128205,4236.923076,4489.743589,4184.102564,4654.871794,4005.641025,4080.000000
179,4402.564102,4528.205128,4533.846153,4250.769230,4520.000000,4218.974358,4450.256410,4244.615384,4243.589743,4500.512820,4197.948717,4655.384615,3997.948718,4084.615384
180,4400.000000,4534.358974,4537.948717,4252.307692,4522.564102,4218.974358,4448.717948,4239.487179,4241.538461,4504.615384,4204.102564,4657.435897,3993.333334,4081.025641
181,4402.564102,4529.230769,4540.512820,4250.256410,4523.076923,4215.897435,4442.051282,4238.461538,4241.538461,4500.512820,4201.025641,4661.538461,4001.538461,4083.589743
182,4400.000000,4520.512820,4537.948717,4247.692307,4517.435897,4215.897435,4442.051282,4237.435897,4245.128205,4488.205128,4199.487179,4661.025641,4007.692307,4088.717948
183,4397.435897,4524.102564,4536.410256,4247.179487,4516.410256,4215.897435,4447.692307,4230.256410,4238.974358,4486.666666,4196.410256,4654.871794,4002.564102,4076.923076
184,4402.564102,4529.230769,4536.410256,4245.128205,4516.923076,4213.846153,4446.666666,4225.641025,4228.205128,4494.871794,4192.307692,4651.282051,3989.230770,4066.153846
185,4404.615384,4522.051282,4532.307692,4246.153846,4515.384615,4212.307692,4443.076923,4230.769230,4230.256410,4491.794871,4189.230769,4651.794871,3981.025642,4073.333333
186,4396.923076,4513.846153,4531.794871,4250.769230,4514.871794,4218.974358,4448.717948,4238.461538,4240.000000,4492.307692,4194.358974,4654.871794,3993.333334,4084.102564
187,4393.846153,4518.461538,4534.871794,4248.205128,4516.410256,4224.102564,4455.897435,4239.487179,4241.538461,4504.102564,4200.512820,4656.923076,4006.666666,4082.564102
188,4402.051282,4525.641025,4537.948717,4244.102564,4520.512820,4222.564102,4454.358974,4240.000000,4246.153846,4505.641025,4200.512820,4657.948717,4002.051282,4076.410256
189,4411.282051,4526.666666,4542.051282,4252.307692,4524.615384,4223.589743,4455.384615,4244.102564,4255.384615,4500.512820,4206.153846,4663.076923,3997.948718,4080.512820
190,4409.230769,4523.589743,4538.974358,4258.461538,4521.538461,4225.128205,4456.410256,4242.564102,4250.769230,4502.051282,4205.128205,4664.102564,4003.589743,4085.128205
191,4401.538461,4516.923076,4530.256410,4250.256410,4516.923076,4217.948717,4450.256410,4233.333333,4238.461538,4499.487179,4193.846153,4658.461538,4001.025641,4085.128205
192,4400.000000,4513.846153,4529.230769,4247.179487,4516.923076,4212.820512,4450.769230,4236.410256,4240.000000,4497.435897,4188.205128,4655.897435,3995.384616,4083.076923
193,4404.615384,4516.923076,4531.794871,4251.794871,4518.974358,4216.923076,4457.948717,4248.205128,4249.230769,4500.512820,4194.871794,4660.000000,3999.487180,4075.897435
194,4405.641025,4517.435897,4529.230769,4251.282051,4517.948717,4218.461538,4456.923076,4249.230769,4254.358974,4501.025641,4205.128205,4663.589743,3996.923077,4073.333333
195,4407.179487,4516.923076,4531.794871,4252.307692,4520.000000,4216.410256,4454.358974,4242.564102,4253.846153,4507.179487,4213.333333,4664.615384,3990.769231,4083.076923
196,4410.769230,4518.461538,4537.948717,4255.384615,4524.615384,4222.564102,4460.000000,4243.589743,4252.307692,4513.333333,4218.461538,4666.153846,3998.461539,4089.743589
197,4404.102564,4515.384615,4534.871794,4250.256410,4523.076923,4225.128205,4458.974358,4244.615384,4251.794871,4513.846153,4212.820512,4664.102564,4006.666666,4076.923076
198,4395.384615,4511.282051,4530.256410,4245.641025,4518.461538,4218.974358,4451.282051,4241.025641,4250.769230,4511.794871,4198.461538,4660.512820,4004.102564,4069.743589
199,4401.538461,4509.743589,4530.256410,4249.230769,4518.461538,4215.897435,4451.794871,4238.461538,4248.205128,4504.102564,4196.410256,4659.487179,3996.410257,4078.461538
200,4412.307692,4508.717948,4533.333333,4249.743589,4518.461538,4215.384615,4454.871794,4240.512820,4251.282051,4504.102564,4209.743589,4664.615384,3994.871795,4084.102564
201,4411.282051,4508.717948,4534.358974,4245.641025,4514.871794,4213.333333,4452.820512,4237.948717,4252.307692,4511.282051,4216.923076,4667.179487,4001.025641,4083.589743
202,4399.487179,4510.256410,4532.820512,4245.128205,4519.487179,4215.384615,4450.256410,4228.717948,4242.051282,4501.538461,4207.179487,4662.564102,4006.153846,4075.897435
203,4396.923076,4514.871794,4534.871794,4249.743589,4527.692307,4221.538461,4455.384615,4230.256410,4242.051282,4496.410256,4205.641025,4665.128205,4004.102564,4070.256410
204,4406.666666,4510.769230,4541.025641,4252.820512,4526.666666,4226.153846,4459.487179,4240.000000,4258.974358,4511.794871,4210.256410,4671.282051,3998.974359,4076.410256
205,4409.743589,4502.564102,4541.025641,4249.743589,4518.974358,4222.564102,4455.384615,4238.974358,4259.487179,4513.846153,4205.641025,4666.666666,3995.897436,4081.538461
206,4405.641025,4507.179487,4533.846153,4247.179487,4514.871794,4217.435897,4451.794871,4235.897435,4245.128205,4502.564102,4207.692307,4662.564102,3993.846154,4077.948717
207,4402.051282,4520.512820,4533.333333,4250.256410,4517.435897,4222.564102,4456.923076,4243.076923,4245.641025,4506.153846,4212.307692,4667.692307,3996.923077,4071.794871
208,4393.846153,4514.871794,4535.384615,4250.256410,4522.051282,4226.666666,4462.051282,4246.153846,4254.871794,4505.128205,4204.102564,4666.666666,3990.769231,4065.641025
209,4395.384615,4502.564102,4532.820512,4247.692307,4525.128205,4222.051282,4454.871794,4236.923076,4252.820512,4501.538461,4204.102564,4657.948717,3984.102565,4066.153846
210,4413.333333,4507.179487,4537.435897,4254.358974,4527.692307,4219.487179,4449.743589,4233.846153,4248.205128,4510.769230,4222.564102,4662.564102,3997.948718,4083.076923
211,4423.076923,4515.384615,4545.128205,4264.615384,4533.333333,4226.666666,4458.974358,4242.051282,4257.948717,4518.461538,4227.692307,4673.846153,4014.871794,4098.461538
212,4413.333333,4518.974358,4546.666666,4264.615384,4535.384615,4227.692307,4461.538461,4247.179487,4263.589743,4517.948717,4214.871794,4671.794871,4016.410256,4088.717948
213,4407.692307,4520.512820,4545.128205,4260.512820,4528.717948,4219.487179,4450.256410,4241.025641,4253.846153,4512.820512,4206.666666,4668.205128,4008.717948,4073.333333
214,4415.897435,4517.948717,4548.717948,4263.076923,4521.025641,4220.000000,4449.743589,4238.461538,4250.256410,4508.205128,4210.769230,4673.846153,4001.025641,4079.487179
215,4426.666666,4510.256410,4556.923076,4265.641025,4521.538461,4226.153846,4457.435897,4244.615384,4258.461538,4511.794871,4222.051282,4680.000000,4004.102564,4093.846153
216,4425.128205,4512.307692,4558.974358,4264.102564,4523.589743,4222.051282,4456.410256,4245.128205,4258.974358,4514.871794,4229.743589,4677.435897,4013.333333,4089.743589
217,4413.333333,4515.384615,4551.794871,4261.538461,4520.000000,4217.435897,4454.358974,4241.025641,4253.333333,4510.256410,4229.743589,4673.846153,4011.794871,4074.358974
218,4410.256410,4513.333333,4547.179487,4262.564102,4521.025641,4223.589743,4454.871794,4242.051282,4258.461538,4513.333333,4227.692307,4674.358974,4010.256410,4075.384615
219,4415.384615,4515.384615,4551.282051,4265.641025,4525.128205,4222.051282,4454.871794,4238.461538,4257.948717,4518.974358,4221.025641,4670.769230,4009.743589,4085.128205
220,4413.333333,4511.282051,4548.205128,4263.076923,4523.076923,4212.820512,4450.256410,4225.641025,4237.948717,4507.692307,4213.333333,4663.589743,3998.461539,4082.051282
221,4410.769230,4503.589743,4539.487179,4257.948717,4520.512820,4215.384615,4446.153846,4219.487179,4229.230769,4501.025641,4213.846153,4660.000000,3994.358975,4073.333333
222,4413.333333,4507.179487,4540.000000,4262.051282,4521.538461,4220.512820,4443.589743,4221.538461,4243.589743,4510.256410,4219.487179,4663.076923,3999.487180,4073.333333
223,4408.205128,4516.410256,4544.102564,4267.179487,4519.487179,4214.358974,4443.076923,4222.051282,4246.153846,4507.692307,4222.051282,4667.692307,3995.384616,4074.871794
224,4400.512820,4514.871794,4542.564102,4258.974358,4515.897435,4211.282051,4445.641025,4222.564102,4242.564102,4503.076923,4220.512820,4669.743589,3993.333334,4073.333333
225,4405.128205,4505.641025,4541.025641,4251.282051,4517.435897,4218.974358,4447.179487,4226.153846,4249.230769,4511.282051,4210.769230,4668.717948,4000.512820,4074.871794
226,4414.871794,4503.589743,4544.102564,4257.948717,4524.102564,4225.641025,4449.743589,4230.256410,4248.205128,4513.846153,4207.692307,4668.205128,4003.589743,4074.871794
227,4417.435897,4510.769230,4550.256410,4268.205128,4527.692307,4226.666666,4450.769230,4228.205128,4241.025641,4508.205128,4224.615384,4671.282051,4003.589743,4075.897435
228,4407.692307,4516.410256,4546.666666,4263.076923,4519.487179,4220.000000,4443.589743,4220.000000,4234.871794,4504.102564,4226.666666,4668.205128,4006.666666,4077.435897
229,4398.974358,4512.307692,4537.435897,4249.230769,4519.487179,4211.282051,4436.410256,4214.871794,4229.230769,4502.564102,4210.769230,4658.974358,4005.641025,4073.846153
230,4407.692307,4508.717948,4540.000000,4249.743589,4532.307692,4210.769230,4440.000000,4222.564102,4242.051282,4509.230769,4216.923076,4662.564102,3997.948718,4073.846153
231,4414.358974,4505.641025,4546.666666,4262.051282,4534.358974,4218.974358,4446.666666,4235.384615,4262.564102,4516.410256,4232.820512,4671.282051,3993.333334,4076.923076
232,4409.743589,4501.025641,4542.564102,4266.153846,4528.717948,4222.051282,4450.769230,4233.333333,4253.846153,4511.282051,4223.076923,4668.717948,4003.589743,4072.307692
233,4409.743589,4502.564102,4542.051282,4260.512820,4527.692307,4218.461538,4451.794871,4223.589743,4239.487179,4509.743589,4208.205128,4663.589743,4014.358974,4066.666666
234,4411.282051,4505.641025,4544.615384,4262.564102,4532.820512,4218.461538,4448.205128,4225.128205,4245.128205,4514.358974,4212.307692,4664.102564,4006.153846,4073.333333
235,4407.692307,4505.128205,4538.974358,4265.128205,4534.358974,4217.435897,4444.615384,4230.256410,4245.641025,4505.641025,4216.410256,4664.102564,3994.358975,4075.384615
236,4405.128205,4503.589743,4530.769230,4256.410256,4528.205128,4214.871794,4446.666666,4227.179487,4237.948717,4498.461538,4211.794871,4660.000000,3988.205129,4062.564102
237,4398.974358,4497.435897,4526.666666,4246.153846,4526.153846,4212.820512,4444.615384,4216.410256,4240.000000,4499.487179,4210.256410,4653.846153,3981.025642,4053.333333
238,4394.871794,4488.205128,4526.153846,4246.153846,4527.692307,4211.282051,4441.025641,4212.820512,4241.538461,4494.871794,4208.717948,4650.256410,3984.102565,4059.487179
239,4400.512820,4489.230769,4529.230769,4253.333333,4527.692307,4211.282051,4444.615384,4217.948717,4237.435897,4493.333333,4198.461538,4653.333333,3989.230770,4065.641025
240,4396.410256,4497.435897,4529.743589,4249.230769,4526.666666,4214.871794,4445.128205,4219.487179,4236.410256,4496.410256,4190.769230,4653.333333,3978.461539,4057.435897
241,4391.282051,4501.025641,4527.692307,4242.051282,4527.179487,4215.384615,4442.051282,4218.974358,4237.948717,4495.384615,4198.974358,4648.717948,3972.307693,4048.717948
242,4397.435897,4493.846153,4530.769230,4253.333333,4529.230769,4211.794871,4444.615384,4226.153846,4237.948717,4496.923076,4206.666666,4651.794871,3980.512821,4049.743589
243,4399.487179,4486.153846,4535.384615,4265.128205,4527.179487,4209.743589,4443.076923,4226.153846,4237.435897,4501.025641,4201.025641,4655.384615,3977.948718,4050.769230
244,4394.358974,4488.205128,4531.794871,4256.923076,4519.487179,4205.128205,4432.307692,4212.307692,4238.974358,4495.384615,4191.282051,4650.256410,3969.230770,4048.717948
245,4390.769230,4493.333333,4527.692307,4253.333333,4515.897435,4204.615384,4430.769230,4206.153846,4235.384615,4488.717948,4188.205128,4646.153846,3969.230770,4049.743589
246,4393.846153,4496.410256,4530.256410,4262.564102,4524.102564,4213.333333,4438.461538,4208.717948,4226.153846,4487.179487,4196.923076,4647.692307,3972.820513,4052.820512
247,4406.666666,4503.589743,4533.846153,4264.102564,4530.769230,4220.512820,4443.076923,4208.717948,4228.717948,4484.615384,4211.794871,4652.307692,3981.025642,4055.897435
248,4412.820512,4505.128205,4535.897435,4263.589743,4532.307692,4217.435897,4443.076923,4211.794871,4238.974358,4491.794871,4214.871794,4658.974358,3986.666667,4059.487179
249,4404.615384,4500.512820,4532.820512,4265.128205,4532.307692,4211.282051,4439.487179,4218.461538,4240.000000,4509.743589,4208.717948,4658.461538,3978.461539,4060.000000
250,4397.435897,4498.461538,4527.692307,4253.846153,4527.692307,4209.230769,4435.897435,4215.897435,4236.410256,4513.333333,4211.282051,4649.743589,3973.333334,4054.358974
251,4394.871794,4495.384615,4527.692307,4245.641025,4525.641025,4208.205128,4434.358974,4208.717948,4234.358974,4497.435897,4205.641025,4647.692307,3978.461539,4046.153846
252,4394.358974,4493.333333,4529.230769,4251.794871,4525.128205,4206.666666,4431.794871,4204.102564,4227.692307,4485.641025,4189.230769,4648.205128,3978.974359,4042.051282
253,4398.974358,4494.358974,4528.205128,4251.282051,4520.512820,4204.615384,4427.692307,4199.487179,4221.538461,4490.769230,4193.333333,4646.666666,3977.435898,4048.205128
254,4399.487179,4495.897435,4525.128205,4247.692307,4518.461538,4206.153846,4427.692307,4201.538461,4231.282051,4495.897435,4210.256410,4648.205128,3978.974359,4052.820512
255,4393.846153,4491.282051,4521.025641,4246.666666,4518.461538,4207.692307,4432.307692,4207.692307,4240.512820,4496.410256,4211.282051,4646.666666,3973.846154,4046.153846
256,4393.333333,4483.589743,4520.512820,4244.102564,4516.923076,4205.641025,4435.384615,4209.230769,4235.384615,4496.923076,4201.025641,4643.076923,3971.794872,4041.538461
257,4396.923076,4486.666666,4527.692307,4251.282051,4517.948717,4210.256410,4437.948717,4211.282051,4233.846153,4498.974358,4193.333333,4648.717948,3978.974359,4047.692307
258,4400.512820,4495.897435,4533.333333,4263.589743,4520.512820,4214.871794,4436.410256,4211.794871,4235.897435,4497.435897,4196.410256,4653.333333,3981.025642,4054.871794
259,4405.641025,4498.461538,4533.846153,4266.153846,4523.589743,4210.769230,4435.384615,4207.179487,4236.923076,4497.948717,4221.538461,4654.358974,3986.153847,4061.025641
