,AF3,F7,F3,FC5,T7,P7,O1,O2,P8,T8,FC6,F4,F8,AF4
0,4402.564102,4537.435897,4535.897435,4265.128205,4511.794871,4210.769230,4444.615384,4218.974358,4243.076923,4506.153846,4269.743589,4653.333333,3992.307693,4058.461538
1,4391.282051,4516.923076,4532.820512,4262.051282,4497.435897,4195.384615,4442.051282,4226.153846,4247.692307,4508.717948,4266.153846,4653.846153,3994.871795,4058.461538
2,4393.846153,4521.025641,4539.487179,4263.076923,4491.282051,4202.051282,4453.333333,4229.743589,4250.256410,4516.923076,4262.564102,4663.589743,4004.102564,4064.615384
3,4399.487179,4533.333333,4541.025641,4264.615384,4492.307692,4205.641025,4454.358974,4221.025641,4249.230769,4517.435897,4269.230769,4661.538461,3997.948718,4065.128205
4,4394.358974,4528.205128,4528.205128,4261.025641,4490.769230,4189.743589,4435.384615,4201.025641,4237.435897,4511.794871,4272.820512,4647.179487,3985.641026,4057.435897
5,4390.256410,4524.102564,4520.512820,4252.820512,4491.282051,4185.128205,4421.025641,4188.717948,4222.564102,4507.692307,4263.076923,4641.538461,3986.666667,4049.230769
6,4398.974358,4534.358974,4528.205128,4253.846153,4491.794871,4197.948717,4424.615384,4195.897435,4223.589743,4503.076923,4267.179487,4649.743589,4000.000000,4056.410256
7,4411.794871,4545.641025,4534.358974,4266.666666,4494.358974,4207.179487,4435.897435,4212.820512,4240.000000,4507.692307,4280.512820,4660.000000,4012.820512,4078.974358
8,4408.205128,4540.000000,4533.846153,4267.179487,4501.025641,4201.538461,4441.538461,4220.000000,4249.230769,4522.051282,4278.974358,4662.051282,4017.435897,4084.102564
9,4393.846153,4524.615384,4531.282051,4259.487179,4496.923076,4195.897435,4442.051282,4216.410256,4244.615384,4522.051282,4273.333333,4657.948717,4006.666666,4060.000000
10,4395.897435,4524.102564,4534.358974,4261.538461,4487.692307,4207.179487,4448.205128,4218.974358,4246.666666,4513.846153,4280.512820,4659.487179,3995.384616,4054.358974
11,4408.205128,4537.948717,4538.974358,4267.179487,4498.974358,4218.461538,4454.871794,4222.051282,4252.307692,4517.948717,4283.589743,4665.641025,4003.589743,4076.923076
12,4406.153846,4543.589743,4534.358974,4264.615384,4507.179487,4208.205128,4444.615384,4209.743589,4242.051282,4517.435897,4272.820512,4662.051282,4013.333333,4082.051282
13,4397.948717,4538.974358,4528.205128,4260.000000,4493.333333,4195.384615,4427.692307,4197.435897,4231.794871,4504.102564,4265.641025,4652.820512,4002.051282,4064.615384
14,4405.641025,4541.025641,4530.769230,4263.589743,4485.128205,4202.051282,4429.743589,4205.128205,4240.000000,4509.230769,4276.410256,4654.871794,3997.435898,4066.153846
15,4414.358974,4545.128205,4535.384615,4274.871794,4498.974358,4210.769230,4442.051282,4219.487179,4249.230769,4526.153846,4291.794871,4664.615384,4017.435897,4082.564102
16,4405.128205,4535.384615,4532.820512,4272.820512,4506.153846,4203.076923,4442.564102,4222.564102,4246.153846,4525.641025,4293.333333,4665.128205,4022.564102,4082.051282
17,4394.358974,4523.076923,4532.820512,4256.923076,4495.384615,4198.974358,4440.512820,4221.025641,4248.717948,4523.076923,4288.205128,4664.102564,4010.256410,4077.948717
18,4396.923076,4520.000000,4537.435897,4252.307692,4487.692307,4206.666666,4444.102564,4220.000000,4255.384615,4523.589743,4283.589743,4667.179487,4005.128205,4073.333333
19,4398.461538,4523.076923,4536.923076,4257.948717,4489.743589,4208.205128,4445.641025,4215.384615,4250.256410,4515.384615,4276.410256,4665.128205,3997.948718,4066.666666
20,4396.410256,4530.256410,4533.333333,4261.538461,4495.897435,4204.102564,4441.025641,4213.846153,4243.589743,4515.384615,4278.974358,4661.025641,3992.307693,4069.743589
21,4398.974358,4536.410256,4531.282051,4267.179487,4499.487179,4201.025641,4437.435897,4212.307692,4240.512820,4521.538461,4284.615384,4658.974358,3998.461539,4075.897435
22,4408.205128,4540.512820,4530.769230,4271.794871,4496.410256,4201.025641,4438.974358,4211.794871,4244.615384,4516.410256,4287.179487,4660.512820,4002.564102,4077.435897
23,4416.410256,4545.128205,4540.512820,4271.794871,4495.897435,4208.205128,4447.179487,4225.641025,4255.384615,4515.897435,4288.205128,4668.205128,4005.641025,4077.948717
24,4411.282051,4540.000000,4545.641025,4265.641025,4501.025641,4212.820512,4452.307692,4236.923076,4255.897435,4520.512820,4276.923076,4670.769230,4004.102564,4072.307692
25,4390.256410,4524.102564,4535.384615,4256.410256,4500.512820,4204.102564,4446.666666,4226.666666,4247.179487,4510.256410,4261.538461,4660.512820,3983.589744,4060.512820
26,4381.538461,4515.384615,4531.282051,4255.897435,4489.230769,4198.461538,4445.128205,4217.948717,4246.153846,4503.076923,4269.743589,4654.871794,3974.358975,4060.512820
27,4392.307692,4519.487179,4537.948717,4262.564102,4486.666666,4203.589743,4446.666666,4221.025641,4243.589743,4509.230769,4281.025641,4656.410256,3987.179488,4060.000000
28,4396.923076,4530.256410,4533.333333,4262.051282,4500.000000,4203.076923,4437.948717,4219.487179,4235.897435,4505.641025,4273.333333,4652.820512,3985.128206,4051.794871
29,4392.307692,4540.512820,4527.692307,4265.128205,4505.128205,4201.025641,4431.794871,4212.307692,4241.025641,4502.051282,4264.615384,4649.743589,3974.358975,4056.410256
30,4385.641025,4533.846153,4527.692307,4267.692307,4497.948717,4202.564102,4435.897435,4205.641025,4243.076923,4512.307692,4254.358974,4647.179487,3974.358975,4060.000000
31,4380.512820,4518.974358,4524.615384,4252.307692,4493.333333,4199.487179,4440.000000,4204.102564,4228.717948,4505.128205,4249.230769,4643.589743,3975.384616,4048.717948
32,4384.102564,4520.000000,4526.666666,4246.153846,4488.717948,4197.948717,4441.025641,4211.282051,4228.717948,4485.641025,4263.076923,4646.153846,3973.846154,4046.153846
33,4390.256410,4525.128205,4533.333333,4263.589743,4483.589743,4199.487179,4443.589743,4221.025641,4238.461538,4491.282051,4271.794871,4653.333333,3973.846154,4054.871794
34,4386.666666,4520.000000,4532.820512,4268.205128,4483.589743,4200.000000,4441.025641,4217.435897,4233.846153,4506.666666,4261.538461,4655.897435,3969.743590,4053.333333
35,4378.974358,4516.410256,4530.256410,4253.333333,4481.538461,4197.435897,4431.282051,4205.128205,4226.666666,4495.384615,4257.435897,4654.358974,3968.717949,4049.230769
36,4384.102564,4525.641025,4532.820512,4253.333333,4480.000000,4203.076923,4426.666666,4204.102564,4230.769230,4485.641025,4262.564102,4654.871794,3977.435898,4054.358974
37,4392.307692,4535.897435,4534.358974,4262.051282,4491.794871,4210.256410,4431.794871,4211.282051,4233.846153,4496.923076,4263.589743,4658.461538,3983.589744,4058.974358
38,4393.846153,4531.282051,4533.846153,4262.051282,4500.000000,4208.717948,4440.000000,4211.794871,4233.333333,4504.102564,4271.282051,4658.461538,3984.102565,4061.025641
39,4388.205128,4519.487179,4532.307692,4261.025641,4494.358974,4201.538461,4442.564102,4211.794871,4240.512820,4506.153846,4279.487179,4655.897435,3982.051283,4059.487179
40,4380.000000,4517.948717,4529.743589,4257.435897,4490.256410,4200.000000,4442.564102,4219.487179,4248.717948,4513.333333,4278.461538,4660.512820,3985.641026,4054.358974
41,4381.538461,4528.717948,4531.282051,4256.923076,4488.205128,4208.717948,4444.615384,4224.102564,4248.205128,4514.358974,4277.948717,4666.666666,3993.333334,4055.384615
42,4395.897435,4537.435897,4535.897435,4263.589743,4487.179487,4211.282051,4446.153846,4223.589743,4248.205128,4507.692307,4281.538461,4667.692307,3995.384616,4065.641025
43,4402.051282,4538.974358,4534.871794,4270.256410,4496.923076,4208.205128,4443.076923,4225.128205,4252.307692,4516.923076,4281.538461,4668.205128,3992.820513,4072.820512
44,4390.256410,4536.410256,4529.743589,4264.615384,4503.589743,4207.179487,4437.435897,4218.974358,4248.205128,4525.641025,4276.923076,4668.717948,3988.205129,4064.615384
45,4387.179487,4540.512820,4529.743589,4258.461538,4494.871794,4208.205128,4435.897435,4217.435897,4240.512820,4514.871794,4276.923076,4666.153846,3986.153847,4057.948717
46,4398.461538,4548.205128,4538.974358,4269.743589,4492.307692,4212.820512,4443.076923,4227.692307,4243.589743,4503.589743,4287.179487,4667.179487,3993.333334,4069.743589
47,4401.025641,4546.153846,4544.102564,4273.846153,4499.487179,4215.384615,4446.666666,4227.692307,4249.743589,4504.102564,4287.692307,4668.717948,3997.948718,4077.948717
48,4394.358974,4537.435897,4537.435897,4263.589743,4502.564102,4208.205128,4443.589743,4218.461538,4250.256410,4510.256410,4269.743589,4668.205128,3993.846154,4068.205128
49,4395.384615,4534.871794,4532.820512,4262.564102,4501.538461,4199.487179,4440.512820,4213.333333,4245.128205,4512.820512,4267.179487,4668.205128,3992.820513,4064.615384
50,4401.025641,4539.487179,4535.384615,4271.282051,4497.435897,4201.538461,4437.435897,4208.717948,4237.435897,4510.769230,4282.051282,4664.102564,3992.820513,4069.230769
51,4393.846153,4539.487179,4533.846153,4265.641025,4489.743589,4203.589743,4433.846153,4200.512820,4230.769230,4506.153846,4284.615384,4661.538461,3980.512821,4067.179487
52,4384.615384,4534.871794,4531.282051,4257.948717,4489.230769,4197.948717,4432.820512,4200.000000,4229.743589,4502.564102,4277.948717,4663.076923,3977.435898,4065.128205
53,4389.230769,4537.435897,4533.846153,4266.153846,4495.384615,4194.871794,4430.769230,4206.153846,4232.307692,4496.923076,4274.871794,4660.512820,3991.282052,4061.538461
54,4392.820512,4540.000000,4533.333333,4269.743589,4486.666666,4194.871794,4427.179487,4204.615384,4228.205128,4488.717948,4265.128205,4653.846153,3989.743590,4049.230769
55,4383.076923,4528.205128,4530.256410,4260.000000,4476.923076,4195.897435,4431.794871,4200.512820,4226.153846,4485.128205,4255.897435,4652.307692,3972.307693,4046.153846
56,4377.435897,4521.538461,4529.743589,4256.410256,4481.025641,4202.564102,4443.076923,4206.666666,4231.282051,4492.307692,4265.641025,4655.384615,3966.666667,4057.948717
57,4387.692307,4531.282051,4533.846153,4256.923076,4497.435897,4215.897435,4449.230769,4218.461538,4233.333333,4498.974358,4273.333333,4656.923076,3973.333334,4067.179487
58,4387.692307,4530.769230,4532.820512,4250.769230,4506.153846,4218.461538,4446.153846,4217.435897,4230.769230,4494.358974,4261.538461,4653.333333,3972.820513,4054.871794
59,4377.435897,4516.923076,4524.102564,4250.769230,4494.871794,4211.794871,4440.512820,4211.794871,4234.358974,4491.794871,4245.641025,4649.230769,3971.282052,4043.589743
60,4382.051282,4524.102564,4529.230769,4263.076923,4488.205128,4214.358974,4442.564102,4223.589743,4244.615384,4505.128205,4251.794871,4656.410256,3982.564103,4055.384615
61,4395.897435,4546.666666,4546.153846,4266.666666,4492.820512,4218.974358,4447.692307,4233.846153,4247.692307,4510.256410,4275.384615,4667.179487,3985.641026,4069.230769
62,4397.948717,4548.717948,4549.743589,4263.589743,4492.820512,4210.769230,4450.769230,4230.256410,4246.153846,4504.102564,4284.102564,4670.769230,3975.897436,4068.205128
63,4396.410256,4538.974358,4547.179487,4266.666666,4493.333333,4206.666666,4454.871794,4231.282051,4248.717948,4507.179487,4274.871794,4670.256410,3977.948718,4068.205128
64,4402.051282,4537.948717,4553.333333,4266.666666,4497.435897,4213.846153,4460.000000,4238.974358,4249.743589,4509.230769,4270.256410,4674.358974,3989.230770,4076.410256
65,4401.025641,4532.307692,4555.384615,4263.076923,4492.307692,4220.000000,4468.205128,4240.512820,4250.769230,4505.641025,4272.307692,4681.025641,3990.256411,4080.512820
66,4390.769230,4522.051282,4548.205128,4263.076923,4492.820512,4218.461538,4471.794871,4237.435897,4250.256410,4509.230769,4263.076923,4677.435897,3982.564103,4067.692307
67,4385.128205,4526.153846,4543.076923,4262.051282,4502.051282,4215.384615,4457.435897,4226.153846,4240.512820,4509.230769,4251.794871,4668.205128,3969.230770,4049.230769
68,4390.256410,4537.435897,4541.025641,4267.179487,4501.538461,4216.923076,4446.666666,4214.358974,4230.256410,4498.974358,4260.000000,4664.615384,3956.923077,4049.230769
69,4394.871794,4545.128205,4540.000000,4276.923076,4500.512820,4220.000000,4453.846153,4220.000000,4230.769230,4490.769230,4267.179487,4664.615384,3965.641026,4062.564102
70,4387.179487,4550.769230,4537.435897,4275.384615,4508.205128,4218.461538,4456.410256,4231.282051,4234.871794,4489.743589,4258.461538,4666.153846,3976.410257,4066.153846
71,4379.487179,4546.153846,4532.820512,4261.538461,4510.256410,4214.358974,4450.769230,4229.230769,4232.307692,4492.820512,4246.153846,4661.538461,3968.205129,4061.538461
72,4387.692307,4534.871794,4537.435897,4263.076923,4504.615384,4214.358974,4455.897435,4227.179487,4233.846153,4501.025641,4247.179487,4660.000000,3963.076924,4062.051282
73,4395.384615,4534.871794,4543.589743,4277.435897,4496.923076,4217.435897,4463.589743,4231.794871,4244.102564,4508.717948,4263.589743,4669.230769,3971.794872,4064.615384
74,4392.820512,4544.615384,4541.025641,4273.846153,4493.333333,4216.923076,4456.923076,4233.846153,4251.282051,4510.769230,4270.769230,4675.384615,3981.025642,4066.666666
75,4393.846153,4551.282051,4543.076923,4262.051282,4499.487179,4213.333333,4447.692307,4228.717948,4246.666666,4506.666666,4261.025641,4673.333333,3983.076924,4066.153846
76,4398.461538,4551.794871,4546.666666,4272.820512,4507.179487,4213.333333,4443.076923,4219.487179,4235.384615,4493.333333,4255.897435,4671.282051,3982.564103,4066.666666
77,4399.487179,4551.794871,4543.076923,4282.051282,4508.205128,4215.897435,4443.076923,4218.461538,4230.256410,4489.743589,4261.538461,4671.282051,3983.076924,4072.307692
78,4400.512820,4552.307692,4541.538461,4268.717948,4507.179487,4218.974358,4451.794871,4228.717948,4230.769230,4501.538461,4265.641025,4671.794871,3984.102565,4077.435897
79,4396.410256,4545.641025,4545.128205,4267.692307,4504.615384,4220.512820,4455.384615,4233.333333,4238.461538,4506.153846,4263.589743,4670.256410,3978.461539,4069.230769
80,4383.589743,4534.871794,4542.564102,4276.923076,4502.051282,4216.923076,4448.205128,4230.256410,4244.102564,4500.512820,4260.000000,4666.666666,3969.743590,4054.358974
81,4390.769230,4540.000000,4542.051282,4269.230769,4504.615384,4216.410256,4447.179487,4229.743589,4240.512820,4507.692307,4264.102564,4669.743589,3975.897436,4067.179487
82,4411.282051,4552.820512,4552.307692,4269.743589,4507.692307,4225.128205,4457.435897,4233.846153,4239.487179,4515.384615,4269.743589,4678.974358,3994.871795,4092.307692
83,4418.461538,4555.384615,4561.538461,4284.102564,4508.205128,4227.179487,4461.025641,4241.025641,4246.153846,4509.743589,4270.256410,4685.128205,4005.641025,4097.435897
84,4416.410256,4555.897435,4562.564102,4285.128205,4510.256410,4220.000000,4462.051282,4248.717948,4257.948717,4513.333333,4280.512820,4691.282051,4008.717948,4091.282051
85,4414.358974,4558.974358,4561.025641,4282.564102,4504.102564,4216.410256,4466.666666,4251.282051,4263.076923,4523.589743,4295.384615,4694.358974,4012.307692,4092.307692
86,4415.384615,4557.435897,4560.512820,4290.256410,4493.333333,4218.974358,4463.589743,4248.205128,4255.897435,4523.076923,4294.358974,4690.769230,4011.282051,4099.487179
87,4412.820512,4554.871794,4556.923076,4286.153846,4498.974358,4226.153846,4458.461538,4243.589743,4248.717948,4524.102564,4282.051282,4688.717948,3998.461539,4094.871794
88,4401.025641,4552.307692,4550.256410,4277.435897,4511.282051,4228.717948,4458.461538,4236.410256,4247.692307,4518.974358,4267.179487,4683.076923,3981.538462,4072.307692
89,4396.410256,4549.743589,4552.307692,4282.564102,4513.333333,4229.743589,4454.871794,4232.820512,4242.051282,4501.025641,4264.102564,4676.923076,3981.025642,4065.641025
90,4405.641025,4552.820512,4560.000000,4284.615384,4507.692307,4229.743589,4447.692307,4230.769230,4231.794871,4493.846153,4272.307692,4678.974358,3990.256411,4084.102564
91,4403.589743,4554.871794,4555.384615,4278.461538,4498.974358,4221.538461,4441.538461,4220.000000,4229.230769,4498.974358,4270.769230,4674.871794,3982.564103,4085.128205
92,4393.333333,4544.102564,4544.102564,4277.948717,4496.410256,4212.307692,4442.051282,4216.410256,4230.256410,4500.512820,4261.025641,4665.128205,3970.256411,4066.153846
93,4392.307692,4537.435897,4542.564102,4274.358974,4506.153846,4216.923076,4451.282051,4230.256410,4232.307692,4503.076923,4254.358974,4667.692307,3977.435898,4056.410256
94,4386.153846,4538.461538,4541.025641,4265.641025,4511.794871,4221.025641,4458.461538,4234.871794,4236.410256,4502.564102,4251.794871,4667.692307,3974.871795,4055.384615
95,4379.487179,4536.923076,4535.897435,4264.102564,4505.641025,4215.384615,4458.461538,4231.794871,4238.461538,4498.461538,4260.512820,4660.512820,3958.974359,4061.538461
96,4391.282051,4540.000000,4544.615384,4269.230769,4500.000000,4217.948717,4459.487179,4242.051282,4247.179487,4505.641025,4281.538461,4670.769230,3973.846154,4078.461538
97,4399.487179,4545.641025,4553.333333,4276.410256,4499.487179,4221.538461,4461.025641,4246.153846,4254.358974,4515.384615,4284.615384,4682.051282,3994.871795,4076.923076
98,4388.717948,4540.000000,4548.717948,4278.974358,4498.974358,4212.307692,4452.820512,4229.743589,4245.641025,4511.794871,4260.000000,4672.307692,3980.512821,4057.948717
99,4386.666666,4538.461538,4543.589743,4271.794871,4492.820512,4203.076923,4443.076923,4217.435897,4233.333333,4502.564102,4244.615384,4662.051282,3968.205129,4057.948717
100,4396.410256,4548.205128,4541.538461,4269.230769,4488.205128,4207.179487,4442.564102,4215.384615,4228.205128,4490.769230,4256.923076,4663.589743,3978.461539,4068.205128
101,4395.384615,4549.230769,4541.538461,4276.923076,4498.974358,4215.384615,4444.102564,4214.871794,4229.743589,4486.666666,4272.307692,4665.128205,3977.948718,4066.153846
102,4382.564102,4541.538461,4542.564102,4274.358974,4509.230769,4215.897435,4443.589743,4213.846153,4233.333333,4494.358974,4266.666666,4665.641025,3963.589744,4057.435897
103,4374.871794,4536.923076,4543.589743,4262.051282,4500.000000,4209.230769,4440.512820,4208.717948,4224.615384,4495.897435,4253.846153,4666.666666,3956.923077,4056.410256
104,4383.589743,4537.948717,4543.076923,4264.102564,4496.410256,4205.641025,4438.974358,4208.205128,4212.820512,4489.743589,4247.692307,4670.256410,3964.615385,4064.615384
105,4395.897435,4542.564102,4546.666666,4275.897435,4508.205128,4207.692307,4442.051282,4217.435897,4222.051282,4486.153846,4259.487179,4677.435897,3974.871795,4074.871794
106,4399.487179,4542.564102,4550.256410,4277.948717,4505.641025,4204.102564,4442.051282,4220.000000,4234.871794,4491.282051,4279.487179,4682.564102,3975.897436,4074.358974
107,4396.923076,4543.076923,4547.692307,4273.333333,4490.769230,4205.641025,4441.025641,4223.076923,4237.948717,4505.128205,4284.102564,4682.564102,3981.025642,4075.897435
108,4392.820512,4547.179487,4546.666666,4268.205128,4483.589743,4212.820512,4450.256410,4233.846153,4244.615384,4514.358974,4278.461538,4681.538461,3989.743590,4083.076923
109,4388.717948,4544.102564,4545.128205,4263.589743,4482.051282,4205.641025,4455.897435,4230.256410,4244.102564,4509.743589,4273.333333,4675.384615,3983.589744,4073.846153
110,4390.769230,4535.384615,4539.487179,4263.076923,4485.641025,4202.564102,4447.692307,4219.487179,4240.000000,4507.692307,4266.666666,4669.743589,3974.871795,4060.000000
111,4388.717948,4535.384615,4534.871794,4263.589743,4494.358974,4211.794871,4442.564102,4215.384615,4236.923076,4502.051282,4258.461538,4664.615384,3969.230770,4056.923076
112,4380.512820,4538.974358,4530.256410,4263.076923,4494.871794,4214.871794,4441.025641,4210.769230,4226.153846,4484.615384,4257.435897,4656.923076,3963.076924,4056.923076
113,4383.076923,4540.512820,4528.717948,4269.230769,4497.435897,4214.871794,4438.974358,4207.692307,4219.487179,4481.025641,4264.102564,4654.871794,3966.153847,4059.487179
114,4384.615384,4537.948717,4526.666666,4269.230769,4507.179487,4215.384615,4439.487179,4204.615384,4221.538461,4489.743589,4263.076923,4653.846153,3970.769231,4055.384615
115,4384.615384,4536.410256,4527.692307,4263.076923,4507.179487,4211.282051,4446.153846,4203.076923,4223.076923,4490.769230,4262.564102,4650.769230,3967.179488,4052.307692
116,4391.794871,4545.641025,4534.358974,4265.641025,4503.589743,4211.794871,4449.743589,4212.307692,4228.205128,4492.820512,4272.307692,4655.897435,3968.717949,4064.615384
117,4388.717948,4548.717948,4533.333333,4272.820512,4504.615384,4215.897435,4447.692307,4222.564102,4237.435897,4495.897435,4274.358974,4658.461538,3975.897436,4069.743589
118,4381.538461,4538.461538,4526.153846,4269.230769,4501.538461,4211.794871,4442.564102,4214.871794,4233.333333,4496.923076,4263.076923,4652.307692,3977.435898,4056.923076
119,4387.179487,4535.897435,4525.641025,4261.538461,4495.897435,4206.153846,4435.384615,4202.564102,4224.102564,4504.102564,4256.410256,4651.282051,3976.923077,4051.794871
120,4393.333333,4542.051282,4532.820512,4268.205128,4492.307692,4201.538461,4429.230769,4204.615384,4225.641025,4510.256410,4260.512820,4658.974358,3977.948718,4060.512820
121,4387.179487,4539.487179,4538.461538,4278.461538,4492.307692,4198.974358,4432.820512,4214.871794,4231.794871,4505.641025,4264.615384,4665.128205,3978.461539,4066.666666
122,4381.538461,4528.717948,4543.589743,4272.307692,4494.358974,4199.487179,4441.538461,4224.102564,4236.410256,4497.435897,4260.000000,4667.179487,3981.538462,4066.666666
123,4385.641025,4523.589743,4545.128205,4264.615384,4491.282051,4198.461538,4446.153846,4225.641025,4229.230769,4487.692307,4252.820512,4669.230769,3975.897436,4059.487179
124,4394.871794,4533.333333,4545.641025,4274.358974,4485.641025,4204.615384,4455.384615,4222.564102,4218.974358,4486.153846,4258.461538,4673.333333,3961.538462,4054.871794
125,4400.000000,4551.282051,4549.743589,4284.102564,4495.384615,4216.410256,4462.051282,4220.512820,4223.076923,4493.333333,4266.153846,4674.871794,3960.512821,4064.615384
126,4395.897435,4550.256410,4548.717948,4277.948717,4500.512820,4214.358974,4452.307692,4215.384615,4229.743589,4489.230769,4258.461538,4670.769230,3965.128206,4065.128205
127,4393.846153,4536.923076,4540.000000,4269.743589,4492.307692,4202.564102,4441.538461,4205.641025,4226.666666,4486.153846,4249.743589,4662.051282,3958.461539,4054.358974
128,4393.846153,4533.846153,4537.435897,4265.641025,4494.358974,4200.000000,4443.076923,4204.102564,4227.692307,4497.948717,4244.102564,4653.846153,3958.974359,4053.333333
129,4399.487179,4540.000000,4549.230769,4266.153846,4496.923076,4210.769230,4451.794871,4223.076923,4244.102564,4509.743589,4247.692307,4661.538461,3976.410257,4065.128205
130,4409.743589,4547.179487,4560.512820,4275.897435,4489.230769,4217.435897,4464.102564,4244.102564,4258.974358,4516.410256,4275.897435,4680.000000,3992.307693,4076.410256
131,4412.820512,4551.794871,4563.076923,4288.717948,4493.333333,4215.384615,4469.743589,4251.282051,4267.179487,4522.051282,4297.948717,4689.230769,3998.974359,4085.641025
132,4415.897435,4558.461538,4563.589743,4293.846153,4506.666666,4216.923076,4465.641025,4248.205128,4270.256410,4528.717948,4294.871794,4690.256410,4007.179487,4092.307692
133,4422.051282,4568.717948,4560.000000,4292.307692,4506.666666,4220.512820,4458.461538,4239.487179,4258.974358,4525.128205,4282.051282,4688.205128,4014.358974,4093.846153
134,4416.923076,4569.743589,4545.641025,4285.128205,4503.589743,4208.717948,4446.666666,4220.000000,4237.435897,4503.589743,4267.692307,4673.846153,4004.615384,4088.717948
135,4403.076923,4556.923076,4534.358974,4276.923076,4505.128205,4197.435897,4438.974358,4200.512820,4225.641025,4490.769230,4264.615384,4657.948717,3988.205129,4074.358974
136,4401.538461,4555.384615,4538.461538,4274.358974,4504.102564,4209.230769,4443.589743,4204.102564,4233.333333,4508.205128,4283.076923,4662.564102,3991.282052,4073.333333
137,4412.307692,4569.230769,4544.102564,4288.717948,4506.153846,4216.923076,4445.641025,4217.948717,4247.692307,4521.025641,4292.820512,4672.820512,4004.102564,4087.179487
138,4421.538461,4572.307692,4545.128205,4297.435897,4507.179487,4210.769230,4445.641025,4221.025641,4256.410256,4514.871794,4288.205128,4673.846153,4009.230769,4090.256410
139,4424.102564,4566.666666,4548.717948,4286.153846,4506.666666,4212.820512,4455.384615,4223.076923,4259.487179,4520.512820,4288.717948,4678.461538,4014.871794,4092.307692
140,4419.487179,4561.538461,4550.769230,4278.461538,4510.256410,4217.435897,4462.051282,4222.564102,4254.871794,4529.743589,4291.282051,4682.564102,4020.000000,4096.410256
141,4409.743589,4557.435897,4548.717948,4281.025641,4506.153846,4209.743589,4458.974358,4216.923076,4249.230769,4522.564102,4288.205128,4676.410256,4012.307692,4086.153846
142,4410.256410,4554.871794,4552.820512,4280.512820,4491.794871,4203.076923,4457.435897,4220.512820,4255.384615,4515.384615,4292.307692,4678.461538,4007.179487,4082.051282
143,4424.102564,4557.435897,4563.076923,4284.102564,4493.333333,4209.743589,4458.974358,4233.333333,4267.692307,4527.692307,4306.153846,4689.230769,4010.769230,4096.923076
144,4427.179487,4558.974358,4564.102564,4294.358974,4505.128205,4214.871794,4460.512820,4235.897435,4267.179487,4538.461538,4310.769230,4688.717948,4012.307692,4100.512820
145,4408.205128,4548.717948,4552.307692,4285.641025,4502.564102,4207.692307,4454.358974,4224.615384,4254.871794,4521.538461,4292.307692,4678.974358,4005.641025,4080.512820
146,4388.205128,4534.358974,4541.538461,4263.076923,4495.897435,4199.487179,4444.102564,4221.025641,4247.179487,4502.564102,4274.358974,4672.820512,3990.769231,4060.512820
147,4390.256410,4534.871794,4541.025641,4260.512820,4496.410256,4203.076923,4448.717948,4226.666666,4249.230769,4509.743589,4278.461538,4672.307692,3984.102565,4062.051282
148,4395.897435,4541.538461,4543.589743,4267.179487,4493.846153,4207.179487,4461.025641,4228.717948,4254.358974,4522.051282,4287.692307,4674.358974,3992.307693,4074.871794
149,4391.282051,4539.487179,4545.641025,4264.615384,4488.205128,4202.051282,4461.025641,4227.692307,4257.948717,4516.923076,4288.717948,4675.897435,3997.948718,4078.974358
150,4386.153846,4538.461538,4543.589743,4265.128205,4494.358974,4200.512820,4456.923076,4231.282051,4262.564102,4512.820512,4289.230769,4672.307692,3992.307693,4071.282051
151,4386.153846,4542.051282,4542.051282,4276.410256,4501.538461,4207.179487,4458.974358,4235.384615,4266.666666,4519.487179,4282.564102,4671.794871,3991.282052,4065.641025
152,4392.307692,4541.538461,4547.179487,4282.564102,4505.128205,4212.820512,4459.487179,4239.487179,4271.282051,4525.641025,4275.897435,4678.974358,4001.538461,4068.205128
153,4401.025641,4545.641025,4549.743589,4278.461538,4503.589743,4207.179487,4458.974358,4248.205128,4271.794871,4527.692307,4286.666666,4682.564102,4009.743589,4082.051282
154,4397.948717,4549.230769,4547.692307,4278.461538,4495.897435,4197.948717,4461.538461,4245.641025,4264.102564,4524.102564,4294.871794,4678.461538,4005.128205,4088.717948
155,4386.153846,4544.615384,4543.076923,4278.974358,4491.282051,4199.487179,4461.025641,4237.948717,4262.051282,4525.128205,4289.230769,4673.846153,3997.435898,4074.871794
156,4388.205128,4547.692307,4540.512820,4270.256410,4490.256410,4203.076923,4457.435897,4238.974358,4265.641025,4524.102564,4285.128205,4672.820512,3990.769231,4063.076923
157,4396.923076,4553.333333,4540.000000,4264.102564,4488.205128,4202.564102,4458.974358,4238.461538,4261.025641,4511.282051,4282.564102,4671.794871,3986.153847,4071.282051
158,4392.820512,4545.641025,4541.025641,4269.230769,4496.410256,4202.564102,4462.051282,4233.846153,4253.333333,4510.256410,4278.461538,4669.743589,3990.256411,4085.128205
159,4384.102564,4535.384615,4541.025641,4267.179487,4505.128205,4200.512820,4455.384615,4227.179487,4248.717948,4516.410256,4275.384615,4668.205128,3993.846154,4077.948717
160,4386.666666,4536.410256,4540.512820,4261.538461,4497.435897,4198.974358,4449.743589,4222.051282,4245.641025,4510.769230,4277.948717,4671.794871,3989.743590,4064.102564
161,4396.923076,4546.153846,4547.692307,4273.333333,4493.846153,4207.179487,4457.435897,4224.102564,4251.282051,4507.179487,4286.666666,4680.512820,3991.282052,4073.846153
162,4402.564102,4551.794871,4555.897435,4285.128205,4504.615384,4213.846153,4463.076923,4233.333333,4261.025641,4516.410256,4288.717948,4684.615384,3999.487180,4088.205128
163,4400.000000,4547.692307,4555.384615,4278.974358,4508.717948,4211.282051,4461.538461,4235.897435,4258.461538,4520.512820,4283.076923,4686.153846,4006.666666,4087.179487
164,4393.333333,4537.948717,4550.256410,4273.333333,4507.692307,4210.769230,4458.974358,4230.256410,4254.871794,4520.000000,4282.564102,4687.692307,4003.589743,4078.974358
165,4393.333333,4536.410256,4552.307692,4279.487179,4506.153846,4216.410256,4460.000000,4232.307692,4261.538461,4523.589743,4287.692307,4688.717948,3993.333334,4076.923076
166,4402.564102,4546.666666,4562.051282,4283.076923,4502.564102,4217.948717,4465.641025,4237.435897,4268.717948,4526.666666,4289.230769,4691.282051,3998.461539,4086.153846
167,4404.102564,4548.717948,4561.538461,4275.897435,4503.589743,4215.897435,4467.179487,4236.410256,4265.128205,4524.615384,4291.282051,4691.282051,4009.230769,4095.384615
168,4396.410256,4540.000000,4551.794871,4270.769230,4509.230769,4214.358974,4461.025641,4233.846153,4258.974358,4513.333333,4283.589743,4683.076923,4001.538461,4088.205128
169,4396.923076,4539.487179,4548.205128,4276.410256,4506.666666,4214.871794,4459.487179,4233.846153,4257.948717,4508.717948,4269.743589,4676.410256,3993.333334,4076.410256
170,4400.512820,4548.205128,4553.333333,4278.974358,4504.615384,4216.410256,4466.153846,4237.435897,4257.435897,4514.871794,4274.871794,4681.025641,3997.948718,4078.974358
171,4390.256410,4544.615384,4550.769230,4268.717948,4507.179487,4210.256410,4464.615384,4232.307692,4250.769230,4510.769230,4286.153846,4678.461538,3993.333334,4078.461538
172,4379.487179,4529.230769,4538.974358,4262.564102,4507.692307,4200.512820,4453.846153,4218.461538,4239.487179,4500.512820,4277.435897,4664.102564,3978.461539,4067.692307
173,4378.461538,4528.717948,4532.307692,4266.666666,4505.641025,4202.051282,4450.256410,4211.282051,4234.871794,4503.076923,4270.256410,4660.000000,3978.461539,4064.615384
174,4378.461538,4535.384615,4534.871794,4264.615384,4505.641025,4204.102564,4455.897435,4216.410256,4237.948717,4503.589743,4269.743589,4666.153846,3988.205129,4065.641025
175,4386.666666,4539.487179,4545.128205,4264.102564,4504.102564,4199.487179,4460.000000,4226.153846,4248.205128,4503.076923,4271.282051,4674.871794,4004.102564,4074.358974
176,4406.153846,4547.179487,4557.948717,4278.974358,4507.692307,4205.128205,4460.512820,4236.410256,4264.615384,4519.487179,4292.820512,4685.641025,4024.102564,4098.461538
177,4416.410256,4552.820512,4562.564102,4286.153846,4515.384615,4212.307692,4460.512820,4237.435897,4266.666666,4527.692307,4311.282051,4689.230769,4022.051282,4106.666666
178,4410.769230,4553.333333,4558.461538,4283.076923,4512.307692,4211.282051,4457.948717,4229.230769,4254.358974,4517.948717,4300.512820,4687.179487,4006.153846,4095.384615
179,4409.743589,4554.871794,4556.923076,4291.794871,4511.794871,4214.871794,4460.000000,4236.923076,4256.923076,4525.641025,4297.948717,4693.846153,4019.487179,4098.461538
180,4414.871794,4557.948717,4562.051282,4301.025641,4518.461538,4221.538461,4464.615384,4248.717948,4270.769230,4541.538461,4308.717948,4703.076923,4042.051282,4104.615384
181,4413.846153,4555.897435,4558.974358,4290.256410,4515.897435,4218.974358,4460.000000,4239.487179,4269.743589,4530.769230,4300.000000,4696.923076,4030.256410,4095.384615
182,4410.769230,4548.717948,4550.256410,4277.948717,4505.128205,4214.358974,4456.923076,4228.717948,4260.512820,4515.384615,4292.307692,4687.692307,4015.384615,4095.384615
183,4406.153846,4542.051282,4548.205128,4278.461538,4507.179487,4214.871794,4458.974358,4227.179487,4254.358974,4520.000000,4302.564102,4686.666666,4021.025641,4100.000000
184,4397.435897,4543.589743,4549.743589,4280.000000,4514.358974,4214.871794,4458.461538,4224.615384,4251.794871,4524.615384,4302.564102,4687.692307,4020.000000,4090.769230
185,4398.461538,4550.256410,4551.794871,4278.974358,4511.794871,4215.384615,4461.025641,4227.692307,4255.384615,4520.512820,4297.435897,4690.256410,4014.871794,4087.179487
186,4408.205128,4545.128205,4552.307692,4281.025641,4510.256410,4216.410256,4464.102564,4233.333333,4260.000000,4514.871794,4297.435897,4693.333333,4025.128205,4093.333333
187,4408.717948,4536.410256,4549.230769,4280.512820,4507.692307,4214.871794,4461.025641,4233.333333,4258.461538,4516.410256,4291.282051,4689.743589,4028.717948,4093.333333
188,4403.076923,4536.410256,4549.230769,4276.923076,4503.076923,4218.974358,4466.666666,4241.538461,4263.589743,4526.666666,4289.230769,4688.717948,4019.487179,4089.230769
189,4399.487179,4539.487179,4552.820512,4277.948717,4510.769230,4222.051282,4472.307692,4251.282051,4268.717948,4530.769230,4303.589743,4693.333333,4022.051282,4096.410256
190,4400.512820,4540.512820,4555.897435,4280.000000,4519.487179,4217.435897,4464.102564,4240.000000,4261.025641,4522.051282,4313.846153,4693.846153,4032.307692,4104.615384
191,4405.128205,4541.538461,4557.435897,4278.974358,4511.794871,4214.871794,4462.564102,4229.230769,4256.410256,4519.487179,4304.102564,4692.307692,4031.794871,4098.461538
192,4412.307692,4540.000000,4560.000000,4280.000000,4504.615384,4221.025641,4475.897435,4240.512820,4263.589743,4526.666666,4301.538461,4697.435897,4024.615384,4097.435897
193,4413.846153,4540.000000,4560.512820,4281.025641,4511.282051,4221.538461,4478.974358,4250.256410,4264.102564,4523.589743,4309.743589,4698.974358,4024.615384,4104.615384
194,4405.641025,4538.974358,4556.410256,4278.974358,4512.820512,4216.923076,4470.769230,4246.153846,4258.461538,4516.410256,4306.666666,4690.256410,4024.615384,4097.435897
195,4396.410256,4538.461538,4552.820512,4275.384615,4506.153846,4215.384615,4465.641025,4241.025641,4260.000000,4519.487179,4305.128205,4686.153846,4020.000000,4086.153846
196,4400.512820,4538.974358,4549.743589,4273.333333,4506.153846,4208.205128,4461.538461,4235.384615,4258.974358,4526.153846,4306.153846,4685.128205,4015.384615,4089.230769
197,4410.256410,4537.435897,4554.358974,4276.923076,4507.179487,4205.641025,4464.615384,4232.820512,4256.923076,4523.589743,4294.358974,4686.666666,4018.461538,4092.820512
198,4414.871794,4538.461538,4564.102564,4282.051282,4507.179487,4216.410256,4474.871794,4242.051282,4265.641025,4520.000000,4294.358974,4695.384615,4025.128205,4096.410256
199,4412.307692,4540.000000,4565.641025,4282.564102,4513.846153,4219.487179,4477.435897,4250.256410,4269.743589,4521.538461,4308.717948,4700.000000,4026.666666,4102.051282
200,4400.512820,4538.461538,4560.000000,4280.000000,4516.410256,4209.743589,4468.205128,4243.076923,4263.076923,4522.564102,4300.512820,4690.256410,4023.589743,4097.948717
201,4400.512820,4540.000000,4558.461538,4278.974358,4509.230769,4212.307692,4463.589743,4235.384615,4258.461538,4524.615384,4290.769230,4687.692307,4022.051282,4093.333333
202,4411.282051,4541.025641,4556.410256,4278.974358,4504.615384,4218.974358,4464.102564,4232.307692,4256.410256,4523.076923,4295.897435,4695.897435,4021.538461,4092.307692
203,4408.205128,4535.897435,4554.871794,4276.410256,4507.692307,4213.846153,4460.512820,4230.769230,4256.410256,4515.384615,4289.230769,4695.384615,4020.000000,4089.230769
204,4404.615384,4542.051282,4564.102564,4282.051282,4512.307692,4217.948717,4465.641025,4241.025641,4265.641025,4521.538461,4289.230769,4695.897435,4026.666666,4096.923076
205,4414.871794,4553.333333,4566.666666,4289.743589,4519.487179,4227.179487,4477.435897,4252.307692,4270.769230,4534.871794,4296.410256,4702.051282,4030.256410,4107.692307
206,4416.923076,4547.179487,4558.461538,4286.666666,4523.076923,4222.051282,4478.461538,4249.743589,4265.641025,4526.666666,4286.153846,4701.025641,4025.128205,4101.025641
207,4412.820512,4538.974358,4562.051282,4285.641025,4519.487179,4220.512820,4474.358974,4249.230769,4267.179487,4520.512820,4285.128205,4696.923076,4029.743589,4097.435897
208,4407.692307,4540.000000,4564.102564,4285.641025,4522.564102,4229.743589,4475.897435,4251.282051,4268.717948,4531.282051,4288.717948,4697.435897,4032.307692,4100.000000
209,4388.717948,4534.871794,4551.282051,4269.743589,4525.128205,4225.128205,4473.846153,4238.461538,4256.410256,4525.128205,4268.205128,4689.743589,4013.333333,4087.179487
210,4387.692307,4531.282051,4549.230769,4264.102564,4509.743589,4213.333333,4469.230769,4229.230769,4248.717948,4510.769230,4264.615384,4682.051282,4007.179487,4080.000000
211,4410.256410,4540.000000,4563.076923,4281.025641,4502.051282,4216.923076,4473.333333,4241.025641,4254.358974,4515.384615,4289.743589,4690.256410,4028.205128,4093.333333
212,4414.358974,4541.538461,4566.153846,4285.641025,4516.923076,4219.487179,4471.794871,4250.256410,4258.974358,4527.692307,4290.769230,4700.000000,4029.743589,4096.410256
213,4405.128205,4536.410256,4561.025641,4276.923076,4523.589743,4215.384615,4466.666666,4246.153846,4262.051282,4532.820512,4277.948717,4696.410256,4015.897435,4088.205128
214,4403.076923,4538.461538,4559.487179,4281.538461,4515.384615,4217.435897,4468.205128,4240.000000,4260.512820,4526.666666,4276.923076,4688.717948,4021.025641,4089.230769
215,4400.000000,4540.000000,4556.923076,4281.538461,4512.307692,4218.461538,4473.333333,4233.846153,4249.230769,4507.692307,4265.641025,4683.589743,4024.102564,4092.820512
216,4396.923076,4535.897435,4549.230769,4267.179487,4507.692307,4216.410256,4472.307692,4227.179487,4242.051282,4503.589743,4254.871794,4680.000000,4013.846153,4084.615384
217,4395.897435,4532.820512,4546.666666,4265.641025,4507.692307,4215.897435,4469.743589,4231.794871,4248.717948,4520.000000,4266.666666,4678.461538,4009.230769,4077.435897
218,4394.871794,4535.384615,4557.435897,4276.410256,4516.410256,4214.871794,4471.794871,4241.538461,4255.897435,4525.641025,4281.538461,4683.076923,4013.846153,4083.589743
219,4402.051282,4541.025641,4566.153846,4281.538461,4513.846153,4212.307692,4473.846153,4241.025641,4252.820512,4520.512820,4274.871794,4690.256410,4016.923076,4092.820512
220,4411.794871,4541.025641,4562.564102,4283.076923,4508.717948,4212.307692,4468.717948,4233.846153,4246.666666,4515.384615,4257.948717,4692.820512,4018.461538,4094.871794
221,4409.743589,4539.487179,4560.512820,4284.615384,4514.871794,4217.435897,4464.615384,4225.128205,4243.589743,4508.717948,4266.153846,4691.282051,4015.384615,4090.769230
222,4404.102564,4541.025641,4560.512820,4281.025641,4521.025641,4220.512820,4471.282051,4223.076923,4239.487179,4507.179487,4284.102564,4687.179487,4009.230769,4087.692307
223,4402.051282,4538.974358,4558.461538,4276.923076,4517.948717,4220.000000,4477.948717,4227.692307,4236.410256,4505.641025,4274.871794,4680.000000,4001.025641,4085.128205
224,4396.923076,4534.871794,4556.410256,4275.897435,4510.256410,4216.923076,4472.820512,4232.307692,4241.025641,4501.538461,4257.948717,4674.871794,3990.256411,4082.051282
225,4395.384615,4541.025641,4558.974358,4283.076923,4504.102564,4216.923076,4473.333333,4241.025641,4253.333333,4510.769230,4256.410256,4680.000000,3996.923077,4082.564102
226,4401.538461,4550.256410,4564.102564,4294.358974,4510.769230,4220.000000,4475.384615,4254.358974,4264.615384,4525.128205,4261.538461,4687.692307,4017.948717,4090.256410
227,4401.025641,4551.794871,4561.025641,4288.205128,4515.384615,4217.435897,4465.128205,4250.256410,4261.025641,4518.974358,4265.641025,4684.102564,4016.410256,4092.820512
228,4400.512820,4551.794871,4556.410256,4275.897435,4508.717948,4213.333333,4457.435897,4231.794871,4244.615384,4507.179487,4264.615384,4680.512820,3998.461539,4090.256410
229,4405.641025,4549.743589,4556.923076,4280.512820,4504.102564,4214.358974,4459.487179,4228.205128,4243.076923,4510.769230,4264.102564,4682.564102,4004.615384,4093.846153
230,4401.025641,4542.051282,4556.923076,4282.564102,4508.205128,4215.897435,4463.076923,4236.410256,4256.923076,4518.974358,4268.717948,4684.102564,4022.051282,4089.743589
231,4386.666666,4533.846153,4552.307692,4277.435897,4515.384615,4215.384615,4468.717948,4240.000000,4255.897435,4518.974358,4261.025641,4682.051282,4013.333333,4078.461538
232,4384.102564,4535.384615,4550.769230,4276.923076,4513.333333,4214.358974,4468.717948,4237.435897,4247.179487,4510.256410,4246.666666,4678.461538,3995.384616,4080.000000
233,4395.897435,4538.974358,4554.871794,4277.948717,4502.564102,4215.384615,4463.076923,4233.333333,4250.256410,4506.153846,4254.871794,4681.538461,3996.923077,4090.256410
234,4397.948717,4536.923076,4556.923076,4278.974358,4501.025641,4214.871794,4461.538461,4233.333333,4251.282051,4517.948717,4267.179487,4686.153846,4006.666666,4089.230769
235,4389.230769,4539.487179,4556.410256,4281.538461,4512.307692,4216.923076,4462.564102,4237.948717,4249.743589,4527.179487,4263.589743,4683.589743,4008.205128,4078.974358
236,4392.820512,4547.692307,4560.512820,4283.589743,4516.923076,4223.589743,4466.153846,4242.051282,4257.948717,4522.564102,4265.128205,4688.717948,4008.717948,4083.076923
237,4408.717948,4554.358974,4566.153846,4292.307692,4517.435897,4225.641025,4472.307692,4249.230769,4262.564102,4524.102564,4273.846153,4700.512820,4017.435897,4096.410256
238,4409.230769,4553.846153,4563.076923,4296.410256,4521.025641,4217.948717,4467.179487,4248.205128,4252.820512,4520.512820,4268.717948,4695.897435,4015.897435,4098.461538
239,4391.282051,4543.589743,4555.897435,4282.051282,4514.871794,4214.358974,4456.923076,4234.358974,4241.538461,4503.076923,4258.974358,4681.538461,4002.564102,4083.589743
240,4387.179487,4538.974358,4558.461538,4278.974358,4508.717948,4217.948717,4460.512820,4232.307692,4244.615384,4506.153846,4260.000000,4683.589743,3999.487180,4076.923076
241,4396.410256,4547.692307,4564.615384,4291.282051,4512.820512,4217.948717,4465.128205,4244.102564,4257.948717,4520.512820,4254.871794,4691.794871,4004.615384,4085.128205
242,4400.000000,4547.179487,4561.538461,4288.205128,4512.820512,4215.384615,4462.051282,4241.538461,4262.051282,4516.410256,4250.769230,4690.769230,4005.641025,4090.769230
243,4395.384615,4537.948717,4554.358974,4277.435897,4508.205128,4216.923076,4460.512820,4230.769230,4251.282051,4513.846153,4264.102564,4685.641025,4009.743589,4091.282051
244,4387.692307,4537.948717,4552.307692,4280.000000,4510.256410,4217.435897,4460.512820,4231.282051,4244.615384,4523.589743,4269.743589,4681.538461,4016.410256,4086.153846
245,4385.641025,4543.076923,4548.717948,4284.102564,4509.743589,4220.000000,4465.128205,4232.307692,4249.743589,4522.051282,4261.025641,4679.487179,4010.769230,4076.410256
246,4393.846153,4550.769230,4547.692307,4281.025641,4509.743589,4230.256410,4473.333333,4235.897435,4256.923076,4517.435897,4257.948717,4683.589743,4006.153846,4081.025641
247,4401.538461,4556.410256,4555.384615,4281.538461,4518.974358,4235.384615,4476.923076,4247.179487,4263.076923,4525.641025,4256.923076,4689.230769,4015.384615,4096.923076
248,4395.897435,4546.153846,4554.871794,4282.564102,4525.128205,4225.128205,4472.307692,4250.769230,4264.615384,4530.769230,4253.333333,4687.179487,4020.512820,4090.769230
249,4386.666666,4534.358974,4550.256410,4279.487179,4520.512820,4216.410256,4469.230769,4247.179487,4263.076923,4523.589743,4254.358974,4686.666666,4013.846153,4075.384615
250,4391.282051,4541.025641,4555.897435,4284.102564,4511.794871,4216.923076,4468.205128,4241.538461,4265.128205,4515.384615,4251.282051,4692.820512,4009.743589,4083.076923
251,4405.128205,4551.282051,4563.076923,4296.410256,4508.205128,4218.461538,4467.692307,4235.897435,4262.564102,4517.435897,4252.307692,4694.358974,4012.307692,4096.923076
252,4409.230769,4551.282051,4560.512820,4294.871794,4519.487179,4218.461538,4471.282051,4232.820512,4253.846153,4524.102564,4262.051282,4692.820512,4013.846153,4096.410256
253,4400.512820,4548.717948,4557.948717,4283.076923,4523.589743,4216.923076,4473.333333,4231.794871,4251.794871,4527.692307,4257.948717,4693.333333,4015.897435,4090.256410
254,4395.897435,4552.307692,4562.564102,4286.666666,4509.743589,4217.948717,4472.307692,4229.743589,4258.461538,4530.256410,4248.205128,4695.897435,4015.897435,4086.666666
255,4404.615384,4558.974358,4567.692307,4294.871794,4506.153846,4221.025641,4473.333333,4234.358974,4266.666666,4530.769230,4252.820512,4694.871794,4012.307692,4092.307692
256,4412.820512,4558.974358,4566.153846,4294.871794,4520.000000,4220.512820,4474.871794,4243.076923,4265.128205,4523.589743,4259.487179,4692.307692,4006.666666,4103.076923
257,4406.666666,4551.282051,4560.512820,4293.846153,4522.564102,4215.897435,4473.846153,4241.025641,4254.871794,4515.384615,4258.974358,4688.205128,3997.948718,4090.256410
258,4399.487179,4548.205128,4558.974358,4286.153846,4510.256410,4215.384615,4470.256410,4234.358974,4251.282051,4517.435897,4256.410256,4683.589743,3992.820513,4069.743589
259,4396.923076,4551.794871,4561.538461,4277.948717,4500.000000,4214.871794,4464.615384,4231.794871,4253.333333,4520.512820,4253.333333,4683.589743,3995.897436,4081.538461
