,AF3,F7,F3,FC5,T7,P7,O1,O2,P8,T8,FC6,F4,F8,AF4
0,4394.358974,4453.333333,4546.153846,4323.076923,4527.179487,4216.410256,4473.846153,4211.282051,4277.435897,4505.641025,4225.128205,4620.000000,4064.615384,4067.692307
1,4398.461538,4453.333333,4544.102564,4315.897435,4523.589743,4214.358974,4475.897435,4211.282051,4278.461538,4503.076923,4228.717948,4620.512820,4051.282051,4061.538461
2,4398.974358,4444.615384,4542.051282,4309.743589,4521.025641,4216.410256,4471.794871,4203.076923,4267.179487,4496.410256,4222.564102,4617.948717,4045.128205,4056.923076
3,4390.256410,4437.948717,4541.538461,4309.230769,4518.461538,4210.256410,4461.025641,4201.025641,4267.179487,4500.000000,4220.512820,4617.948717,4053.333333,4058.974358
4,4384.102564,4434.871794,4544.615384,4312.307692,4516.410256,4205.128205,4459.487179,4201.538461,4273.846153,4496.410256,4216.923076,4617.435897,4051.282051,4056.410256
5,4381.025641,4431.794871,4545.128205,4310.256410,4515.384615,4210.256410,4463.589743,4194.358974,4264.102564,4482.564102,4215.897435,4615.897435,4037.948717,4052.820512
6,4373.333333,4429.743589,4537.435897,4303.589743,4514.871794,4208.717948,4461.025641,4193.846153,4257.948717,4489.230769,4218.461538,4613.846153,4033.333333,4053.333333
7,4372.820512,4436.410256,4537.948717,4305.128205,4514.358974,4204.102564,4466.153846,4209.230769,4274.358974,4509.743589,4214.358974,4614.871794,4041.025641,4054.871794
8,4378.974358,4441.538461,4541.538461,4311.282051,4518.974358,4213.333333,4473.333333,4217.948717,4284.615384,4509.743589,4210.769230,4617.435897,4049.230769,4056.410256
9,4377.948717,4433.846153,4537.435897,4307.179487,4523.076923,4220.000000,4470.769230,4210.769230,4270.769230,4490.769230,4212.820512,4614.871794,4043.076923,4054.358974
10,4375.384615,4431.794871,4536.923076,4307.692307,4521.538461,4214.358974,4467.179487,4208.205128,4263.589743,4488.205128,4215.384615,4613.333333,4035.384615,4053.846153
11,4384.102564,4441.538461,4541.025641,4320.512820,4523.076923,4211.282051,4465.641025,4208.717948,4272.820512,4505.128205,4218.974358,4617.435897,4040.000000,4058.461538
12,4388.717948,4443.589743,4541.025641,4319.487179,4524.102564,4212.820512,4465.641025,4202.051282,4271.794871,4512.307692,4216.923076,4618.974358,4040.512820,4058.974358
13,4384.615384,4437.435897,4541.025641,4308.205128,4518.461538,4209.743589,4467.692307,4198.974358,4261.538461,4501.025641,4211.282051,4611.794871,4032.820512,4053.333333
14,4379.487179,4433.846153,4540.512820,4303.076923,4514.871794,4208.717948,4470.769230,4206.153846,4262.051282,4492.307692,4206.153846,4605.641025,4025.128205,4049.743589
15,4372.307692,4428.717948,4533.846153,4296.923076,4516.410256,4211.794871,4470.769230,4208.717948,4270.769230,4496.410256,4201.025641,4603.076923,4015.384615,4045.641025
16,4373.333333,4428.717948,4532.307692,4301.025641,4521.538461,4213.333333,4467.692307,4204.102564,4273.846153,4498.461538,4203.076923,4603.076923,4011.794871,4043.076923
17,4383.589743,4430.769230,4536.410256,4312.307692,4523.589743,4212.820512,4462.051282,4199.487179,4266.666666,4493.846153,4203.589743,4601.538461,4014.358974,4047.179487
18,4387.179487,4427.179487,4534.871794,4311.282051,4518.461538,4211.794871,4459.487179,4196.410256,4258.974358,4488.205128,4197.948717,4601.025641,4015.897435,4053.333333
19,4387.692307,4431.794871,4533.846153,4308.717948,4514.358974,4209.230769,4467.179487,4200.000000,4262.051282,4490.769230,4206.153846,4606.666666,4018.974358,4056.410256
20,4392.307692,4440.000000,4538.974358,4312.820512,4518.974358,4208.717948,4471.794871,4207.179487,4271.282051,4501.538461,4220.000000,4609.743589,4024.102564,4053.333333
21,4393.333333,4437.948717,4544.615384,4309.743589,4521.538461,4214.358974,4473.333333,4213.333333,4277.948717,4506.153846,4211.794871,4608.717948,4025.641025,4050.256410
22,4392.820512,4434.871794,4548.205128,4311.282051,4523.589743,4218.461538,4476.410256,4221.025641,4283.076923,4507.179487,4204.615384,4612.307692,4032.820512,4058.974358
23,4397.948717,4441.538461,4551.794871,4323.076923,4530.769230,4218.974358,4479.487179,4228.205128,4287.692307,4515.384615,4217.948717,4620.000000,4049.743589,4069.230769
24,4396.923076,4442.051282,4549.743589,4324.102564,4531.794871,4221.025641,4480.512820,4227.179487,4291.794871,4521.025641,4227.692307,4618.461538,4050.256410,4063.589743
25,4388.717948,4433.846153,4542.564102,4314.358974,4523.589743,4220.000000,4476.923076,4217.435897,4284.615384,4511.282051,4222.051282,4605.641025,4026.666666,4050.769230
26,4389.230769,4428.205128,4536.410256,4306.666666,4522.051282,4213.333333,4469.743589,4208.717948,4269.743589,4495.384615,4209.230769,4598.974358,4015.897435,4045.641025
27,4402.051282,4429.743589,4534.871794,4306.666666,4522.051282,4210.769230,4469.743589,4203.589743,4270.256410,4492.820512,4204.102564,4603.076923,4036.923076,4049.230769
28,4414.358974,4437.948717,4539.487179,4313.846153,4518.974358,4213.846153,4472.307692,4202.051282,4275.384615,4501.538461,4211.794871,4608.717948,4052.307692,4056.923076
29,4411.282051,4440.000000,4542.564102,4320.512820,4518.974358,4214.871794,4465.128205,4200.000000,4270.256410,4502.051282,4219.487179,4609.230769,4041.025641,4057.435897
30,4406.153846,4438.461538,4542.051282,4323.076923,4522.564102,4213.846153,4464.615384,4198.461538,4269.230769,4498.974358,4217.435897,4609.230769,4042.051282,4055.897435
31,4409.230769,4440.512820,4542.051282,4322.051282,4525.641025,4216.923076,4474.871794,4201.025641,4272.307692,4501.025641,4212.820512,4610.256410,4054.871794,4058.974358
32,4405.641025,4435.384615,4536.410256,4314.871794,4522.564102,4216.410256,4468.205128,4200.512820,4265.641025,4495.897435,4212.307692,4603.076923,4048.717948,4053.846153
33,4392.307692,4429.230769,4528.205128,4306.666666,4516.410256,4210.769230,4455.897435,4195.897435,4258.974358,4492.307692,4212.307692,4593.333333,4038.461538,4042.564102
34,4388.717948,4432.820512,4531.794871,4308.717948,4520.000000,4212.307692,4460.000000,4200.512820,4265.641025,4505.128205,4212.307692,4592.820512,4045.128205,4044.615384
35,4393.846153,4437.435897,4533.333333,4312.820512,4526.153846,4218.974358,4463.589743,4205.641025,4273.333333,4511.282051,4204.102564,4594.358974,4050.769230,4050.256410
36,4388.205128,4432.820512,4524.102564,4307.179487,4519.487179,4212.820512,4457.435897,4201.025641,4269.230769,4500.512820,4195.897435,4588.717948,4043.589743,4042.051282
37,4381.538461,4429.230769,4523.589743,4304.102564,4512.307692,4205.128205,4453.846153,4197.948717,4265.641025,4500.512820,4200.512820,4583.589743,4042.051282,4036.410256
38,4383.589743,4425.128205,4528.717948,4309.743589,4520.000000,4211.794871,4453.846153,4197.435897,4263.589743,4503.589743,4205.128205,4586.153846,4045.128205,4040.000000
39,4387.692307,4421.538461,4522.051282,4312.820512,4522.564102,4213.846153,4453.846153,4190.769230,4256.410256,4491.282051,4200.000000,4586.666666,4042.564102,4042.564102
40,4394.358974,4424.102564,4518.461538,4310.256410,4515.897435,4209.230769,4456.410256,4188.717948,4254.358974,4489.230769,4194.871794,4587.179487,4041.538461,4046.153846
41,4405.128205,4429.743589,4524.615384,4306.153846,4518.461538,4210.256410,4453.333333,4190.769230,4262.051282,4501.025641,4197.435897,4588.717948,4044.615384,4048.717948
42,4413.333333,4432.307692,4525.641025,4303.589743,4524.615384,4213.333333,4447.179487,4183.589743,4256.923076,4499.487179,4203.589743,4587.692307,4047.692307,4044.102564
43,4420.512820,4428.205128,4523.076923,4308.717948,4520.512820,4212.307692,4449.743589,4183.076923,4249.230769,4493.846153,4209.743589,4594.358974,4049.743589,4041.538461
44,4430.256410,4428.205128,4529.230769,4314.358974,4520.512820,4216.410256,4461.025641,4198.461538,4264.102564,4505.128205,4216.923076,4603.589743,4055.384615,4050.769230
45,4429.743589,4427.179487,4533.333333,4311.282051,4525.128205,4219.487179,4464.102564,4207.179487,4280.512820,4510.769230,4220.512820,4602.564102,4057.435897,4056.410256
46,4414.358974,4423.076923,4528.205128,4308.717948,4523.589743,4214.871794,4456.410256,4202.051282,4274.871794,4502.564102,4211.794871,4596.923076,4048.717948,4047.692307
47,4400.000000,4425.641025,4526.666666,4309.230769,4523.076923,4215.384615,4456.410256,4201.025641,4266.666666,4504.102564,4202.051282,4597.948717,4039.487179,4042.051282
48,4400.512820,4432.307692,4530.256410,4308.205128,4527.179487,4217.948717,4461.025641,4206.666666,4273.333333,4512.307692,4209.743589,4603.076923,4044.102564,4048.717948
49,4408.717948,4429.743589,4532.307692,4309.230769,4523.589743,4215.897435,4460.512820,4207.692307,4274.358974,4507.692307,4219.487179,4602.051282,4047.692307,4049.230769
50,4413.333333,4424.615384,4531.282051,4313.333333,4520.000000,4211.794871,4460.000000,4201.538461,4264.615384,4497.948717,4209.230769,4597.948717,4042.051282,4041.538461
51,4415.897435,4430.769230,4531.282051,4312.820512,4526.153846,4214.358974,4466.153846,4200.000000,4264.615384,4500.000000,4195.384615,4597.435897,4035.897435,4047.179487
52,4413.846153,4436.410256,4534.871794,4311.282051,4530.769230,4220.512820,4469.743589,4204.102564,4271.794871,4502.564102,4199.487179,4601.538461,4031.282051,4058.461538
53,4406.666666,4434.871794,4537.948717,4314.358974,4525.128205,4219.487179,4463.076923,4204.102564,4266.153846,4500.000000,4214.358974,4602.051282,4032.307692,4056.923076
54,4396.410256,4424.102564,4533.846153,4314.871794,4520.512820,4210.256410,4456.923076,4190.256410,4252.307692,4495.897435,4214.358974,4592.307692,4033.333333,4047.179487
55,4389.743589,4416.410256,4528.205128,4309.230769,4525.128205,4207.692307,4458.461538,4180.512820,4248.717948,4493.846153,4201.538461,4589.743589,4028.205128,4043.589743
56,4391.282051,4423.076923,4534.358974,4309.743589,4525.128205,4215.897435,4461.025641,4188.205128,4255.384615,4494.871794,4202.564102,4598.974358,4021.025641,4046.153846
57,4393.333333,4429.230769,4537.948717,4316.923076,4510.769230,4211.794871,4461.025641,4200.512820,4260.000000,4493.846153,4210.769230,4603.076923,4024.102564,4047.179487
58,4385.128205,4428.205128,4528.717948,4314.358974,4508.717948,4204.615384,4461.538461,4202.051282,4257.948717,4489.230769,4203.076923,4595.897435,4027.692307,4045.641025
59,4376.410256,4424.102564,4524.615384,4303.076923,4516.410256,4212.307692,4460.512820,4202.051282,4260.000000,4488.205128,4197.948717,4591.282051,4025.128205,4044.615384
60,4381.538461,4421.538461,4530.256410,4305.641025,4517.948717,4221.025641,4463.076923,4207.692307,4270.256410,4494.358974,4203.589743,4596.410256,4028.717948,4045.641025
61,4385.128205,4422.564102,4529.743589,4313.846153,4515.384615,4215.384615,4467.179487,4207.692307,4270.256410,4490.256410,4202.564102,4600.512820,4029.743589,4044.615384
62,4378.974358,4427.179487,4525.128205,4308.205128,4510.769230,4204.102564,4463.589743,4202.051282,4261.025641,4478.461538,4198.974358,4598.974358,4019.487179,4041.538461
63,4374.871794,4425.641025,4527.179487,4298.974358,4510.769230,4204.615384,4460.512820,4201.025641,4265.128205,4485.641025,4197.948717,4597.948717,4022.051282,4041.538461
64,4378.461538,4420.512820,4531.282051,4300.512820,4517.435897,4211.794871,4466.153846,4206.153846,4276.410256,4504.615384,4199.487179,4603.076923,4043.076923,4046.666666
65,4378.974358,4417.435897,4530.256410,4302.051282,4515.897435,4209.743589,4466.666666,4202.051282,4265.641025,4495.897435,4202.564102,4604.102564,4037.435897,4046.666666
66,4366.153846,4417.948717,4526.666666,4295.384615,4503.076923,4197.948717,4456.923076,4185.641025,4246.153846,4471.282051,4198.461538,4596.923076,4004.615384,4036.923076
67,4359.487179,4423.076923,4522.051282,4295.384615,4503.076923,4196.923076,4455.384615,4178.461538,4243.076923,4469.230769,4198.461538,4595.897435,4004.615384,4038.974358
68,4369.743589,4426.153846,4519.487179,4304.615384,4508.717948,4203.076923,4461.025641,4186.666666,4246.153846,4477.948717,4206.153846,4599.487179,4027.179487,4048.717948
69,4380.000000,4425.641025,4526.153846,4309.230769,4507.179487,4202.051282,4461.025641,4197.435897,4250.769230,4482.564102,4204.615384,4602.564102,4034.358974,4050.256410
70,4377.435897,4430.256410,4532.307692,4304.615384,4507.692307,4200.512820,4460.000000,4208.717948,4263.589743,4489.230769,4200.512820,4604.102564,4027.692307,4048.205128
71,4373.846153,4430.256410,4527.179487,4295.384615,4508.717948,4204.615384,4464.615384,4216.923076,4275.384615,4500.000000,4212.307692,4603.076923,4020.512820,4047.692307
72,4376.410256,4426.666666,4524.102564,4296.410256,4507.692307,4207.179487,4467.179487,4214.871794,4275.384615,4504.615384,4217.435897,4603.589743,4027.692307,4048.205128
73,4381.538461,4428.717948,4530.256410,4307.692307,4510.769230,4209.230769,4465.641025,4212.307692,4267.179487,4497.435897,4213.333333,4606.153846,4043.076923,4048.717948
74,4381.538461,4430.256410,4529.743589,4308.205128,4515.897435,4211.282051,4466.666666,4212.307692,4262.564102,4489.230769,4211.794871,4606.153846,4037.948717,4047.692307
75,4371.794871,4425.641025,4519.487179,4297.948717,4513.846153,4210.256410,4464.615384,4206.153846,4262.051282,4489.230769,4198.461538,4599.487179,4021.538461,4043.076923
76,4365.128205,4424.102564,4519.487179,4292.307692,4509.230769,4207.692307,4458.461538,4201.025641,4261.538461,4486.666666,4189.743589,4595.897435,4018.974358,4035.384615
77,4369.743589,4422.564102,4523.589743,4292.307692,4504.102564,4205.641025,4456.410256,4198.974358,4256.410256,4478.974358,4197.948717,4601.538461,4021.025641,4032.307692
78,4372.307692,4416.923076,4521.538461,4295.384615,4501.025641,4201.538461,4458.461538,4192.307692,4251.282051,4476.410256,4199.487179,4602.564102,4022.051282,4037.435897
79,4365.641025,4418.974358,4521.538461,4298.974358,4504.102564,4197.435897,4457.435897,4184.102564,4243.589743,4473.333333,4184.615384,4592.307692,4017.948717,4038.974358
80,4357.435897,4421.538461,4522.051282,4292.307692,4502.051282,4198.974358,4453.333333,4184.615384,4236.923076,4468.205128,4178.974358,4585.128205,4009.743589,4030.769230
81,4355.384615,4415.897435,4515.897435,4285.641025,4496.923076,4199.487179,4454.871794,4191.794871,4239.487179,4466.666666,4189.230769,4586.666666,4009.230769,4027.179487
82,4353.333333,4410.256410,4510.769230,4290.769230,4501.025641,4197.948717,4455.897435,4196.410256,4243.076923,4462.564102,4195.897435,4585.641025,4010.769230,4026.153846
83,4353.846153,4412.820512,4513.846153,4297.435897,4507.179487,4199.487179,4454.871794,4197.948717,4246.153846,4464.615384,4191.794871,4584.615384,4012.307692,4025.128205
84,4365.128205,4422.051282,4521.025641,4300.512820,4506.153846,4202.564102,4458.461538,4200.512820,4254.871794,4474.871794,4183.076923,4592.307692,4023.589743,4034.871794
85,4372.820512,4425.641025,4522.051282,4302.564102,4507.692307,4203.589743,4455.897435,4198.461538,4256.410256,4471.794871,4182.564102,4597.948717,4026.666666,4040.000000
86,4368.717948,4421.538461,4518.974358,4298.461538,4507.692307,4198.461538,4445.128205,4190.256410,4244.615384,4463.589743,4191.794871,4594.871794,4014.358974,4034.358974
87,4378.974358,4422.051282,4523.076923,4293.846153,4504.615384,4196.923076,4449.230769,4191.282051,4240.000000,4474.358974,4201.538461,4594.358974,4009.743589,4037.435897
88,4399.487179,4427.179487,4528.717948,4296.923076,4507.179487,4203.076923,4461.538461,4197.435897,4252.820512,4486.153846,4204.615384,4601.025641,4013.333333,4043.589743
89,4399.487179,4425.128205,4525.641025,4295.897435,4509.230769,4204.102564,4458.461538,4189.230769,4252.820512,4474.871794,4198.974358,4602.051282,4016.923076,4037.435897
90,4396.923076,4424.615384,4525.128205,4292.307692,4504.615384,4199.487179,4453.333333,4179.487179,4234.358974,4460.512820,4193.846153,4597.435897,4025.128205,4037.948717
91,4409.230769,4430.256410,4531.282051,4296.923076,4505.641025,4203.076923,4458.461538,4185.641025,4234.871794,4463.076923,4194.871794,4598.974358,4029.230769,4048.205128
92,4412.307692,4428.205128,4529.230769,4295.897435,4511.794871,4209.743589,4459.487179,4196.410256,4252.820512,4466.666666,4197.948717,4603.076923,4023.076923,4046.153846
93,4404.615384,4424.615384,4522.051282,4294.358974,4512.820512,4206.153846,4459.487179,4201.538461,4258.974358,4476.410256,4202.564102,4601.025641,4025.641025,4039.487179
94,4408.205128,4432.820512,4522.564102,4304.102564,4515.384615,4207.692307,4459.487179,4203.589743,4258.461538,4493.333333,4207.179487,4598.974358,4038.461538,4042.051282
95,4412.820512,4436.410256,4522.051282,4308.205128,4518.974358,4215.384615,4457.948717,4201.025641,4255.897435,4490.769230,4205.641025,4600.000000,4040.000000,4045.641025
96,4406.666666,4434.358974,4521.538461,4305.641025,4518.974358,4210.769230,4461.538461,4201.538461,4253.333333,4480.000000,4205.641025,4602.564102,4039.487179,4049.743589
97,4395.384615,4434.358974,4526.153846,4306.153846,4514.358974,4198.974358,4454.358974,4199.487179,4257.948717,4486.153846,4202.564102,4602.051282,4036.410256,4050.256410
98,4388.205128,4435.897435,4524.102564,4303.589743,4509.230769,4200.000000,4443.076923,4190.769230,4256.923076,4488.205128,4194.871794,4601.538461,4022.564102,4043.589743
99,4387.179487,4441.538461,4519.487179,4303.589743,4510.769230,4207.179487,4450.256410,4190.769230,4253.333333,4480.512820,4196.923076,4606.153846,4027.692307,4044.102564
100,4380.000000,4439.487179,4523.589743,4302.564102,4514.358974,4202.564102,4454.871794,4196.410256,4260.000000,4482.564102,4203.076923,4605.641025,4036.410256,4047.179487
101,4373.333333,4429.230769,4529.230769,4298.461538,4514.871794,4201.538461,4447.692307,4189.230769,4260.512820,4485.641025,4201.538461,4601.538461,4018.461538,4044.615384
102,4376.410256,4430.769230,4527.692307,4302.051282,4515.384615,4210.769230,4452.820512,4183.589743,4249.743589,4478.974358,4198.974358,4603.076923,4008.205128,4048.205128
103,4379.487179,4441.538461,4528.717948,4306.153846,4522.051282,4209.743589,4462.564102,4194.358974,4250.256410,4477.948717,4204.102564,4603.589743,4020.512820,4054.871794
104,4373.333333,4442.564102,4529.743589,4305.128205,4524.615384,4206.666666,4460.000000,4203.076923,4257.435897,4487.179487,4203.589743,4600.512820,4023.076923,4047.179487
105,4367.179487,4432.820512,4528.717948,4304.615384,4516.923076,4212.307692,4457.948717,4201.538461,4260.512820,4491.794871,4200.512820,4600.512820,4014.871794,4038.974358
106,4366.153846,4428.717948,4525.128205,4300.512820,4513.333333,4212.307692,4457.435897,4200.512820,4258.461538,4486.666666,4202.564102,4601.538461,4008.717948,4043.589743
107,4368.205128,4434.358974,4524.102564,4295.384615,4519.487179,4209.743589,4457.435897,4201.538461,4254.871794,4480.512820,4200.000000,4600.512820,4004.102564,4046.666666
108,4368.717948,4436.923076,4528.717948,4297.435897,4520.000000,4211.794871,4458.461538,4202.051282,4253.846153,4479.487179,4194.871794,4603.589743,4005.128205,4044.615384
109,4358.461538,4427.692307,4525.128205,4295.897435,4513.846153,4209.743589,4451.282051,4198.974358,4251.794871,4476.923076,4198.974358,4598.974358,4003.589743,4036.923076
110,4352.820512,4422.564102,4516.923076,4294.358974,4513.846153,4206.153846,4449.743589,4196.923076,4251.282051,4476.410256,4204.102564,4593.846153,3998.461539,4031.794871
111,4358.461538,4426.666666,4518.974358,4300.000000,4513.846153,4207.179487,4460.512820,4199.487179,4254.358974,4481.538461,4193.846153,4601.025641,4007.179487,4037.435897
112,4356.410256,4425.641025,4525.128205,4299.487179,4512.307692,4206.153846,4462.051282,4194.871794,4249.743589,4475.897435,4188.205128,4603.589743,4012.307692,4041.538461
113,4351.282051,4427.179487,4526.153846,4296.923076,4515.897435,4207.692307,4455.897435,4182.564102,4243.076923,4468.205128,4196.923076,4600.000000,4005.641025,4041.538461
114,4358.974358,4431.794871,4526.153846,4301.538461,4520.512820,4213.333333,4457.435897,4185.128205,4247.692307,4473.846153,4200.512820,4608.717948,4004.615384,4045.641025
115,4366.153846,4431.794871,4532.307692,4307.179487,4521.025641,4214.358974,4462.051282,4200.512820,4255.384615,4478.461538,4202.564102,4615.897435,4005.128205,4052.307692
116,4357.948717,4428.205128,4528.205128,4304.615384,4515.897435,4207.692307,4456.410256,4196.923076,4254.871794,4470.256410,4196.923076,4607.179487,3992.307693,4044.615384
117,4350.256410,4422.564102,4515.897435,4292.307692,4507.692307,4201.538461,4446.666666,4182.051282,4250.256410,4462.564102,4181.538461,4593.846153,3985.641026,4033.846153
118,4356.923076,4430.769230,4519.487179,4287.692307,4514.871794,4208.717948,4451.794871,4184.615384,4250.256410,4469.230769,4187.179487,4596.923076,4000.512820,4040.000000
119,4371.794871,4447.692307,4531.794871,4304.102564,4528.205128,4220.000000,4462.564102,4198.461538,4258.974358,4483.589743,4215.384615,4610.256410,4013.333333,4052.820512
120,4377.435897,4446.666666,4532.307692,4323.589743,4526.153846,4216.410256,4458.974358,4201.538461,4264.102564,4490.769230,4223.076923,4612.307692,4012.820512,4057.948717
121,4373.846153,4448.205128,4532.307692,4323.589743,4523.589743,4213.333333,4453.846153,4198.461538,4258.461538,4487.179487,4208.717948,4609.230769,4017.435897,4057.435897
122,4372.820512,4460.512820,4536.410256,4315.897435,4524.615384,4217.948717,4461.025641,4200.000000,4258.974358,4488.205128,4210.769230,4614.871794,4028.717948,4058.974358
123,4370.256410,4456.410256,4533.333333,4315.897435,4524.102564,4217.435897,4462.051282,4198.461538,4260.000000,4488.205128,4214.871794,4613.333333,4028.205128,4057.435897
124,4359.487179,4443.076923,4526.153846,4309.743589,4525.641025,4215.897435,4451.282051,4186.153846,4244.615384,4472.820512,4203.589743,4600.512820,4015.897435,4049.230769
125,4349.230769,4441.025641,4521.025641,4295.897435,4523.589743,4215.384615,4444.615384,4174.358974,4232.307692,4452.307692,4200.512820,4595.897435,4008.717948,4039.487179
126,4350.256410,4438.974358,4517.435897,4300.000000,4520.000000,4210.769230,4448.717948,4177.435897,4241.538461,4452.820512,4207.692307,4601.025641,4010.769230,4041.025641
127,4357.948717,4438.974358,4522.051282,4311.282051,4521.025641,4211.282051,4455.897435,4190.769230,4256.923076,4476.923076,4206.153846,4603.589743,4014.871794,4051.794871
128,4360.512820,4448.717948,4526.666666,4304.615384,4522.051282,4213.846153,4457.948717,4198.461538,4260.000000,4491.282051,4201.025641,4606.153846,4015.384615,4052.820512
129,4357.948717,4450.256410,4526.666666,4295.384615,4520.000000,4208.717948,4457.948717,4198.461538,4255.897435,4483.589743,4209.230769,4605.641025,4017.948717,4049.743589
130,4356.923076,4442.564102,4527.179487,4295.897435,4522.564102,4208.717948,4458.974358,4197.435897,4254.358974,4482.564102,4216.923076,4602.564102,4021.025641,4054.358974
131,4356.923076,4440.512820,4522.051282,4294.871794,4521.025641,4211.794871,4454.871794,4192.307692,4253.846153,4490.256410,4210.256410,4603.076923,4014.358974,4054.871794
132,4351.282051,4441.025641,4519.487179,4296.410256,4515.897435,4207.179487,4451.282051,4187.692307,4252.307692,4482.564102,4201.025641,4602.051282,4009.230769,4049.743589
133,4348.717948,4441.025641,4527.179487,4305.128205,4513.846153,4204.102564,4454.358974,4195.384615,4255.897435,4472.307692,4203.589743,4601.538461,4012.820512,4047.179487
134,4352.307692,4444.615384,4532.820512,4309.743589,4511.794871,4206.666666,4457.435897,4198.974358,4258.974358,4476.410256,4208.205128,4606.153846,4012.820512,4046.666666
135,4354.358974,4446.666666,4528.205128,4306.666666,4516.410256,4209.230769,4455.897435,4186.666666,4248.717948,4477.435897,4203.589743,4605.641025,4009.743589,4050.769230
136,4355.384615,4443.076923,4521.025641,4302.051282,4518.461538,4211.282051,4451.794871,4179.487179,4241.538461,4470.769230,4200.512820,4597.948717,4007.179487,4052.820512
137,4356.923076,4443.076923,4522.051282,4300.000000,4511.794871,4208.205128,4449.743589,4184.615384,4246.153846,4467.692307,4204.102564,4596.410256,4002.051282,4045.641025
138,4356.410256,4445.128205,4523.589743,4299.487179,4508.717948,4201.025641,4446.153846,4184.615384,4246.153846,4472.307692,4201.538461,4598.974358,3998.974359,4039.487179
139,4353.333333,4441.025641,4521.538461,4298.974358,4510.769230,4201.025641,4444.615384,4185.128205,4245.128205,4477.435897,4200.000000,4596.410256,4004.102564,4043.076923
140,4353.846153,4438.974358,4522.564102,4303.076923,4513.333333,4208.205128,4451.282051,4193.333333,4251.282051,4474.871794,4206.153846,4596.923076,4008.205128,4050.256410
141,4356.410256,4440.000000,4524.102564,4306.153846,4515.384615,4208.717948,4453.333333,4192.820512,4251.794871,4471.282051,4205.641025,4598.461538,4005.641025,4050.769230
142,4354.358974,4442.564102,4522.564102,4302.051282,4515.897435,4205.641025,4448.205128,4189.743589,4252.820512,4475.897435,4198.974358,4597.435897,4007.179487,4046.666666
143,4352.307692,4447.692307,4522.564102,4301.538461,4513.333333,4210.256410,4451.282051,4195.897435,4261.538461,4486.153846,4202.564102,4600.512820,4013.846153,4048.205128
144,4356.410256,4451.282051,4527.692307,4304.615384,4512.307692,4213.846153,4460.512820,4203.589743,4263.589743,4491.794871,4212.820512,4604.102564,4014.871794,4058.974358
145,4361.025641,4449.743589,4532.307692,4307.692307,4515.384615,4208.717948,4458.974358,4199.487179,4254.871794,4486.153846,4216.923076,4605.128205,4014.358974,4066.153846
146,4365.128205,4451.794871,4537.948717,4315.897435,4523.076923,4209.743589,4457.948717,4196.410256,4257.948717,4484.615384,4216.923076,4612.307692,4021.538461,4066.153846
147,4370.256410,4460.000000,4540.000000,4320.000000,4527.692307,4220.000000,4464.102564,4203.589743,4269.743589,4493.846153,4220.512820,4616.923076,4019.487179,4063.589743
148,4363.076923,4454.358974,4530.256410,4312.820512,4520.000000,4216.923076,4461.538461,4199.487179,4263.589743,4486.666666,4214.871794,4606.666666,4000.000000,4055.384615
149,4356.923076,4441.025641,4526.153846,4311.794871,4518.974358,4204.102564,4456.923076,4186.666666,4252.820512,4474.358974,4200.512820,4594.871794,3997.948718,4053.333333
150,4365.641025,4446.153846,4528.717948,4314.871794,4523.589743,4207.179487,4457.948717,4188.205128,4259.487179,4477.948717,4202.564102,4597.435897,4011.794871,4058.974358
151,4369.230769,4457.435897,4530.769230,4310.256410,4518.461538,4212.307692,4455.897435,4195.384615,4261.538461,4479.487179,4216.923076,4604.102564,4010.256410,4058.461538
152,4364.615384,4455.384615,4531.794871,4312.307692,4515.897435,4210.256410,4453.846153,4194.871794,4254.358974,4476.410256,4213.333333,4603.076923,4004.615384,4055.384615
153,4364.615384,4447.179487,4531.282051,4315.897435,4520.000000,4209.230769,4455.384615,4194.871794,4253.846153,4482.051282,4200.000000,4599.487179,4007.692307,4052.307692
154,4371.794871,4443.589743,4533.333333,4312.307692,4522.564102,4211.282051,4455.384615,4198.974358,4261.538461,4490.256410,4201.538461,4602.051282,4007.692307,4050.256410
155,4386.666666,4448.205128,4540.000000,4314.871794,4523.589743,4213.846153,4458.974358,4203.589743,4266.666666,4492.820512,4214.358974,4608.717948,4007.692307,4057.435897
156,4398.974358,4456.410256,4544.102564,4319.487179,4520.512820,4213.333333,4461.025641,4204.615384,4266.153846,4486.666666,4218.461538,4609.230769,4012.820512,4065.641025
157,4392.307692,4452.307692,4532.820512,4311.794871,4513.333333,4206.666666,4449.230769,4193.333333,4257.948717,4475.384615,4206.666666,4599.487179,4008.717948,4057.435897
158,4389.743589,4447.179487,4526.153846,4303.589743,4515.384615,4201.025641,4445.128205,4185.641025,4252.307692,4475.384615,4195.897435,4595.897435,4001.025641,4048.717948
159,4400.512820,4452.820512,4531.794871,4306.666666,4520.512820,4205.641025,4452.820512,4196.410256,4260.512820,4477.948717,4202.051282,4601.025641,4000.000000,4052.307692
160,4398.974358,4448.205128,4535.384615,4306.666666,4513.333333,4206.153846,4447.179487,4202.564102,4267.179487,4474.871794,4203.589743,4601.025641,3998.461539,4051.282051
161,4394.871794,4442.051282,4536.923076,4307.692307,4508.205128,4198.974358,4443.076923,4196.410256,4260.000000,4480.000000,4200.512820,4598.461538,4001.025641,4050.769230
162,4403.589743,4455.897435,4543.589743,4318.974358,4513.846153,4201.538461,4455.384615,4197.435897,4254.358974,4485.128205,4208.717948,4605.128205,4008.717948,4064.615384
163,4410.256410,4467.179487,4549.743589,4328.717948,4520.512820,4210.256410,4463.589743,4206.153846,4258.461538,4486.153846,4217.435897,4614.358974,4011.794871,4076.410256
164,4397.948717,4458.974358,4545.128205,4320.512820,4522.051282,4214.358974,4458.461538,4207.692307,4263.076923,4487.179487,4217.435897,4611.282051,4005.128205,4066.666666
165,4375.384615,4443.589743,4533.846153,4303.076923,4515.384615,4207.179487,4451.282051,4200.512820,4264.615384,4481.538461,4209.230769,4601.025641,3996.410257,4049.230769
166,4362.051282,4434.871794,4525.128205,4298.461538,4506.666666,4199.487179,4451.282051,4196.410256,4261.025641,4474.871794,4195.897435,4595.384615,3992.820513,4046.666666
167,4364.102564,4442.051282,4529.230769,4307.692307,4508.205128,4203.589743,4455.384615,4200.000000,4258.974358,4474.871794,4192.820512,4601.025641,3997.948718,4057.948717
168,4371.282051,4454.871794,4535.384615,4313.333333,4517.435897,4206.153846,4457.948717,4203.589743,4264.102564,4477.948717,4209.230769,4609.743589,4007.179487,4065.128205
169,4366.666666,4451.794871,4532.820512,4308.717948,4518.461538,4202.051282,4450.769230,4198.461538,4260.512820,4478.974358,4216.923076,4608.717948,4008.205128,4061.538461
170,4360.000000,4442.564102,4528.205128,4306.153846,4509.743589,4203.589743,4448.205128,4190.769230,4250.256410,4478.974358,4206.666666,4601.025641,4005.128205,4056.410256
171,4360.000000,4446.153846,4527.692307,4308.717948,4503.076923,4204.102564,4452.307692,4187.692307,4248.717948,4473.846153,4202.564102,4598.974358,4008.717948,4054.871794
172,4361.025641,4455.384615,4531.282051,4310.769230,4502.564102,4199.487179,4449.230769,4187.692307,4253.333333,4473.333333,4204.615384,4606.666666,4017.435897,4059.487179
173,4362.051282,4458.461538,4536.410256,4313.333333,4502.051282,4204.615384,4447.179487,4191.282051,4257.435897,4482.051282,4207.692307,4613.846153,4023.589743,4064.615384
174,4363.589743,4455.897435,4535.384615,4318.461538,4505.128205,4214.358974,4455.384615,4197.435897,4262.051282,4484.615384,4213.846153,4615.384615,4025.128205,4064.615384
175,4360.512820,4458.461538,4532.820512,4317.435897,4511.282051,4216.410256,4462.564102,4202.564102,4265.641025,4482.564102,4221.025641,4614.871794,4023.076923,4062.564102
176,4358.974358,4464.102564,4539.487179,4310.256410,4510.256410,4217.435897,4460.000000,4209.230769,4271.794871,4487.179487,4215.897435,4615.897435,4023.076923,4067.179487
177,4365.128205,4464.102564,4541.538461,4313.333333,4505.641025,4214.358974,4458.974358,4213.333333,4274.871794,4494.871794,4204.615384,4618.461538,4034.871794,4074.358974
178,4366.153846,4458.974358,4534.871794,4322.051282,4506.666666,4208.205128,4460.000000,4208.205128,4268.717948,4494.358974,4210.256410,4616.923076,4040.000000,4073.333333
179,4357.948717,4454.358974,4532.307692,4318.461538,4507.692307,4207.179487,4456.923076,4201.538461,4264.615384,4484.102564,4218.974358,4609.743589,4024.102564,4064.102564
180,4356.410256,4455.384615,4533.846153,4310.769230,4505.128205,4205.128205,4454.871794,4202.051282,4266.666666,4479.487179,4217.435897,4608.205128,4011.282051,4058.461538
181,4369.230769,4463.076923,4538.461538,4313.333333,4505.128205,4207.179487,4453.333333,4205.641025,4274.358974,4490.769230,4222.564102,4618.461538,4026.666666,4065.641025
182,4375.384615,4468.717948,4545.128205,4318.461538,4509.230769,4213.846153,4458.461538,4209.230769,4282.051282,4502.051282,4230.769230,4626.666666,4046.153846,4076.923076
183,4367.692307,4463.589743,4541.025641,4318.461538,4508.717948,4209.743589,4459.487179,4204.102564,4273.333333,4494.358974,4221.538461,4617.948717,4043.076923,4076.410256
184,4362.051282,4456.923076,4531.794871,4312.307692,4505.128205,4205.128205,4454.871794,4197.435897,4264.615384,4485.128205,4210.256410,4604.102564,4031.282051,4067.692307
185,4363.589743,4455.384615,4532.820512,4308.205128,4508.717948,4214.358974,4456.923076,4202.051282,4273.333333,4494.358974,4218.974358,4608.717948,4026.666666,4065.128205
186,4363.589743,4453.333333,4536.923076,4315.384615,4511.794871,4216.410256,4462.051282,4204.615384,4271.282051,4494.871794,4223.589743,4617.435897,4027.692307,4066.153846
187,4361.025641,4448.717948,4533.333333,4317.948717,4506.153846,4210.769230,4460.512820,4198.461538,4256.410256,4486.666666,4211.794871,4609.230769,4029.743589,4063.076923
188,4354.871794,4450.769230,4531.794871,4312.307692,4506.666666,4213.846153,4461.538461,4197.435897,4263.589743,4488.717948,4204.615384,4604.615384,4034.358974,4063.076923
189,4350.256410,4456.410256,4536.923076,4315.897435,4515.384615,4216.923076,4469.230769,4206.153846,4280.000000,4493.846153,4211.794871,4614.358974,4040.512820,4070.256410
190,4354.358974,4460.000000,4538.974358,4321.025641,4512.820512,4216.923076,4470.256410,4209.743589,4277.435897,4492.820512,4219.487179,4620.000000,4038.461538,4072.820512
191,4356.923076,4458.974358,4535.897435,4313.846153,4510.769230,4218.461538,4468.205128,4204.102564,4270.256410,4490.256410,4216.410256,4613.333333,4028.205128,4066.153846
192,4356.923076,4451.282051,4534.871794,4308.205128,4515.384615,4214.871794,4470.769230,4202.051282,4267.692307,4490.769230,4211.282051,4607.179487,4021.538461,4061.538461
193,4362.051282,4444.615384,4532.820512,4311.794871,4512.820512,4213.333333,4467.179487,4204.102564,4269.230769,4491.282051,4213.333333,4610.256410,4024.615384,4062.051282
194,4366.666666,4449.743589,4529.743589,4310.256410,4506.666666,4216.923076,4460.512820,4203.589743,4274.358974,4491.282051,4217.435897,4612.820512,4027.179487,4060.000000
195,4363.076923,4454.358974,4532.307692,4305.641025,4505.641025,4214.358974,4459.487179,4202.564102,4273.846153,4487.692307,4209.743589,4607.179487,4026.153846,4057.435897
196,4360.000000,4446.153846,4533.333333,4305.128205,4509.743589,4210.256410,4462.051282,4202.564102,4265.641025,4484.102564,4196.923076,4598.974358,4022.051282,4055.384615
197,4361.538461,4442.051282,4527.692307,4308.205128,4510.769230,4214.871794,4463.076923,4200.512820,4264.102564,4487.692307,4202.051282,4600.512820,4018.974358,4053.333333
198,4363.076923,4448.205128,4531.282051,4313.333333,4512.820512,4218.974358,4465.128205,4203.589743,4271.282051,4495.384615,4218.974358,4608.205128,4023.589743,4058.461538
199,4365.128205,4452.307692,4539.487179,4311.794871,4516.923076,4217.948717,4465.128205,4205.128205,4269.743589,4493.333333,4223.589743,4613.333333,4024.615384,4064.102564
200,4365.641025,4450.769230,4534.871794,4301.025641,4515.897435,4214.358974,4462.051282,4193.846153,4255.384615,4478.461538,4212.820512,4608.205128,4006.153846,4057.948717
201,4358.461538,4442.051282,4522.051282,4295.897435,4506.153846,4207.692307,4457.948717,4185.641025,4246.666666,4473.846153,4198.461538,4595.897435,3987.692308,4050.256410
202,4351.794871,4434.871794,4517.948717,4300.512820,4500.000000,4198.461538,4455.384615,4193.333333,4255.384615,4484.102564,4195.897435,4596.410256,3996.923077,4045.641025
203,4359.487179,4443.076923,4523.589743,4305.641025,4505.128205,4199.487179,4458.461538,4203.076923,4267.692307,4492.820512,4202.564102,4607.179487,4010.769230,4046.666666
204,4366.666666,4445.128205,4527.179487,4309.230769,4507.179487,4209.230769,4458.974358,4201.538461,4267.179487,4488.717948,4204.615384,4603.589743,4004.102564,4053.333333
205,4367.179487,4437.948717,4523.076923,4313.333333,4503.589743,4210.256410,4455.897435,4198.974358,4264.615384,4479.487179,4205.641025,4598.461538,4000.000000,4057.435897
206,4374.358974,4450.256410,4530.256410,4315.897435,4510.256410,4208.205128,4456.923076,4202.051282,4267.692307,4485.128205,4216.923076,4611.794871,4012.307692,4063.589743
207,4385.128205,4464.615384,4544.102564,4316.410256,4517.948717,4211.794871,4460.000000,4202.564102,4268.717948,4494.871794,4224.102564,4624.615384,4017.948717,4075.384615
208,4385.128205,4458.461538,4542.051282,4313.846153,4515.384615,4216.410256,4462.564102,4201.538461,4270.256410,4496.923076,4223.589743,4622.564102,4014.871794,4074.871794
209,4378.974358,4451.282051,4533.846153,4312.307692,4515.897435,4216.410256,4461.538461,4203.589743,4276.923076,4503.076923,4228.717948,4618.461538,4022.051282,4066.666666
210,4375.384615,4450.769230,4533.846153,4316.410256,4518.461538,4213.333333,4459.487179,4198.461538,4271.794871,4499.487179,4222.051282,4613.333333,4022.564102,4066.666666
211,4371.282051,4445.641025,4530.256410,4316.410256,4511.794871,4210.256410,4459.487179,4190.256410,4258.974358,4478.461538,4205.128205,4605.128205,4007.179487,4063.589743
212,4371.282051,4449.230769,4526.153846,4308.717948,4506.153846,4210.256410,4459.487179,4192.820512,4258.461538,4475.897435,4212.307692,4608.205128,4000.512820,4058.974358
213,4381.538461,4462.051282,4534.358974,4310.769230,4509.743589,4214.358974,4459.487179,4200.000000,4265.641025,4492.307692,4233.846153,4619.487179,4011.794871,4067.692307
214,4386.666666,4465.128205,4537.948717,4320.000000,4517.948717,4216.923076,4460.512820,4200.000000,4262.564102,4492.820512,4237.948717,4624.102564,4018.461538,4076.410256
215,4381.538461,4455.384615,4532.820512,4320.000000,4520.512820,4215.897435,4461.025641,4198.461538,4261.025641,4485.641025,4225.128205,4621.538461,4013.333333,4075.384615
216,4375.384615,4447.179487,4529.743589,4315.384615,4513.846153,4209.230769,4457.948717,4195.384615,4269.230769,4486.153846,4217.948717,4614.358974,4008.205128,4068.205128
217,4372.307692,4451.794871,4527.692307,4315.384615,4510.769230,4205.128205,4453.333333,4187.179487,4266.153846,4487.179487,4211.282051,4612.820512,4010.769230,4065.128205
218,4377.435897,4462.564102,4528.717948,4311.282051,4519.487179,4212.307692,4453.846153,4182.051282,4258.974358,4491.794871,4212.307692,4616.410256,4020.000000,4068.205128
219,4384.615384,4467.179487,4532.307692,4309.230769,4524.615384,4220.000000,4460.000000,4190.769230,4262.564102,4495.897435,4225.128205,4617.435897,4021.538461,4068.205128
220,4380.000000,4462.051282,4533.333333,4313.333333,4518.461538,4215.897435,4459.487179,4198.974358,4269.230769,4493.333333,4229.230769,4616.923076,4011.282051,4064.615384
221,4371.794871,4443.076923,4531.282051,4310.256410,4511.282051,4205.128205,4449.743589,4191.794871,4261.538461,4484.615384,4216.410256,4615.384615,4004.615384,4061.538461
222,4374.871794,4431.794871,4532.307692,4310.256410,4509.230769,4205.128205,4450.769230,4185.641025,4253.333333,4481.538461,4213.333333,4615.897435,4009.230769,4062.051282
223,4381.025641,4437.948717,4535.897435,4315.897435,4511.794871,4210.769230,4455.384615,4189.230769,4258.974358,4490.769230,4220.512820,4619.487179,4014.358974,4064.615384
224,4376.923076,4435.384615,4532.820512,4309.230769,4518.461538,4210.256410,4449.743589,4189.230769,4266.153846,4495.384615,4211.794871,4616.410256,4010.769230,4060.000000
225,4369.743589,4424.102564,4529.743589,4307.179487,4519.487179,4210.256410,4449.743589,4184.615384,4263.589743,4486.153846,4206.666666,4611.282051,4000.512820,4052.820512
226,4370.769230,4426.153846,4531.794871,4321.025641,4513.846153,4217.435897,4460.000000,4185.641025,4255.897435,4481.538461,4216.923076,4611.794871,3998.974359,4058.974358
227,4378.461538,4435.897435,4534.871794,4323.076923,4512.307692,4218.974358,4461.025641,4192.307692,4254.871794,4489.230769,4220.000000,4616.410256,4005.641025,4063.589743
228,4380.512820,4434.871794,4534.871794,4312.307692,4519.487179,4213.333333,4457.435897,4192.307692,4260.000000,4494.358974,4217.435897,4616.923076,4009.230769,4057.948717
229,4379.487179,4429.743589,4535.384615,4312.820512,4524.615384,4217.435897,4460.512820,4187.692307,4262.564102,4492.820512,4215.384615,4616.410256,4009.230769,4061.538461
230,4386.666666,4432.307692,4539.487179,4321.025641,4522.564102,4225.128205,4459.487179,4189.743589,4262.564102,4491.794871,4217.948717,4614.871794,4011.794871,4066.153846
231,4396.923076,4442.564102,4541.025641,4324.102564,4521.538461,4222.564102,4458.461538,4195.384615,4265.128205,4492.820512,4230.769230,4617.948717,4016.410256,4063.589743
232,4394.358974,4445.128205,4539.487179,4320.000000,4520.512820,4213.846153,4460.512820,4187.692307,4264.102564,4491.282051,4234.871794,4617.948717,4016.410256,4063.076923
233,4383.589743,4433.333333,4534.871794,4314.871794,4521.025641,4213.333333,4455.384615,4183.589743,4262.051282,4488.205128,4220.512820,4607.179487,4016.410256,4059.487179
234,4386.153846,4429.743589,4531.282051,4318.974358,4521.538461,4217.435897,4449.743589,4189.230769,4268.205128,4493.333333,4214.358974,4603.076923,4018.974358,4056.410256
235,4395.384615,4440.000000,4533.846153,4325.128205,4518.461538,4215.897435,4454.358974,4187.179487,4267.692307,4500.000000,4218.974358,4610.769230,4022.564102,4062.051282
236,4393.846153,4443.076923,4535.897435,4322.051282,4520.512820,4215.897435,4457.435897,4181.025641,4255.384615,4490.769230,4216.923076,4614.358974,4018.461538,4064.102564
237,4391.282051,4431.794871,4534.358974,4315.384615,4523.589743,4215.897435,4453.846153,4182.564102,4248.205128,4480.512820,4216.923076,4611.794871,4010.769230,4061.538461
238,4393.846153,4423.076923,4534.358974,4318.974358,4517.948717,4214.358974,4456.410256,4183.589743,4253.333333,4485.641025,4215.384615,4613.333333,4017.435897,4063.589743
239,4389.743589,4429.230769,4532.820512,4323.589743,4514.871794,4216.410256,4456.923076,4184.102564,4253.333333,4487.179487,4203.076923,4611.282051,4026.666666,4059.487179
240,4385.641025,4437.948717,4528.205128,4318.974358,4521.538461,4216.923076,4451.794871,4181.538461,4246.666666,4483.076923,4204.102564,4604.615384,4014.358974,4052.307692
241,4389.230769,4434.358974,4528.205128,4311.794871,4525.128205,4215.384615,4451.794871,4175.384615,4247.179487,4487.692307,4213.846153,4605.641025,4004.102564,4055.384615
242,4393.333333,4428.717948,4534.871794,4315.384615,4521.025641,4217.435897,4456.923076,4176.410256,4257.435897,4497.435897,4214.871794,4613.333333,4022.564102,4059.487179
243,4393.333333,4436.923076,4535.897435,4321.025641,4521.025641,4220.512820,4456.923076,4183.076923,4261.025641,4496.410256,4211.794871,4618.461538,4036.410256,4060.000000
244,4394.358974,4446.666666,4534.358974,4314.871794,4525.128205,4217.948717,4457.435897,4184.615384,4252.820512,4492.820512,4207.692307,4616.923076,4029.230769,4062.564102
245,4394.358974,4437.948717,4540.000000,4314.358974,4523.589743,4217.948717,4459.487179,4184.615384,4253.846153,4500.512820,4207.692307,4614.358974,4027.179487,4062.051282
246,4393.846153,4420.512820,4540.512820,4322.564102,4521.538461,4217.948717,4452.820512,4182.564102,4257.948717,4504.615384,4210.769230,4615.897435,4024.102564,4057.948717
247,4395.384615,4417.948717,4534.358974,4320.512820,4522.051282,4213.333333,4449.230769,4177.948717,4252.307692,4494.358974,4211.282051,4613.846153,4014.871794,4055.897435
248,4394.871794,4432.307692,4532.820512,4309.743589,4523.589743,4212.820512,4452.820512,4178.461538,4250.256410,4489.230769,4206.153846,4608.205128,4020.512820,4055.897435
249,4397.948717,4444.615384,4535.384615,4309.743589,4523.076923,4217.948717,4452.307692,4181.025641,4257.948717,4496.923076,4209.743589,4610.256410,4034.358974,4058.974358
250,4406.153846,4438.974358,4538.461538,4321.025641,4521.025641,4218.461538,4446.666666,4181.538461,4258.974358,4496.410256,4217.948717,4614.871794,4034.358974,4062.051282
251,4407.179487,4425.641025,4543.076923,4330.769230,4520.000000,4208.205128,4446.153846,4181.025641,4250.769230,4488.717948,4210.769230,4613.846153,4026.666666,4060.512820
252,4401.538461,4427.179487,4546.666666,4333.333333,4520.000000,4205.641025,4448.717948,4178.974358,4248.717948,4492.307692,4203.076923,4612.820512,4025.128205,4057.948717
253,4404.102564,4434.871794,4543.076923,4334.358974,4521.025641,4212.307692,4446.153846,4178.461538,4252.820512,4495.384615,4206.666666,4611.282051,4024.102564,4055.897435
254,4409.743589,4434.871794,4540.000000,4334.871794,4521.025641,4209.743589,4446.666666,4182.564102,4251.794871,4489.743589,4209.230769,4608.205128,4015.384615,4054.871794
255,4408.717948,4437.435897,4539.487179,4330.256410,4521.025641,4205.641025,4451.282051,4185.128205,4253.333333,4492.820512,4207.179487,4608.717948,4010.769230,4058.974358
256,4410.769230,4444.102564,4543.076923,4331.794871,4522.051282,4213.846153,4454.871794,4185.128205,4259.487179,4502.564102,4210.769230,4611.282051,4020.000000,4063.589743
257,4414.871794,4446.666666,4545.641025,4339.487179,4523.589743,4220.000000,4457.948717,4186.666666,4263.076923,4505.128205,4216.410256,4613.333333,4027.692307,4064.102564
258,4411.794871,4443.589743,4543.589743,4341.025641,4525.128205,4215.897435,4457.435897,4185.641025,4260.512820,4501.538461,4211.794871,4615.897435,4021.025641,4063.589743
259,4411.282051,4442.051282,4540.512820,4340.512820,4517.435897,4211.794871,4450.769230,4185.128205,4256.410256,4494.871794,4207.692307,4614.358974,4006.153846,4060.512820
260,4413.846153,4440.000000,4540.512820,4338.974358,4510.256410,4212.307692,4446.666666,4184.102564,4252.820512,4493.846153,4211.282051,4612.820512,3995.384616,4062.564102
