,AF3,F7,F3,FC5,T7,P7,O1,O2,P8,T8,FC6,F4,F8,AF4
0,4397.948717,4524.615384,4525.128205,4269.743589,4530.769230,4170.769230,4427.692307,4202.051282,4226.666666,4484.615384,4219.487179,4659.487179,3975.384616,4039.487179
1,4386.666666,4524.615384,4521.538461,4264.615384,4525.641025,4166.153846,4424.615384,4198.461538,4216.923076,4475.384615,4216.410256,4652.307692,3965.641026,4032.307692
2,4380.000000,4516.410256,4517.948717,4261.538461,4518.461538,4166.666666,4424.615384,4192.307692,4211.282051,4470.769230,4207.692307,4648.717948,3963.076924,4029.743589
3,4386.153846,4512.820512,4516.410256,4262.564102,4528.205128,4170.769230,4426.666666,4192.307692,4221.025641,4479.487179,4200.000000,4650.256410,3964.615385,4030.769230
4,4396.923076,4523.589743,4527.179487,4268.717948,4532.820512,4174.358974,4431.282051,4207.692307,4236.410256,4493.846153,4210.769230,4661.025641,3971.794872,4037.948717
5,4398.974358,4532.820512,4533.846153,4270.769230,4528.717948,4176.410256,4433.846153,4214.871794,4233.846153,4493.333333,4218.461538,4668.205128,3978.974359,4043.589743
6,4394.871794,4524.615384,4525.128205,4264.102564,4532.307692,4175.384615,4430.256410,4206.666666,4217.948717,4480.000000,4210.769230,4660.512820,3976.923077,4037.948717
7,4394.871794,4517.948717,4521.025641,4260.512820,4534.358974,4171.794871,4425.641025,4208.717948,4220.512820,4482.051282,4218.461538,4658.461538,3981.025642,4038.974358
8,4401.538461,4528.205128,4529.230769,4265.641025,4534.358974,4170.256410,4425.641025,4216.923076,4234.871794,4500.512820,4231.794871,4666.153846,3995.384616,4051.282051
9,4406.153846,4535.384615,4532.307692,4273.333333,4535.384615,4173.846153,4427.179487,4216.923076,4242.051282,4507.692307,4231.794871,4664.615384,4000.000000,4055.384615
10,4401.025641,4529.230769,4527.179487,4274.358974,4530.256410,4175.384615,4428.717948,4215.897435,4236.410256,4498.974358,4233.846153,4658.461538,3988.205129,4044.615384
11,4389.743589,4523.589743,4523.589743,4266.153846,4529.230769,4175.384615,4432.820512,4216.923076,4228.205128,4491.794871,4228.717948,4651.794871,3976.410257,4034.358974
12,4385.128205,4516.923076,4518.461538,4258.461538,4533.846153,4176.410256,4434.358974,4210.256410,4220.000000,4484.102564,4205.641025,4644.102564,3972.307693,4028.717948
13,4388.717948,4510.256410,4516.410256,4257.948717,4532.307692,4175.384615,4430.769230,4202.564102,4214.358974,4471.794871,4198.974358,4644.102564,3969.230770,4026.153846
14,4387.179487,4512.820512,4522.564102,4262.051282,4526.666666,4170.769230,4427.692307,4205.128205,4217.435897,4466.666666,4212.820512,4651.794871,3965.128206,4024.102564
15,4382.564102,4514.358974,4527.179487,4263.589743,4526.666666,4166.666666,4428.717948,4210.769230,4222.564102,4473.333333,4215.897435,4655.897435,3962.564103,4025.128205
16,4383.076923,4513.846153,4527.692307,4267.692307,4528.205128,4166.666666,4426.666666,4211.282051,4216.923076,4476.923076,4211.794871,4656.410256,3963.076924,4031.282051
17,4389.230769,4517.435897,4528.717948,4272.820512,4529.743589,4171.794871,4426.666666,4208.717948,4207.179487,4472.820512,4213.846153,4660.512820,3967.692308,4035.897435
18,4394.358974,4519.487179,4529.230769,4271.282051,4532.307692,4177.435897,4435.897435,4211.282051,4213.846153,4474.358974,4213.846153,4663.076923,3975.897436,4038.461538
19,4393.333333,4518.974358,4527.179487,4267.692307,4530.256410,4178.461538,4441.538461,4214.358974,4227.692307,4478.461538,4207.692307,4662.051282,3977.948718,4040.512820
20,4390.769230,4519.487179,4523.076923,4268.205128,4528.205128,4176.410256,4435.897435,4211.282051,4227.692307,4480.512820,4213.846153,4659.487179,3974.871795,4040.512820
21,4387.179487,4516.410256,4516.410256,4264.615384,4527.692307,4175.897435,4429.743589,4207.692307,4218.974358,4477.948717,4223.589743,4651.282051,3968.205129,4033.333333
22,4383.589743,4512.307692,4512.307692,4258.461538,4530.769230,4174.871794,4428.205128,4208.717948,4217.948717,4481.025641,4215.384615,4645.128205,3964.615385,4027.179487
23,4386.666666,4518.974358,4523.076923,4263.589743,4540.000000,4173.846153,4428.717948,4212.307692,4224.102564,4492.820512,4207.179487,4653.846153,3974.358975,4035.897435
24,4393.333333,4522.051282,4530.769230,4268.717948,4541.025641,4170.256410,4425.641025,4212.820512,4225.641025,4493.846153,4213.333333,4663.076923,3983.076924,4042.564102
25,4398.461538,4520.000000,4531.282051,4264.615384,4535.384615,4166.666666,4424.615384,4214.871794,4228.717948,4489.743589,4221.025641,4662.051282,3982.564103,4041.025641
26,4396.410256,4522.051282,4531.794871,4265.128205,4534.358974,4175.384615,4433.333333,4220.000000,4235.384615,4494.871794,4222.051282,4661.025641,3979.487180,4044.102564
27,4388.205128,4522.051282,4524.615384,4266.153846,4536.410256,4181.538461,4443.076923,4216.410256,4231.794871,4489.743589,4215.384615,4660.000000,3970.769231,4042.564102
28,4382.051282,4516.410256,4513.846153,4262.564102,4539.487179,4177.948717,4442.564102,4208.205128,4221.538461,4474.871794,4203.076923,4650.769230,3957.948718,4026.153846
29,4381.538461,4508.205128,4517.435897,4260.512820,4537.435897,4176.923076,4440.512820,4206.666666,4220.000000,4476.923076,4198.974358,4647.179487,3956.923077,4020.512820
30,4383.076923,4504.102564,4530.769230,4264.102564,4537.435897,4186.666666,4446.666666,4216.923076,4225.641025,4485.128205,4212.820512,4657.435897,3964.615385,4038.461538
31,4386.153846,4510.256410,4530.769230,4267.692307,4538.974358,4191.282051,4444.102564,4221.025641,4227.179487,4482.051282,4223.076923,4664.615384,3964.102565,4045.641025
32,4385.641025,4514.358974,4521.025641,4260.000000,4538.974358,4182.564102,4431.794871,4205.641025,4216.410256,4476.923076,4213.846153,4652.820512,3957.435898,4034.358974
33,4378.974358,4512.307692,4514.358974,4252.820512,4537.435897,4173.333333,4426.153846,4194.871794,4203.076923,4469.230769,4205.128205,4638.974358,3953.846154,4026.153846
34,4378.461538,4515.384615,4513.333333,4258.461538,4536.410256,4174.358974,4425.128205,4201.025641,4207.179487,4467.179487,4201.025641,4644.102564,3954.358975,4026.666666
35,4390.256410,4524.102564,4520.000000,4267.692307,4536.410256,4182.564102,4430.769230,4213.846153,4225.641025,4483.076923,4197.435897,4657.435897,3961.025642,4034.871794
36,4398.461538,4526.666666,4527.692307,4268.205128,4540.000000,4188.205128,4439.487179,4222.564102,4236.410256,4499.487179,4205.128205,4660.512820,3972.307693,4048.205128
37,4393.333333,4521.538461,4523.076923,4261.538461,4540.512820,4184.102564,4435.897435,4220.512820,4229.743589,4492.820512,4216.410256,4649.743589,3973.333334,4045.641025
38,4384.615384,4514.358974,4512.307692,4253.333333,4528.717948,4172.820512,4423.589743,4208.205128,4217.435897,4481.025641,4212.820512,4636.410256,3963.076924,4031.794871
39,4380.000000,4513.333333,4504.615384,4246.153846,4522.051282,4164.615384,4418.974358,4200.512820,4212.820512,4479.487179,4200.512820,4629.743589,3961.025642,4022.564102
40,4374.871794,4513.333333,4503.589743,4248.205128,4528.717948,4159.487179,4413.333333,4197.948717,4207.692307,4474.358974,4194.358974,4627.179487,3961.538462,4016.410256
41,4377.948717,4512.307692,4510.769230,4257.948717,4533.846153,4158.461538,4407.692307,4193.333333,4208.205128,4473.846153,4201.025641,4632.820512,3958.461539,4022.051282
42,4394.358974,4524.615384,4520.512820,4265.641025,4535.384615,4170.256410,4416.923076,4202.051282,4218.461538,4488.205128,4216.410256,4647.692307,3967.692308,4040.512820
43,4402.564102,4538.461538,4522.051282,4266.666666,4539.487179,4179.487179,4428.205128,4215.384615,4225.641025,4492.820512,4220.000000,4653.333333,3978.461539,4046.666666
44,4396.923076,4534.358974,4518.974358,4267.179487,4544.102564,4178.461538,4429.230769,4209.743589,4220.512820,4483.076923,4208.717948,4648.205128,3970.256411,4038.974358
45,4385.641025,4522.564102,4512.820512,4265.641025,4539.487179,4176.923076,4425.641025,4197.948717,4210.256410,4480.000000,4197.435897,4643.076923,3952.820513,4032.820512
46,4372.820512,4512.820512,4501.025641,4252.307692,4532.820512,4174.871794,4422.051282,4197.435897,4202.051282,4473.846153,4190.256410,4635.384615,3945.641026,4025.641025
47,4371.282051,4511.794871,4501.025641,4246.153846,4534.358974,4171.282051,4424.615384,4199.487179,4200.512820,4463.076923,4194.358974,4631.282051,3948.717949,4022.051282
48,4383.589743,4521.025641,4513.333333,4257.435897,4533.846153,4174.358974,4429.230769,4200.000000,4203.589743,4466.666666,4201.025641,4641.538461,3955.384616,4032.820512
49,4382.564102,4517.948717,4514.358974,4259.487179,4531.282051,4172.820512,4428.205128,4203.589743,4207.179487,4480.000000,4195.384615,4648.717948,3958.461539,4040.000000
50,4369.743589,4504.615384,4507.692307,4248.717948,4530.769230,4164.102564,4425.128205,4208.717948,4216.410256,4487.179487,4191.794871,4642.051282,3959.487180,4035.384615
51,4368.717948,4506.666666,4512.307692,4245.641025,4528.205128,4166.666666,4429.230769,4216.410256,4226.153846,4489.743589,4204.102564,4642.564102,3967.692308,4034.358974
52,4371.282051,4509.743589,4511.794871,4248.205128,4528.717948,4170.256410,4431.282051,4217.435897,4221.538461,4492.307692,4213.846153,4650.769230,3970.256411,4038.461538
53,4365.128205,4503.589743,4503.589743,4245.128205,4532.820512,4168.205128,4428.717948,4207.179487,4212.820512,4486.153846,4203.076923,4645.641025,3961.538462,4038.461538
54,4363.076923,4508.205128,4504.102564,4244.615384,4529.230769,4169.230769,4427.692307,4200.512820,4209.743589,4478.974358,4192.820512,4636.923076,3957.435898,4038.974358
55,4366.153846,4514.358974,4508.205128,4248.717948,4526.666666,4167.692307,4421.538461,4199.487179,4207.692307,4480.512820,4197.435897,4642.051282,3958.461539,4041.025641
56,4364.102564,4510.256410,4505.128205,4249.230769,4535.897435,4160.512820,4411.282051,4189.743589,4198.461538,4478.974358,4200.000000,4643.076923,3952.307693,4038.974358
57,4361.538461,4512.307692,4501.025641,4253.333333,4538.974358,4158.461538,4407.692307,4184.615384,4197.948717,4470.256410,4194.358974,4636.410256,3945.641026,4036.410256
58,4366.153846,4518.974358,4505.128205,4261.025641,4531.794871,4163.589743,4410.256410,4196.923076,4208.205128,4473.333333,4192.307692,4641.538461,3952.307693,4041.025641
59,4367.692307,4515.384615,4509.230769,4259.487179,4533.333333,4164.102564,4414.358974,4204.615384,4206.153846,4474.871794,4188.205128,4647.179487,3958.461539,4044.102564
60,4365.128205,4513.846153,4508.717948,4249.743589,4537.948717,4163.076923,4420.512820,4200.000000,4202.051282,4473.333333,4186.666666,4640.512820,3954.358975,4041.538461
61,4366.666666,4519.487179,4511.794871,4246.666666,4535.897435,4169.230769,4426.666666,4201.538461,4213.846153,4483.076923,4194.358974,4641.025641,3955.897436,4044.102564
62,4367.179487,4519.487179,4513.333333,4253.846153,4535.384615,4174.358974,4428.205128,4206.153846,4216.923076,4486.153846,4195.384615,4648.205128,3963.589744,4049.743589
63,4364.615384,4513.333333,4510.769230,4263.589743,4534.871794,4169.743589,4428.205128,4206.666666,4208.717948,4475.897435,4192.820512,4646.153846,3961.538462,4049.743589
64,4368.717948,4517.948717,4509.743589,4263.076923,4530.769230,4168.717948,4429.230769,4213.846153,4215.897435,4480.000000,4203.076923,4644.615384,3959.487180,4052.307692
65,4371.794871,4522.564102,4511.282051,4252.820512,4533.846153,4176.410256,4430.769230,4218.974358,4221.025641,4487.692307,4210.256410,4647.179487,3968.205129,4053.333333
66,4358.974358,4511.794871,4505.641025,4248.205128,4536.923076,4172.820512,4427.692307,4209.230769,4211.794871,4476.923076,4193.333333,4642.051282,3964.615385,4042.564102
67,4349.743589,4500.512820,4497.948717,4248.205128,4528.717948,4161.025641,4424.102564,4201.538461,4211.794871,4470.256410,4180.000000,4634.871794,3950.256411,4035.384615
68,4355.384615,4501.538461,4501.025641,4246.153846,4523.076923,4160.512820,4424.102564,4202.564102,4210.256410,4471.794871,4187.179487,4634.358974,3949.743590,4037.435897
69,4361.025641,4507.179487,4507.692307,4246.153846,4527.692307,4166.666666,4425.641025,4200.512820,4198.974358,4472.307692,4192.820512,4635.897435,3957.435898,4042.564102
70,4361.025641,4505.641025,4506.153846,4246.666666,4524.102564,4167.692307,4425.128205,4205.641025,4203.076923,4482.051282,4193.846153,4637.948717,3962.051283,4044.615384
71,4363.076923,4505.128205,4503.076923,4246.666666,4517.435897,4166.153846,4427.179487,4215.384615,4216.923076,4491.282051,4196.923076,4641.025641,3964.615385,4044.102564
72,4362.051282,4508.205128,4505.128205,4245.641025,4527.179487,4165.128205,4427.179487,4208.717948,4215.897435,4483.589743,4194.358974,4638.461538,3962.051283,4044.615384
73,4358.461538,4504.102564,4506.666666,4245.128205,4534.358974,4163.589743,4421.538461,4202.051282,4207.692307,4469.743589,4188.205128,4635.384615,3958.974359,4048.205128
74,4367.179487,4503.589743,4508.205128,4250.769230,4528.717948,4167.692307,4422.564102,4210.769230,4212.307692,4478.461538,4195.897435,4640.512820,3969.230770,4053.333333
75,4382.564102,4519.487179,4516.410256,4264.615384,4529.230769,4174.871794,4430.256410,4217.948717,4222.051282,4492.820512,4212.307692,4651.282051,3986.153847,4061.538461
76,4383.076923,4529.230769,4520.512820,4267.692307,4537.435897,4174.871794,4430.256410,4214.358974,4221.538461,4493.333333,4215.384615,4653.333333,3987.692308,4063.589743
77,4373.846153,4516.923076,4513.846153,4253.333333,4535.897435,4168.717948,4422.051282,4209.230769,4216.410256,4489.743589,4204.102564,4646.666666,3976.923077,4054.871794
78,4378.461538,4511.794871,4512.820512,4250.769230,4530.769230,4170.769230,4423.589743,4210.256410,4219.487179,4491.282051,4195.384615,4649.743589,3977.435898,4062.051282
79,4387.179487,4519.487179,4522.051282,4262.564102,4536.923076,4181.025641,4436.410256,4217.948717,4227.692307,4494.871794,4199.487179,4657.948717,3986.666667,4076.410256
80,4384.102564,4521.025641,4526.153846,4258.461538,4541.538461,4184.102564,4444.615384,4220.000000,4224.615384,4494.871794,4208.205128,4655.384615,3977.948718,4068.717948
81,4378.974358,4513.333333,4523.589743,4246.666666,4534.358974,4178.461538,4443.589743,4214.358974,4212.820512,4487.692307,4208.717948,4652.307692,3961.538462,4058.461538
82,4381.538461,4508.205128,4524.102564,4249.230769,4527.179487,4178.461538,4443.076923,4215.384615,4209.743589,4483.589743,4209.230769,4658.461538,3969.743590,4062.564102
83,4384.615384,4510.256410,4530.256410,4252.820512,4531.282051,4179.487179,4439.487179,4218.974358,4218.974358,4490.769230,4211.794871,4660.512820,3982.051283,4063.589743
84,4378.974358,4510.769230,4527.179487,4247.692307,4533.846153,4172.307692,4428.205128,4215.384615,4223.076923,4493.333333,4210.769230,4654.871794,3971.282052,4056.923076
85,4372.820512,4506.153846,4516.923076,4249.743589,4525.128205,4170.256410,4427.692307,4211.282051,4217.435897,4485.128205,4201.538461,4651.282051,3961.025642,4053.846153
86,4374.871794,4510.256410,4515.897435,4257.948717,4527.692307,4176.410256,4440.512820,4213.333333,4217.948717,4484.102564,4196.410256,4650.256410,3968.717949,4053.846153
87,4382.564102,4524.615384,4518.974358,4262.051282,4541.025641,4180.512820,4445.641025,4219.487179,4223.589743,4495.384615,4203.076923,4647.692307,3978.461539,4057.948717
88,4381.538461,4526.666666,4515.384615,4262.564102,4540.000000,4181.538461,4437.435897,4216.410256,4218.461538,4494.871794,4202.051282,4641.538461,3974.358975,4054.358974
89,4375.384615,4516.410256,4511.282051,4258.974358,4534.871794,4180.512820,4427.179487,4204.102564,4208.717948,4482.051282,4197.948717,4636.410256,3963.589744,4049.230769
90,4378.461538,4513.333333,4511.282051,4255.384615,4541.538461,4175.897435,4426.153846,4198.974358,4204.615384,4482.564102,4203.589743,4638.974358,3961.538462,4055.897435
91,4381.025641,4516.410256,4507.692307,4251.282051,4537.435897,4170.256410,4428.717948,4200.512820,4202.051282,4485.641025,4194.358974,4639.487179,3967.179488,4056.923076
92,4374.358974,4511.282051,4504.615384,4245.641025,4525.128205,4168.717948,4425.641025,4200.000000,4202.051282,4476.410256,4181.025641,4635.384615,3961.025642,4045.641025
93,4375.897435,4509.743589,4511.794871,4249.230769,4529.743589,4170.256410,4429.743589,4208.205128,4205.641025,4476.923076,4196.923076,4645.128205,3955.384616,4048.717948
94,4386.153846,4516.923076,4520.000000,4256.923076,4535.897435,4172.307692,4444.102564,4220.000000,4212.820512,4490.769230,4218.974358,4659.487179,3969.743590,4063.076923
95,4382.564102,4520.000000,4517.948717,4252.307692,4532.307692,4170.769230,4441.538461,4220.000000,4218.461538,4491.282051,4220.512820,4652.307692,3980.000000,4063.076923
96,4374.358974,4516.923076,4513.846153,4244.615384,4531.794871,4170.769230,4430.256410,4214.871794,4216.923076,4487.179487,4210.256410,4642.564102,3974.358975,4058.461538
97,4380.000000,4511.282051,4516.923076,4248.205128,4531.282051,4174.358974,4428.205128,4209.230769,4212.307692,4493.846153,4191.794871,4647.692307,3969.230770,4057.948717
98,4382.564102,4508.717948,4519.487179,4252.820512,4528.717948,4172.820512,4430.256410,4206.666666,4211.282051,4493.333333,4193.333333,4648.717948,3968.717949,4049.743589
99,4374.871794,4512.820512,4517.435897,4248.205128,4527.179487,4169.230769,4434.871794,4212.820512,4210.769230,4486.666666,4213.846153,4643.076923,3966.153847,4045.641025
100,4372.820512,4515.897435,4513.846153,4243.076923,4527.179487,4170.256410,4443.589743,4222.051282,4219.487179,4493.333333,4209.230769,4645.641025,3972.820513,4055.384615
101,4379.487179,4514.358974,4514.871794,4242.051282,4527.692307,4172.820512,4445.128205,4225.641025,4233.333333,4506.666666,4202.564102,4654.358974,3984.615385,4066.666666
102,4387.179487,4522.051282,4516.923076,4248.717948,4529.230769,4173.333333,4436.923076,4224.615384,4230.769230,4504.615384,4216.410256,4656.410256,3984.615385,4066.153846
103,4388.205128,4531.282051,4517.435897,4257.435897,4528.205128,4174.358974,4430.256410,4218.461538,4222.564102,4495.384615,4213.846153,4650.256410,3975.384616,4057.435897
104,4372.820512,4518.974358,4511.282051,4251.794871,4530.256410,4167.692307,4418.461538,4201.025641,4212.820512,4486.153846,4193.846153,4641.025641,3961.538462,4046.666666
105,4362.051282,4508.205128,4505.641025,4242.564102,4535.384615,4162.051282,4407.692307,4183.589743,4194.358974,4476.923076,4193.846153,4636.410256,3954.871795,4044.102564
106,4375.384615,4518.461538,4510.256410,4249.743589,4536.410256,4171.282051,4414.871794,4184.102564,4188.205128,4476.923076,4203.076923,4636.923076,3963.076924,4053.846153
107,4387.692307,4529.230769,4518.461538,4257.435897,4537.435897,4181.025641,4427.692307,4198.461538,4198.461538,4478.974358,4201.538461,4643.589743,3969.743590,4058.461538
108,4382.051282,4524.102564,4517.948717,4252.307692,4530.256410,4174.358974,4428.205128,4206.666666,4197.948717,4472.307692,4198.974358,4646.153846,3964.102565,4053.846153
109,4376.410256,4511.794871,4513.846153,4245.128205,4520.000000,4164.615384,4423.589743,4208.717948,4193.333333,4473.333333,4206.153846,4638.461538,3962.051283,4049.230769
110,4385.128205,4512.820512,4515.897435,4248.717948,4520.512820,4166.666666,4432.820512,4223.076923,4218.461538,4495.384615,4215.384615,4637.948717,3981.025642,4057.948717
111,4396.410256,4524.102564,4525.641025,4257.948717,4523.589743,4175.897435,4446.153846,4248.205128,4256.923076,4523.076923,4228.717948,4652.307692,4006.666666,4074.358974
112,4393.846153,4522.564102,4531.794871,4254.358974,4521.538461,4178.974358,4447.692307,4260.000000,4270.256410,4535.384615,4245.128205,4661.025641,4013.333333,4077.435897
113,4382.564102,4513.333333,4526.153846,4242.051282,4523.589743,4177.948717,4444.615384,4254.871794,4261.025641,4536.410256,4246.153846,4656.923076,4003.589743,4069.230769
114,4379.487179,4513.846153,4519.487179,4242.564102,4527.179487,4180.000000,4445.128205,4247.179487,4248.717948,4531.794871,4231.794871,4655.897435,3997.435898,4064.102564
115,4375.897435,4509.743589,4515.897435,4247.692307,4529.743589,4177.948717,4441.538461,4232.307692,4235.384615,4514.871794,4223.589743,4651.282051,3991.282052,4057.435897
116,4367.179487,4502.564102,4511.282051,4247.179487,4533.846153,4175.897435,4432.307692,4214.871794,4222.564102,4493.846153,4216.923076,4637.948717,3974.358975,4046.153846
117,4370.769230,4514.358974,4512.307692,4252.820512,4532.307692,4179.487179,4431.282051,4213.333333,4217.948717,4484.102564,4204.102564,4635.897435,3962.051283,4042.564102
118,4375.384615,4525.128205,4515.897435,4258.461538,4528.205128,4180.512820,4432.307692,4215.384615,4217.435897,4484.102564,4203.076923,4644.102564,3967.179488,4042.564102
119,4372.307692,4521.538461,4513.846153,4251.282051,4530.769230,4176.923076,4428.717948,4212.307692,4211.282051,4483.076923,4212.820512,4641.538461,3972.820513,4041.025641
120,4374.871794,4514.358974,4514.871794,4242.564102,4527.179487,4175.897435,4431.794871,4213.333333,4203.589743,4480.000000,4213.333333,4637.948717,3976.923077,4047.179487
121,4381.538461,4511.282051,4520.000000,4241.538461,4520.512820,4171.282051,4434.871794,4215.384615,4206.153846,4483.076923,4215.384615,4648.205128,3988.205129,4054.871794
122,4383.589743,4510.769230,4523.076923,4246.666666,4520.512820,4166.153846,4433.333333,4221.025641,4225.641025,4495.897435,4227.179487,4659.487179,3996.923077,4059.487179
123,4385.641025,4515.897435,4528.205128,4251.794871,4517.435897,4168.717948,4435.384615,4232.307692,4240.512820,4512.820512,4234.871794,4660.512820,3995.897436,4063.076923
124,4386.153846,4520.512820,4533.846153,4248.717948,4510.256410,4166.666666,4435.897435,4235.897435,4233.846153,4518.461538,4229.230769,4658.974358,3993.846154,4063.076923
125,4381.538461,4520.512820,4531.282051,4248.717948,4510.256410,4162.051282,4434.358974,4229.743589,4226.153846,4513.333333,4225.128205,4658.974358,3991.282052,4058.974358
126,4377.948717,4512.307692,4522.564102,4248.205128,4508.717948,4164.102564,4436.923076,4227.692307,4225.128205,4505.128205,4217.435897,4652.820512,3980.000000,4052.820512
127,4374.358974,4497.435897,4515.384615,4236.410256,4507.179487,4168.717948,4437.948717,4225.641025,4213.846153,4495.897435,4202.051282,4646.666666,3968.717949,4047.179487
128,4366.153846,4493.846153,4509.743589,4228.717948,4512.307692,4170.769230,4431.282051,4221.025641,4207.179487,4484.615384,4194.358974,4641.538461,3963.589744,4039.487179
129,4356.923076,4495.384615,4501.025641,4232.307692,4517.435897,4164.615384,4419.487179,4212.820512,4207.179487,4469.743589,4184.102564,4628.717948,3954.358975,4025.641025
130,4352.307692,4493.333333,4496.410256,4240.000000,4521.538461,4160.512820,4410.256410,4200.512820,4196.923076,4468.205128,4179.487179,4621.025641,3949.743590,4014.358974
131,4356.410256,4500.512820,4502.564102,4244.615384,4530.769230,4169.743589,4413.333333,4200.000000,4194.871794,4481.025641,4195.384615,4628.205128,3962.564103,4021.025641
132,4367.692307,4517.948717,4510.769230,4246.153846,4534.358974,4180.000000,4423.076923,4211.282051,4208.717948,4487.179487,4211.282051,4640.000000,3983.589744,4045.128205
133,4379.487179,4529.743589,4513.846153,4247.179487,4529.743589,4178.461538,4430.256410,4216.410256,4216.410256,4491.794871,4222.051282,4646.153846,3994.358975,4061.538461
134,4388.205128,4526.153846,4515.897435,4249.230769,4529.743589,4176.410256,4438.461538,4221.025641,4225.128205,4506.153846,4232.307692,4651.794871,3993.333334,4062.564102
135,4390.256410,4518.461538,4519.487179,4251.282051,4532.307692,4182.051282,4444.102564,4230.769230,4239.487179,4513.846153,4235.384615,4657.435897,3989.230770,4061.025641
136,4390.256410,4521.025641,4524.102564,4257.435897,4532.820512,4185.641025,4442.564102,4232.820512,4238.461538,4512.307692,4237.948717,4661.538461,3994.871795,4065.128205
137,4396.410256,4533.846153,4531.282051,4265.641025,4534.358974,4185.128205,4444.102564,4235.897435,4233.846153,4521.025641,4248.205128,4666.153846,4011.794871,4073.333333
138,4401.025641,4536.410256,4534.871794,4265.128205,4533.333333,4186.666666,4447.692307,4247.692307,4245.128205,4532.307692,4250.256410,4668.205128,4023.076923,4077.948717
139,4395.897435,4523.589743,4532.820512,4264.615384,4524.102564,4184.615384,4447.692307,4252.820512,4255.384615,4532.820512,4246.666666,4668.717948,4025.641025,4075.384615
140,4392.307692,4517.948717,4533.333333,4264.615384,4518.461538,4183.589743,4448.205128,4250.769230,4253.333333,4529.230769,4250.769230,4670.256410,4021.538461,4074.871794
141,4388.717948,4514.871794,4530.256410,4252.820512,4522.564102,4186.153846,4449.743589,4244.615384,4242.564102,4521.025641,4245.128205,4664.102564,4006.153846,4075.384615
142,4381.025641,4502.564102,4521.538461,4241.538461,4521.538461,4185.128205,4449.743589,4235.384615,4229.743589,4511.282051,4230.769230,4655.384615,3989.743590,4066.153846
143,4388.205128,4505.641025,4523.076923,4247.692307,4518.461538,4186.153846,4452.307692,4236.410256,4226.153846,4508.717948,4227.179487,4661.538461,3994.871795,4064.102564
144,4398.974358,4522.051282,4527.179487,4253.846153,4527.179487,4188.205128,4448.717948,4236.923076,4225.641025,4508.717948,4227.692307,4664.102564,4002.564102,4070.256410
145,4389.230769,4523.589743,4515.897435,4246.666666,4535.384615,4183.589743,4436.923076,4223.076923,4217.948717,4505.128205,4219.487179,4647.692307,3988.717949,4056.923076
146,4378.974358,4520.000000,4506.153846,4252.307692,4531.282051,4179.487179,4432.820512,4214.871794,4215.897435,4502.051282,4208.205128,4637.435897,3974.871795,4042.051282
147,4380.512820,4523.589743,4511.794871,4266.666666,4533.846153,4183.589743,4433.846153,4217.948717,4217.435897,4496.923076,4201.025641,4641.538461,3973.846154,4047.179487
148,4376.410256,4521.025641,4511.794871,4257.948717,4547.692307,4186.153846,4429.743589,4215.897435,4207.692307,4488.205128,4196.923076,4641.025641,3968.205129,4047.692307
149,4374.871794,4524.615384,4509.230769,4247.692307,4548.205128,4183.589743,4432.820512,4218.974358,4202.564102,4489.230769,4205.641025,4643.589743,3965.641026,4043.589743
150,4388.205128,4535.384615,4515.384615,4261.025641,4536.923076,4184.615384,4443.589743,4228.717948,4213.333333,4498.974358,4218.974358,4655.384615,3977.435898,4052.820512
151,4395.384615,4531.794871,4516.923076,4270.256410,4531.794871,4186.666666,4444.102564,4223.076923,4220.000000,4502.051282,4222.564102,4657.435897,3991.282052,4061.538461
152,4394.358974,4529.743589,4517.948717,4263.589743,4535.384615,4186.666666,4439.487179,4217.948717,4221.538461,4506.666666,4226.153846,4653.333333,4002.564102,4067.692307
153,4403.076923,4537.435897,4529.230769,4263.076923,4533.333333,4182.564102,4441.025641,4228.717948,4227.692307,4518.461538,4231.794871,4662.564102,4010.256410,4075.897435
154,4409.743589,4534.871794,4535.897435,4264.615384,4528.205128,4180.512820,4444.102564,4237.435897,4233.333333,4526.153846,4239.487179,4675.897435,4013.846153,4079.487179
155,4409.743589,4534.871794,4536.923076,4264.615384,4527.179487,4181.538461,4445.641025,4240.000000,4240.000000,4532.307692,4248.205128,4683.076923,4019.487179,4082.564102
156,4405.128205,4539.487179,4538.974358,4263.589743,4530.769230,4178.461538,4442.051282,4241.025641,4237.948717,4534.358974,4241.025641,4681.025641,4017.435897,4082.051282
157,4393.846153,4528.717948,4530.769230,4252.820512,4530.256410,4176.410256,4434.871794,4233.333333,4218.974358,4512.820512,4219.487179,4670.256410,4003.076923,4069.230769
158,4385.128205,4513.333333,4518.974358,4246.666666,4521.538461,4176.410256,4437.948717,4223.076923,4207.179487,4493.333333,4209.230769,4661.025641,3994.358975,4056.923076
159,4388.205128,4510.256410,4520.000000,4246.666666,4515.384615,4177.948717,4447.179487,4226.666666,4221.538461,4502.564102,4218.974358,4660.512820,3997.435898,4057.435897
160,4385.641025,4506.666666,4522.564102,4237.435897,4520.512820,4180.000000,4442.051282,4231.282051,4227.179487,4508.717948,4227.692307,4662.051282,3999.487180,4054.871794
161,4371.282051,4500.512820,4515.897435,4230.769230,4527.692307,4175.384615,4429.743589,4222.564102,4212.307692,4502.564102,4218.461538,4660.000000,3994.871795,4047.179487
162,4376.923076,4510.256410,4514.871794,4246.153846,4531.794871,4173.333333,4433.846153,4220.512820,4210.256410,4509.743589,4214.358974,4663.076923,3995.897436,4052.307692
163,4399.487179,4532.820512,4524.102564,4263.589743,4533.333333,4180.512820,4445.128205,4229.743589,4220.512820,4521.538461,4229.743589,4672.307692,4007.179487,4068.205128
164,4401.025641,4538.461538,4522.564102,4257.948717,4535.384615,4180.512820,4440.512820,4226.153846,4216.410256,4510.769230,4224.102564,4667.692307,4002.564102,4069.743589
165,4383.589743,4520.512820,4506.153846,4240.512820,4533.333333,4169.230769,4427.179487,4210.256410,4199.487179,4491.794871,4196.923076,4648.205128,3974.358975,4050.769230
166,4375.384615,4504.615384,4494.871794,4231.794871,4529.743589,4167.179487,4424.615384,4202.051282,4190.256410,4481.538461,4196.923076,4640.000000,3962.564103,4035.897435
167,4374.358974,4506.153846,4497.435897,4232.820512,4524.615384,4172.307692,4426.666666,4200.000000,4191.282051,4477.948717,4205.128205,4645.128205,3970.256411,4036.923076
168,4373.846153,4514.358974,4503.589743,4237.948717,4520.000000,4172.307692,4430.256410,4203.076923,4193.333333,4475.897435,4191.282051,4644.615384,3969.743590,4042.051282
169,4384.615384,4523.589743,4508.717948,4245.641025,4526.153846,4173.846153,4438.461538,4213.846153,4196.410256,4480.512820,4193.333333,4646.153846,3970.256411,4048.205128
170,4394.358974,4529.230769,4514.358974,4250.256410,4533.846153,4175.384615,4442.564102,4216.923076,4201.538461,4490.256410,4213.333333,4655.897435,3982.564103,4053.846153
171,4394.358974,4524.615384,4517.948717,4249.230769,4530.256410,4175.384615,4441.538461,4217.948717,4208.205128,4496.410256,4212.307692,4660.512820,3991.794872,4059.487179
172,4392.820512,4517.948717,4516.923076,4245.128205,4525.641025,4172.307692,4441.538461,4220.000000,4209.743589,4498.461538,4207.179487,4657.948717,3992.820513,4064.102564
173,4390.769230,4515.897435,4515.897435,4244.102564,4528.717948,4168.717948,4443.076923,4216.410256,4211.282051,4502.051282,4214.871794,4661.538461,3993.846154,4066.153846
174,4389.743589,4518.974358,4517.948717,4248.717948,4531.794871,4171.282051,4443.589743,4220.000000,4220.512820,4510.769230,4217.948717,4665.641025,4000.000000,4072.307692
175,4387.692307,4521.025641,4518.461538,4251.282051,4531.282051,4177.435897,4442.564102,4226.666666,4224.102564,4513.846153,4221.025641,4660.512820,4003.589743,4076.410256
176,4382.564102,4523.589743,4517.948717,4246.153846,4536.923076,4177.948717,4441.025641,4221.025641,4219.487179,4506.153846,4227.692307,4658.974358,3998.974359,4071.282051
177,4382.051282,4527.692307,4519.487179,4248.205128,4542.051282,4178.461538,4441.538461,4221.025641,4219.487179,4502.051282,4224.102564,4661.025641,3997.435898,4073.846153
178,4383.589743,4522.051282,4518.974358,4250.769230,4538.461538,4182.564102,4442.051282,4230.256410,4222.564102,4507.692307,4218.974358,4655.897435,4003.589743,4083.589743
179,4374.358974,4512.820512,4514.871794,4240.000000,4537.948717,4182.564102,4442.564102,4227.179487,4221.025641,4515.897435,4224.102564,4650.769230,4002.051282,4078.974358
180,4367.179487,4512.307692,4510.769230,4236.410256,4538.461538,4178.974358,4440.512820,4214.871794,4213.333333,4510.256410,4217.435897,4650.769230,3987.692308,4069.743589
181,4370.769230,4518.974358,4511.282051,4245.641025,4535.897435,4176.923076,4436.410256,4211.282051,4207.692307,4496.410256,4206.666666,4650.769230,3977.435898,4070.769230
182,4377.948717,4525.641025,4520.000000,4254.871794,4536.923076,4178.974358,4438.461538,4217.948717,4210.769230,4498.974358,4218.974358,4656.410256,3985.641026,4077.948717
183,4385.128205,4529.230769,4530.769230,4255.897435,4543.589743,4180.512820,4445.128205,4226.666666,4218.461538,4512.307692,4234.871794,4670.769230,4001.025641,4089.743589
184,4388.717948,4530.769230,4534.871794,4253.846153,4544.102564,4185.128205,4449.743589,4234.871794,4226.666666,4523.076923,4240.000000,4675.897435,4011.794871,4096.923076
185,4383.076923,4527.692307,4531.282051,4250.769230,4535.897435,4189.230769,4448.205128,4233.333333,4224.615384,4524.102564,4239.487179,4669.743589,4006.666666,4088.717948
186,4368.205128,4515.384615,4521.025641,4240.512820,4534.871794,4184.615384,4444.615384,4217.948717,4208.205128,4509.743589,4218.461538,4658.461538,3988.205129,4074.358974
187,4359.487179,4504.615384,4512.307692,4232.307692,4538.974358,4178.974358,4441.538461,4206.153846,4201.025641,4494.358974,4199.487179,4649.743589,3982.051283,4069.743589
188,4364.615384,4510.256410,4515.384615,4237.435897,4538.461538,4180.512820,4443.076923,4213.333333,4209.743589,4499.487179,4214.871794,4653.846153,3991.282052,4071.794871
189,4365.128205,4518.974358,4519.487179,4247.179487,4535.384615,4183.076923,4444.102564,4218.461538,4211.794871,4508.205128,4229.230769,4659.487179,3991.794872,4072.307692
190,4356.923076,4513.846153,4514.358974,4244.615384,4537.435897,4176.923076,4437.948717,4207.692307,4205.641025,4501.025641,4220.512820,4652.820512,3983.076924,4063.589743
191,4354.358974,4504.615384,4507.179487,4234.358974,4536.923076,4168.717948,4427.692307,4197.435897,4196.923076,4492.820512,4206.153846,4643.076923,3973.333334,4052.307692
192,4358.461538,4505.128205,4507.179487,4233.846153,4530.769230,4167.179487,4423.589743,4197.948717,4190.256410,4487.692307,4193.846153,4642.051282,3966.666667,4050.769230
193,4364.102564,4516.410256,4513.846153,4244.102564,4529.743589,4172.820512,4432.307692,4205.641025,4200.512820,4493.333333,4193.846153,4646.153846,3974.358975,4058.461538
194,4369.743589,4523.076923,4517.435897,4251.282051,4534.358974,4176.923076,4436.410256,4206.153846,4210.256410,4502.051282,4208.205128,4647.179487,3984.615385,4063.076923
195,4367.179487,4514.871794,4512.820512,4245.128205,4541.538461,4178.974358,4430.256410,4201.025641,4203.589743,4502.564102,4212.820512,4642.564102,3978.461539,4063.076923
196,4366.153846,4514.871794,4514.871794,4244.102564,4547.692307,4181.025641,4436.410256,4207.692307,4205.641025,4508.205128,4216.923076,4644.102564,3978.461539,4069.743589
197,4372.820512,4527.179487,4519.487179,4253.333333,4546.153846,4180.000000,4446.666666,4214.871794,4211.282051,4515.384615,4218.461538,4651.794871,3992.820513,4077.435897
198,4369.230769,4524.615384,4515.384615,4247.179487,4541.538461,4178.974358,4437.435897,4205.641025,4201.025641,4508.205128,4202.051282,4649.230769,3992.307693,4065.128205
199,4357.948717,4515.897435,4506.666666,4234.358974,4540.512820,4178.974358,4426.666666,4200.000000,4197.435897,4499.487179,4201.025641,4641.538461,3979.487180,4050.769230
200,4358.461538,4521.025641,4507.692307,4233.846153,4536.410256,4175.384615,4430.769230,4204.615384,4204.615384,4503.589743,4218.461538,4644.102564,3976.410257,4054.358974
201,4367.179487,4521.538461,4512.820512,4234.871794,4531.794871,4168.717948,4431.794871,4203.076923,4200.000000,4505.128205,4217.435897,4646.153846,3977.948718,4061.538461
202,4368.717948,4510.256410,4508.717948,4230.769230,4536.410256,4167.692307,4426.153846,4198.974358,4191.282051,4501.025641,4208.717948,4640.000000,3974.358975,4055.897435
203,4361.538461,4509.230769,4500.000000,4231.282051,4540.512820,4169.230769,4423.076923,4200.000000,4186.666666,4493.333333,4202.564102,4637.948717,3968.717949,4052.307692
204,4357.948717,4518.974358,4498.461538,4234.871794,4536.410256,4164.615384,4417.435897,4194.358974,4182.051282,4477.948717,4185.128205,4636.410256,3962.051283,4051.282051
205,4361.538461,4524.615384,4503.589743,4237.948717,4534.358974,4160.512820,4415.897435,4190.769230,4183.589743,4475.897435,4180.000000,4633.333333,3958.461539,4045.641025
206,4368.205128,4527.179487,4509.230769,4247.179487,4538.461538,4165.128205,4424.615384,4198.461538,4191.282051,4491.282051,4202.564102,4638.461538,3966.153847,4046.666666
207,4368.717948,4524.102564,4509.743589,4249.743589,4538.461538,4172.307692,4426.666666,4200.512820,4193.333333,4496.923076,4206.153846,4641.538461,3972.820513,4051.794871
208,4363.589743,4516.923076,4505.641025,4236.410256,4533.333333,4170.769230,4420.000000,4190.769230,4186.153846,4488.205128,4190.769230,4632.820512,3968.717949,4047.692307
209,4364.615384,4512.307692,4505.641025,4230.769230,4530.256410,4164.615384,4422.564102,4186.153846,4181.025641,4487.692307,4189.230769,4626.153846,3965.128206,4045.128205
210,4368.205128,4511.794871,4509.230769,4232.307692,4529.743589,4165.128205,4430.256410,4193.333333,4189.743589,4489.743589,4193.333333,4627.692307,3969.230770,4048.717948
211,4362.564102,4507.692307,4506.153846,4222.564102,4528.717948,4166.666666,4427.179487,4196.923076,4196.410256,4485.128205,4188.205128,4626.153846,3968.205129,4047.179487
212,4351.282051,4495.384615,4498.974358,4212.820512,4524.615384,4160.512820,4423.076923,4196.923076,4190.256410,4487.179487,4186.666666,4621.025641,3962.564103,4038.974358
213,4353.333333,4491.282051,4502.051282,4222.051282,4525.641025,4156.923076,4427.179487,4203.589743,4192.820512,4491.282051,4195.384615,4620.512820,3966.666667,4037.948717
214,4367.179487,4504.102564,4516.410256,4234.871794,4529.743589,4167.179487,4431.794871,4208.205128,4198.974358,4489.230769,4201.025641,4627.179487,3975.897436,4046.666666
215,4369.230769,4512.307692,4517.435897,4233.333333,4527.692307,4173.333333,4428.717948,4204.102564,4189.743589,4488.717948,4200.000000,4627.692307,3974.871795,4051.282051
216,4363.589743,4510.769230,4506.666666,4229.230769,4526.666666,4166.153846,4420.512820,4195.384615,4180.512820,4488.717948,4192.307692,4621.538461,3969.230770,4044.615384
217,4369.743589,4514.871794,4511.282051,4233.333333,4532.820512,4167.692307,4422.564102,4191.282051,4182.564102,4484.102564,4190.256410,4626.666666,3969.230770,4042.564102
218,4372.307692,4514.358974,4514.871794,4235.384615,4536.410256,4173.846153,4424.615384,4186.666666,4179.487179,4477.435897,4192.307692,4630.769230,3964.102565,4045.641025
219,4361.025641,4503.589743,4501.538461,4227.692307,4535.384615,4165.128205,4413.846153,4178.461538,4171.282051,4477.435897,4185.641025,4624.615384,3956.410257,4042.051282
220,4361.025641,4506.666666,4501.538461,4226.153846,4538.461538,4160.000000,4414.358974,4186.153846,4182.564102,4489.230769,4193.333333,4631.794871,3970.769231,4043.589743
221,4375.897435,4520.512820,4520.000000,4240.512820,4540.512820,4169.743589,4430.769230,4207.692307,4206.153846,4506.153846,4221.538461,4652.307692,3993.846154,4056.923076
222,4376.923076,4521.025641,4517.435897,4237.948717,4535.897435,4170.769230,4432.307692,4210.769230,4207.179487,4506.666666,4225.128205,4653.846153,3992.820513,4059.487179
223,4365.128205,4513.333333,4498.461538,4219.487179,4526.666666,4161.025641,4424.102564,4196.923076,4188.717948,4485.641025,4195.384615,4637.948717,3974.871795,4046.153846
224,4359.487179,4506.666666,4495.897435,4218.461538,4519.487179,4161.538461,4425.641025,4193.846153,4181.025641,4473.333333,4177.948717,4632.307692,3970.769231,4036.923076
225,4360.000000,4497.435897,4500.512820,4225.641025,4522.564102,4167.692307,4427.179487,4191.794871,4178.974358,4476.410256,4182.564102,4633.333333,3968.205129,4036.923076
226,4362.564102,4500.512820,4501.025641,4223.076923,4524.615384,4167.692307,4426.153846,4186.666666,4175.897435,4480.000000,4189.743589,4632.820512,3956.410257,4037.948717
227,4364.615384,4505.641025,4503.076923,4218.974358,4518.461538,4163.589743,4425.641025,4192.307692,4181.538461,4478.974358,4194.358974,4633.846153,3957.948718,4034.358974
228,4362.051282,4498.461538,4504.102564,4218.974358,4522.564102,4162.051282,4420.512820,4192.820512,4186.153846,4482.051282,4188.205128,4634.871794,3971.282052,4029.743589
229,4362.564102,4500.000000,4504.102564,4222.051282,4534.871794,4163.076923,4414.871794,4184.615384,4177.948717,4484.615384,4181.538461,4637.435897,3976.410257,4034.358974
230,4367.179487,4515.897435,4507.179487,4231.282051,4534.871794,4159.487179,4412.820512,4181.538461,4172.307692,4474.358974,4190.769230,4640.000000,3975.384616,4042.051282
231,4366.153846,4522.051282,4503.589743,4233.333333,4533.333333,4157.435897,4409.743589,4175.384615,4170.769230,4458.974358,4192.820512,4636.410256,3966.153847,4038.461538
232,4361.538461,4518.974358,4499.487179,4228.205128,4537.435897,4160.000000,4406.153846,4166.666666,4167.179487,4455.384615,4180.512820,4632.307692,3955.897436,4027.179487
233,4371.794871,4523.589743,4507.692307,4237.435897,4538.461538,4161.538461,4408.717948,4172.307692,4172.307692,4471.282051,4185.128205,4638.974358,3965.641026,4031.794871
234,4387.179487,4534.871794,4517.948717,4249.230769,4538.461538,4163.076923,4417.948717,4184.615384,4188.205128,4485.128205,4200.512820,4648.717948,3987.179488,4049.743589
235,4386.666666,4538.974358,4520.512820,4248.205128,4542.051282,4170.256410,4425.641025,4187.692307,4191.794871,4485.641025,4200.000000,4652.820512,3989.743590,4054.871794
236,4382.564102,4531.282051,4520.000000,4239.487179,4537.948717,4173.846153,4426.153846,4186.666666,4187.179487,4486.666666,4196.923076,4650.769230,3981.025642,4047.692307
237,4382.051282,4520.512820,4518.461538,4235.897435,4533.333333,4166.666666,4421.025641,4186.153846,4188.205128,4486.153846,4196.923076,4645.128205,3976.923077,4040.000000
238,4374.871794,4516.923076,4513.333333,4235.384615,4537.435897,4160.512820,4415.897435,4183.076923,4183.076923,4482.051282,4194.871794,4638.461538,3976.410257,4033.846153
239,4373.333333,4524.102564,4513.333333,4233.333333,4537.435897,4166.666666,4418.974358,4187.692307,4181.538461,4481.538461,4200.000000,4638.974358,3984.102565,4036.410256
240,4383.589743,4533.333333,4521.025641,4233.846153,4538.974358,4175.897435,4436.410256,4208.205128,4196.923076,4492.307692,4208.717948,4648.717948,3989.743590,4050.769230
241,4384.102564,4525.641025,4520.512820,4234.871794,4544.102564,4177.948717,4445.128205,4216.923076,4205.128205,4495.897435,4208.717948,4649.743589,3982.564103,4050.256410
242,4379.487179,4518.974358,4515.384615,4232.820512,4540.000000,4175.384615,4434.358974,4206.666666,4195.897435,4486.153846,4210.256410,4642.564102,3978.461539,4040.000000
243,4382.051282,4521.025641,4513.333333,4229.743589,4538.461538,4171.794871,4426.153846,4198.461538,4186.666666,4481.538461,4213.333333,4639.487179,3983.076924,4041.538461
244,4376.410256,4513.846153,4509.743589,4229.743589,4549.743589,4166.153846,4421.538461,4190.769230,4178.974358,4477.435897,4200.000000,4634.871794,3983.076924,4038.974358
245,4370.769230,4509.230769,4507.179487,4231.794871,4551.794871,4162.051282,4417.435897,4182.564102,4173.846153,4471.282051,4191.282051,4631.282051,3981.025642,4031.282051
246,4376.410256,4523.589743,4513.846153,4232.820512,4539.487179,4162.051282,4421.538461,4187.179487,4182.051282,4475.384615,4200.512820,4640.512820,3982.051283,4034.871794
247,4378.461538,4532.820512,4518.974358,4234.358974,4535.384615,4165.128205,4435.384615,4203.589743,4191.282051,4486.666666,4203.589743,4651.794871,3977.948718,4036.410256
248,4371.794871,4520.512820,4517.435897,4233.846153,4539.487179,4171.794871,4438.974358,4205.641025,4192.307692,4486.666666,4191.282051,4649.230769,3972.307693,4024.615384
249,4368.205128,4510.256410,4515.384615,4229.743589,4541.538461,4171.282051,4430.769230,4192.307692,4185.641025,4472.820512,4177.948717,4640.000000,3968.205129,4017.435897
250,4373.846153,4513.333333,4517.948717,4230.769230,4538.461538,4169.230769,4430.769230,4187.179487,4180.512820,4470.256410,4187.692307,4640.512820,3958.974359,4029.230769
251,4378.461538,4515.384615,4523.589743,4235.897435,4532.820512,4170.769230,4431.794871,4192.307692,4184.102564,4479.487179,4203.589743,4648.205128,3960.512821,4043.076923
252,4377.948717,4514.358974,4528.717948,4234.871794,4531.794871,4167.692307,4427.692307,4194.871794,4188.717948,4485.128205,4195.384615,4652.307692,3980.000000,4043.076923
253,4382.051282,4515.384615,4535.897435,4231.794871,4537.948717,4169.230769,4432.820512,4197.435897,4191.794871,4490.769230,4195.897435,4656.923076,3990.769231,4040.512820
254,4386.666666,4515.897435,4542.051282,4234.871794,4539.487179,4173.846153,4445.128205,4203.076923,4195.897435,4501.538461,4217.435897,4665.641025,3988.717949,4045.641025
255,4377.435897,4507.692307,4534.358974,4234.358974,4534.871794,4167.692307,4438.974358,4201.538461,4192.820512,4500.512820,4213.333333,4665.641025,3983.076924,4043.589743
256,4371.282051,4506.153846,4525.128205,4231.282051,4536.410256,4162.564102,4426.666666,4197.435897,4190.769230,4493.333333,4197.948717,4658.461538,3978.461539,4036.923076
257,4384.615384,4517.435897,4529.743589,4240.512820,4545.128205,4171.282051,4431.282051,4202.564102,4196.410256,4497.948717,4208.717948,4656.410256,3981.538462,4042.051282
258,4392.307692,4525.641025,4531.282051,4250.256410,4553.333333,4175.897435,4433.846153,4202.564102,4194.871794,4497.435897,4208.205128,4653.333333,3988.717949,4048.717948
259,4383.589743,4530.769230,4520.000000,4248.717948,4556.410256,4171.794871,4427.692307,4195.384615,4190.769230,4489.743589,4191.282051,4644.102564,3987.692308,4038.974358
