,AF3,F7,F3,FC5,T7,P7,O1,O2,P8,T8,FC6,F4,F8,AF4
0,4330.769230,4545.641025,4523.076923,4300.000000,4475.384615,4226.153846,4494.358974,4264.615384,4272.820512,4512.307692,4225.128205,4585.128205,3970.769231,4069.743589
1,4338.461538,4548.717948,4525.641025,4308.717948,4476.923076,4227.179487,4498.461538,4270.769230,4282.051282,4514.871794,4230.256410,4586.153846,3977.435898,4079.487179
2,4340.000000,4542.051282,4523.589743,4307.179487,4470.769230,4223.589743,4492.820512,4274.358974,4284.615384,4518.974358,4219.487179,4587.179487,3974.358975,4077.435897
3,4334.871794,4537.435897,4523.076923,4303.076923,4472.307692,4224.102564,4489.743589,4274.871794,4280.512820,4519.487179,4212.307692,4589.743589,3966.153847,4069.230769
4,4330.769230,4540.512820,4524.102564,4306.666666,4477.435897,4224.615384,4491.794871,4278.461538,4282.564102,4516.410256,4215.384615,4588.717948,3964.102565,4068.717948
5,4333.333333,4547.179487,4524.615384,4313.846153,4476.923076,4224.102564,4491.282051,4280.512820,4286.666666,4518.974358,4211.282051,4585.128205,3970.769231,4072.820512
6,4337.435897,4549.743589,4525.641025,4313.333333,4472.820512,4224.102564,4490.256410,4276.923076,4287.692307,4523.076923,4203.589743,4585.641025,3973.333334,4069.743589
7,4333.333333,4545.641025,4523.589743,4305.128205,4469.230769,4224.615384,4492.307692,4274.358974,4282.564102,4516.923076,4211.282051,4586.666666,3961.538462,4065.128205
8,4330.769230,4544.102564,4524.102564,4303.589743,4468.717948,4225.641025,4490.769230,4275.897435,4277.435897,4512.307692,4220.512820,4586.153846,3955.384616,4066.153846
9,4341.025641,4550.256410,4533.846153,4312.820512,4471.794871,4228.205128,4490.769230,4281.538461,4285.641025,4520.512820,4222.051282,4595.897435,3969.743590,4072.307692
10,4347.179487,4555.897435,4539.487179,4317.435897,4472.307692,4227.692307,4492.307692,4286.666666,4295.897435,4530.256410,4226.153846,4604.615384,3982.564103,4077.435897
11,4338.461538,4551.282051,4537.435897,4312.307692,4474.358974,4224.615384,4485.641025,4283.589743,4292.820512,4534.871794,4223.076923,4591.794871,3980.512821,4073.333333
12,4332.307692,4543.076923,4531.282051,4308.717948,4476.410256,4222.564102,4478.974358,4277.948717,4288.205128,4530.256410,4208.717948,4579.487179,3973.333334,4068.205128
13,4336.923076,4546.666666,4527.692307,4310.769230,4475.384615,4224.102564,4485.641025,4277.948717,4290.769230,4519.487179,4204.615384,4579.487179,3968.717949,4069.743589
14,4341.538461,4555.897435,4533.333333,4315.897435,4477.948717,4232.307692,4494.871794,4282.564102,4289.743589,4521.538461,4221.025641,4578.461538,3972.307693,4072.307692
15,4343.076923,4559.487179,4540.512820,4322.564102,4486.666666,4237.948717,4495.384615,4287.179487,4289.743589,4535.897435,4230.769230,4576.410256,3983.589744,4075.897435
16,4345.641025,4557.435897,4540.000000,4323.589743,4487.179487,4235.384615,4493.333333,4288.205128,4299.487179,4542.564102,4219.487179,4575.897435,3987.179488,4080.512820
17,4346.153846,4555.384615,4536.410256,4318.461538,4479.487179,4229.743589,4492.307692,4287.692307,4306.153846,4538.461538,4217.435897,4571.794871,3980.512821,4083.076923
18,4346.153846,4555.897435,4539.487179,4318.461538,4481.538461,4229.743589,4489.230769,4293.846153,4305.128205,4536.410256,4235.897435,4574.358974,3981.538462,4082.051282
19,4352.307692,4560.512820,4545.641025,4323.589743,4491.794871,4235.384615,4493.333333,4300.512820,4304.102564,4538.974358,4238.461538,4586.666666,3992.820513,4084.615384
20,4355.384615,4563.589743,4545.641025,4324.615384,4490.769230,4239.487179,4504.102564,4296.923076,4303.076923,4542.051282,4222.564102,4588.205128,3998.974359,4087.692307
21,4350.256410,4562.564102,4541.025641,4325.641025,4485.128205,4241.025641,4503.076923,4290.769230,4301.538461,4544.102564,4226.153846,4584.102564,3997.435898,4085.128205
22,4350.769230,4559.487179,4539.487179,4330.769230,4491.282051,4240.000000,4497.948717,4293.333333,4299.487179,4544.102564,4242.564102,4589.743589,3992.307693,4082.051282
23,4351.794871,4552.820512,4542.051282,4327.692307,4493.333333,4237.948717,4499.487179,4294.871794,4297.435897,4539.487179,4234.871794,4593.333333,3986.153847,4080.000000
24,4339.487179,4542.051282,4535.384615,4316.923076,4481.025641,4236.410256,4496.923076,4288.205128,4296.923076,4530.256410,4215.384615,4586.153846,3984.615385,4074.358974
25,4331.794871,4538.461538,4524.615384,4309.743589,4477.435897,4233.846153,4496.410256,4286.153846,4293.333333,4527.179487,4216.923076,4580.000000,3990.256411,4068.205128
26,4341.025641,4546.666666,4528.205128,4312.820512,4482.564102,4232.307692,4498.461538,4291.282051,4290.769230,4531.282051,4222.051282,4583.076923,3987.692308,4070.256410
27,4347.179487,4550.256410,4534.358974,4316.410256,4481.538461,4233.333333,4495.384615,4291.282051,4291.282051,4532.307692,4212.820512,4585.641025,3979.487180,4072.307692
28,4342.051282,4539.487179,4531.794871,4311.282051,4483.076923,4234.871794,4496.410256,4286.666666,4291.282051,4534.871794,4214.871794,4586.666666,3981.025642,4069.743589
29,4335.897435,4532.307692,4530.769230,4308.717948,4485.641025,4237.948717,4499.487179,4286.153846,4294.358974,4536.410256,4226.153846,4590.769230,3982.564103,4072.307692
30,4337.435897,4540.512820,4536.923076,4317.435897,4485.128205,4235.384615,4497.948717,4289.230769,4295.384615,4534.358974,4227.179487,4596.410256,3980.000000,4073.333333
31,4347.692307,4551.794871,4540.000000,4325.128205,4484.102564,4231.282051,4500.512820,4292.820512,4294.358974,4532.820512,4222.051282,4603.589743,3985.641026,4073.333333
32,4348.717948,4550.256410,4534.358974,4318.974358,4481.538461,4233.846153,4500.512820,4291.282051,4289.743589,4528.205128,4213.333333,4605.641025,3986.153847,4072.820512
33,4334.871794,4539.487179,4525.641025,4310.256410,4482.051282,4233.846153,4489.230769,4278.461538,4277.948717,4518.461538,4203.076923,4597.435897,3971.794872,4065.641025
34,4329.743589,4533.333333,4521.025641,4310.256410,4484.615384,4227.692307,4489.230769,4271.794871,4273.333333,4516.410256,4204.615384,4590.256410,3969.230770,4056.923076
35,4333.846153,4535.384615,4523.589743,4310.256410,4483.076923,4228.205128,4494.358974,4274.871794,4282.051282,4519.487179,4210.769230,4589.230769,3975.897436,4058.974358
36,4332.820512,4534.358974,4525.128205,4308.717948,4481.538461,4231.282051,4489.743589,4276.923076,4288.717948,4517.435897,4209.230769,4586.153846,3972.820513,4064.615384
37,4331.794871,4529.743589,4523.589743,4312.820512,4486.153846,4229.230769,4489.743589,4281.025641,4290.256410,4525.128205,4209.743589,4586.153846,3973.333334,4064.615384
38,4332.820512,4531.282051,4523.076923,4311.794871,4487.692307,4227.692307,4492.307692,4284.615384,4294.358974,4534.358974,4214.358974,4589.230769,3974.358975,4059.487179
39,4330.256410,4534.358974,4518.974358,4304.615384,4483.589743,4227.179487,4488.717948,4276.923076,4285.128205,4524.615384,4213.333333,4586.153846,3969.743590,4052.820512
40,4332.820512,4534.358974,4520.000000,4306.666666,4481.538461,4228.205128,4489.230769,4269.743589,4277.948717,4517.435897,4211.282051,4587.179487,3974.871795,4054.871794
41,4332.820512,4530.256410,4522.564102,4310.256410,4479.487179,4228.717948,4491.282051,4273.333333,4285.641025,4524.102564,4210.769230,4596.923076,3986.666667,4063.076923
42,4326.666666,4525.128205,4521.025641,4303.076923,4478.974358,4225.641025,4486.666666,4270.256410,4280.000000,4526.153846,4209.743589,4600.512820,3981.538462,4060.512820
43,4333.333333,4529.230769,4522.564102,4304.102564,4485.641025,4228.717948,4488.205128,4270.256410,4273.333333,4524.102564,4211.794871,4601.025641,3975.897436,4061.025641
44,4340.000000,4533.333333,4522.564102,4313.333333,4488.205128,4230.769230,4490.256410,4275.384615,4278.461538,4520.000000,4214.358974,4601.025641,3977.435898,4066.666666
45,4331.282051,4527.179487,4517.435897,4311.794871,4483.589743,4225.128205,4480.512820,4268.717948,4279.487179,4513.846153,4211.794871,4595.897435,3975.384616,4058.461538
46,4328.717948,4525.128205,4520.512820,4309.230769,4482.564102,4225.641025,4482.051282,4267.692307,4282.051282,4521.025641,4205.641025,4597.948717,3980.512821,4052.820512
47,4334.358974,4526.666666,4523.076923,4310.769230,4485.128205,4229.743589,4492.307692,4276.410256,4286.153846,4530.769230,4208.205128,4603.589743,3982.051283,4057.435897
48,4327.692307,4518.974358,4509.743589,4306.153846,4481.538461,4225.641025,4486.666666,4268.205128,4275.897435,4520.512820,4205.641025,4597.435897,3967.179488,4048.205128
49,4320.000000,4515.384615,4503.076923,4303.589743,4478.461538,4215.897435,4474.871794,4255.897435,4266.153846,4508.717948,4187.692307,4594.358974,3958.461539,4037.948717
50,4328.717948,4525.641025,4513.846153,4311.282051,4477.435897,4213.846153,4474.358974,4264.615384,4277.948717,4515.384615,4189.743589,4601.538461,3973.846154,4047.692307
51,4335.897435,4527.179487,4515.897435,4312.307692,4473.846153,4214.871794,4472.307692,4268.205128,4282.051282,4524.102564,4209.743589,4604.102564,3984.102565,4053.846153
52,4330.256410,4516.410256,4506.666666,4302.051282,4472.307692,4211.794871,4467.692307,4255.897435,4271.282051,4520.512820,4209.230769,4597.435897,3972.820513,4043.076923
53,4327.692307,4515.384615,4507.179487,4297.948717,4471.794871,4209.743589,4474.358974,4254.358974,4269.230769,4515.897435,4197.948717,4596.923076,3966.153847,4038.974358
54,4330.256410,4523.589743,4510.769230,4303.076923,4472.307692,4212.820512,4480.512820,4260.512820,4272.820512,4513.333333,4204.615384,4597.435897,3971.794872,4043.589743
55,4330.256410,4525.128205,4507.179487,4305.128205,4475.897435,4216.923076,4478.461538,4262.564102,4270.769230,4514.358974,4210.769230,4590.256410,3974.871795,4043.076923
56,4332.307692,4528.205128,4506.153846,4306.666666,4480.000000,4220.512820,4482.051282,4264.102564,4272.307692,4519.487179,4203.076923,4587.179487,3970.769231,4040.512820
57,4334.871794,4531.794871,4508.717948,4305.641025,4480.512820,4222.564102,4490.769230,4267.179487,4280.000000,4516.410256,4200.000000,4589.230769,3975.384616,4042.564102
58,4328.717948,4520.512820,4506.153846,4298.974358,4476.410256,4220.000000,4489.743589,4268.205128,4284.102564,4510.769230,4202.051282,4589.230769,3981.025642,4042.051282
59,4325.641025,4512.307692,4503.589743,4298.974358,4473.333333,4218.461538,4486.153846,4272.307692,4287.692307,4521.025641,4206.666666,4591.282051,3975.384616,4038.974358
60,4330.256410,4524.102564,4506.666666,4305.128205,4475.384615,4222.564102,4490.769230,4274.358974,4291.282051,4532.307692,4211.794871,4596.923076,3972.307693,4041.025641
61,4329.743589,4528.205128,4506.666666,4305.128205,4478.974358,4225.128205,4492.307692,4270.769230,4287.692307,4531.794871,4205.641025,4596.410256,3977.948718,4040.000000
62,4328.717948,4520.000000,4506.153846,4304.615384,4481.538461,4225.128205,4489.743589,4273.333333,4289.743589,4533.333333,4205.128205,4596.923076,3987.179488,4039.487179
63,4338.461538,4525.128205,4514.871794,4310.769230,4485.641025,4228.205128,4492.820512,4281.538461,4300.512820,4534.871794,4218.974358,4606.153846,3996.923077,4049.743589
64,4348.205128,4532.307692,4524.102564,4310.256410,4485.641025,4230.769230,4495.897435,4281.025641,4298.974358,4530.769230,4227.179487,4605.641025,4004.102564,4061.538461
65,4349.230769,4530.256410,4523.076923,4303.076923,4480.512820,4226.666666,4494.871794,4274.871794,4287.692307,4530.256410,4222.051282,4594.871794,4001.025641,4060.000000
66,4342.564102,4523.589743,4514.871794,4300.000000,4480.512820,4223.076923,4491.282051,4269.743589,4284.615384,4522.051282,4214.871794,4584.102564,3993.846154,4049.743589
67,4334.871794,4518.974358,4507.692307,4303.076923,4483.589743,4224.615384,4484.615384,4267.692307,4286.666666,4517.948717,4214.358974,4575.897435,3990.769231,4043.076923
68,4332.820512,4523.076923,4506.666666,4306.666666,4481.538461,4222.564102,4477.948717,4267.179487,4285.128205,4526.153846,4218.974358,4572.820512,3989.230770,4041.538461
69,4331.282051,4520.512820,4506.666666,4300.000000,4474.871794,4214.358974,4474.358974,4262.051282,4277.435897,4518.461538,4212.820512,4568.717948,3982.051283,4040.000000
70,4326.666666,4510.769230,4502.564102,4292.307692,4467.692307,4213.333333,4472.307692,4258.974358,4268.205128,4506.153846,4198.461538,4558.461538,3972.820513,4035.384615
71,4327.692307,4515.384615,4505.128205,4297.948717,4468.717948,4219.487179,4478.974358,4269.230769,4274.358974,4512.307692,4193.846153,4559.487179,3980.512821,4037.435897
72,4335.897435,4524.615384,4511.794871,4306.666666,4476.410256,4224.615384,4487.692307,4276.923076,4290.256410,4523.076923,4197.948717,4568.205128,3993.846154,4046.153846
73,4336.923076,4516.410256,4509.743589,4301.025641,4476.410256,4222.564102,4482.564102,4269.230769,4289.230769,4524.615384,4206.153846,4563.076923,3994.871795,4047.179487
74,4331.794871,4506.153846,4505.128205,4291.794871,4470.256410,4215.897435,4478.974358,4266.153846,4282.051282,4525.641025,4221.538461,4558.461538,3998.974359,4042.564102
75,4325.641025,4502.564102,4501.025641,4289.743589,4468.717948,4216.410256,4483.589743,4271.282051,4286.666666,4520.000000,4219.487179,4560.000000,3997.435898,4036.923076
76,4316.923076,4500.512820,4493.846153,4283.076923,4465.641025,4220.512820,4482.051282,4267.692307,4284.102564,4505.128205,4196.923076,4550.256410,3974.871795,4024.102564
77,4307.179487,4501.025641,4486.153846,4273.846153,4458.461538,4215.384615,4472.820512,4253.333333,4265.641025,4496.923076,4182.051282,4534.871794,3953.333334,4007.692307
78,4300.000000,4495.897435,4484.102564,4271.282051,4456.923076,4206.153846,4464.102564,4238.974358,4255.897435,4490.769230,4165.128205,4529.230769,3950.256411,4002.564102
79,4305.641025,4488.717948,4487.179487,4273.333333,4457.948717,4206.666666,4462.051282,4237.435897,4261.025641,4490.769230,4162.051282,4534.358974,3960.512821,4011.282051
80,4317.948717,4493.846153,4491.282051,4277.435897,4455.384615,4208.717948,4464.615384,4245.128205,4265.128205,4498.461538,4189.743589,4544.102564,3976.410257,4021.538461
81,4318.461538,4500.000000,4492.307692,4278.461538,4452.820512,4203.589743,4463.076923,4247.692307,4268.205128,4503.589743,4205.641025,4546.153846,3981.538462,4022.564102
82,4305.641025,4491.794871,4487.179487,4272.820512,4453.846153,4197.948717,4456.923076,4243.589743,4269.743589,4498.974358,4187.179487,4538.461538,3969.230770,4013.846153
83,4298.461538,4480.512820,4480.512820,4267.179487,4456.410256,4199.487179,4457.948717,4240.000000,4261.025641,4491.282051,4172.820512,4537.435897,3958.974359,4007.179487
84,4301.025641,4483.589743,4475.384615,4268.205128,4454.871794,4203.589743,4460.512820,4237.435897,4248.205128,4489.230769,4180.512820,4538.461538,3959.487180,4007.179487
85,4302.564102,4485.128205,4475.384615,4267.179487,4456.410256,4203.589743,4460.512820,4237.435897,4244.102564,4481.025641,4183.589743,4533.846153,3962.564103,4008.205128
86,4305.641025,4482.564102,4476.410256,4265.128205,4462.051282,4203.076923,4463.076923,4241.538461,4252.307692,4479.487179,4177.435897,4533.846153,3965.128206,4008.717948
87,4310.769230,4489.230769,4478.461538,4270.256410,4458.461538,4203.076923,4464.102564,4244.615384,4263.589743,4494.871794,4178.974358,4541.538461,3967.179488,4013.333333
88,4315.897435,4496.923076,4485.641025,4277.948717,4454.358974,4204.615384,4463.589743,4248.717948,4265.641025,4505.641025,4191.794871,4553.333333,3975.384616,4024.102564
89,4316.410256,4494.358974,4489.743589,4276.923076,4457.948717,4203.589743,4464.102564,4249.743589,4260.512820,4504.102564,4196.923076,4557.435897,3980.000000,4028.717948
90,4314.871794,4491.282051,4485.641025,4274.358974,4460.000000,4200.512820,4460.512820,4245.641025,4261.025641,4501.025641,4194.358974,4554.358974,3976.410257,4021.025641
91,4322.051282,4500.512820,4486.666666,4281.025641,4462.051282,4201.025641,4458.974358,4246.153846,4270.256410,4499.487179,4198.974358,4561.538461,3977.948718,4022.564102
92,4332.307692,4514.358974,4494.358974,4291.282051,4468.205128,4206.153846,4465.128205,4254.871794,4278.461538,4504.102564,4202.564102,4575.384615,3988.717949,4039.487179
93,4330.256410,4511.282051,4495.384615,4293.333333,4468.205128,4207.692307,4467.179487,4258.461538,4275.384615,4512.307692,4196.410256,4572.307692,3991.794872,4042.564102
94,4320.512820,4497.948717,4487.179487,4281.538461,4465.641025,4205.128205,4464.615384,4249.230769,4265.641025,4506.153846,4191.282051,4561.538461,3981.538462,4029.230769
95,4320.512820,4492.820512,4481.538461,4274.358974,4466.153846,4206.666666,4466.153846,4243.589743,4265.641025,4500.000000,4194.871794,4562.051282,3977.435898,4024.102564
96,4325.128205,4495.897435,4478.461538,4280.000000,4461.538461,4205.128205,4465.641025,4249.743589,4273.333333,4510.256410,4203.076923,4566.666666,3988.717949,4029.230769
97,4324.615384,4497.948717,4478.974358,4278.974358,4454.871794,4198.974358,4461.025641,4254.358974,4273.846153,4514.358974,4206.666666,4568.205128,3997.435898,4034.358974
98,4325.128205,4500.512820,4480.000000,4274.871794,4457.435897,4199.487179,4460.000000,4250.256410,4271.794871,4509.743589,4200.000000,4567.179487,3992.307693,4036.923076
99,4326.666666,4500.512820,4477.948717,4281.025641,4464.615384,4203.589743,4463.076923,4246.153846,4269.230769,4506.153846,4192.820512,4563.589743,3987.692308,4031.794871
100,4323.076923,4498.461538,4476.410256,4282.051282,4465.128205,4202.564102,4466.153846,4246.153846,4261.538461,4502.564102,4191.794871,4564.615384,3987.692308,4024.615384
101,4317.948717,4496.923076,4476.410256,4272.307692,4465.128205,4202.564102,4463.589743,4241.025641,4257.948717,4498.461538,4195.384615,4567.692307,3982.564103,4024.615384
102,4316.923076,4489.743589,4473.333333,4268.717948,4466.153846,4205.641025,4456.923076,4235.897435,4254.871794,4494.871794,4192.307692,4563.076923,3977.435898,4023.589743
103,4318.461538,4485.128205,4476.923076,4275.384615,4463.589743,4204.615384,4463.076923,4241.538461,4257.948717,4495.897435,4186.666666,4562.564102,3983.589744,4022.564102
104,4322.564102,4492.820512,4484.615384,4281.538461,4465.128205,4206.153846,4477.948717,4250.769230,4274.871794,4509.230769,4198.974358,4573.846153,3994.871795,4029.743589
105,4322.564102,4496.923076,4483.076923,4280.000000,4465.641025,4208.205128,4475.897435,4251.794871,4283.076923,4520.512820,4214.871794,4576.410256,3991.282052,4031.282051
106,4312.820512,4493.846153,4472.307692,4269.743589,4460.512820,4203.076923,4461.025641,4242.564102,4269.230769,4506.153846,4204.102564,4567.692307,3970.769231,4022.051282
107,4312.820512,4496.923076,4474.358974,4268.717948,4463.589743,4202.564102,4463.076923,4238.974358,4261.025641,4490.769230,4183.589743,4568.717948,3963.076924,4020.000000
108,4323.076923,4506.666666,4485.128205,4281.538461,4472.307692,4207.692307,4471.794871,4244.102564,4266.666666,4495.897435,4178.974358,4582.051282,3967.692308,4030.256410
109,4320.512820,4508.205128,4481.538461,4283.589743,4472.307692,4206.666666,4467.179487,4245.641025,4267.692307,4500.512820,4174.358974,4588.205128,3963.076924,4035.384615
110,4314.358974,4504.102564,4475.897435,4273.846153,4468.205128,4205.128205,4464.615384,4244.102564,4265.641025,4498.974358,4167.692307,4586.153846,3958.461539,4034.358974
111,4325.641025,4509.743589,4485.641025,4277.948717,4469.743589,4207.179487,4472.307692,4248.205128,4270.256410,4507.179487,4182.051282,4587.179487,3963.076924,4042.051282
112,4333.846153,4515.384615,4493.846153,4285.641025,4468.717948,4205.128205,4475.384615,4253.846153,4273.846153,4512.820512,4194.358974,4587.692307,3959.487180,4049.230769
113,4326.666666,4502.051282,4489.230769,4276.923076,4463.076923,4197.948717,4468.205128,4249.230769,4268.717948,4502.564102,4183.589743,4578.974358,3948.205129,4043.589743
114,4326.153846,4496.410256,4487.692307,4272.307692,4462.564102,4193.846153,4463.589743,4242.564102,4263.589743,4495.384615,4176.410256,4571.794871,3945.641026,4039.487179
115,4328.205128,4505.641025,4484.102564,4276.410256,4462.564102,4193.333333,4460.512820,4236.410256,4255.897435,4491.794871,4175.384615,4567.692307,3941.538462,4040.512820
116,4317.948717,4500.512820,4474.358974,4268.205128,4460.512820,4193.846153,4454.871794,4228.717948,4245.128205,4483.589743,4170.256410,4563.076923,3934.871795,4036.410256
117,4323.589743,4494.871794,4481.025641,4267.179487,4463.589743,4202.564102,4464.615384,4237.948717,4256.410256,4495.384615,4174.358974,4571.282051,3945.641026,4041.538461
118,4344.102564,4508.717948,4495.384615,4285.128205,4469.743589,4213.846153,4482.051282,4261.538461,4282.051282,4518.974358,4183.076923,4583.076923,3960.512821,4056.410256
119,4341.025641,4512.820512,4494.871794,4290.769230,4468.205128,4211.282051,4483.589743,4265.128205,4281.025641,4510.256410,4186.666666,4580.000000,3957.435898,4058.461538
120,4324.102564,4501.025641,4487.692307,4280.000000,4458.461538,4200.512820,4472.820512,4248.205128,4257.435897,4481.025641,4190.256410,4568.717948,3945.641026,4045.641025
121,4326.666666,4496.923076,4487.692307,4274.358974,4456.410256,4197.948717,4466.153846,4245.641025,4254.358974,4482.564102,4189.230769,4559.487179,3945.641026,4040.000000
122,4332.307692,4500.000000,4488.717948,4275.384615,4462.051282,4195.897435,4465.641025,4251.282051,4271.794871,4505.641025,4184.615384,4557.948717,3951.794872,4043.589743
123,4326.666666,4499.487179,4488.717948,4276.923076,4463.076923,4197.435897,4468.205128,4246.153846,4276.923076,4509.743589,4188.717948,4560.000000,3949.230770,4041.025641
124,4326.153846,4497.948717,4488.717948,4280.512820,4461.025641,4206.666666,4472.820512,4244.615384,4268.205128,4500.000000,4194.358974,4558.974358,3945.128206,4038.974358
125,4334.358974,4498.461538,4490.256410,4285.128205,4463.076923,4205.641025,4473.333333,4253.333333,4266.153846,4499.487179,4191.794871,4561.538461,3954.871795,4050.769230
126,4342.051282,4505.128205,4495.384615,4289.230769,4468.717948,4196.923076,4471.794871,4256.923076,4273.333333,4506.153846,4184.615384,4569.743589,3968.205129,4059.487179
127,4338.461538,4512.307692,4490.769230,4285.641025,4466.666666,4196.923076,4464.615384,4251.794871,4263.076923,4498.461538,4177.948717,4564.102564,3959.487180,4048.205128
128,4323.076923,4505.128205,4475.897435,4276.410256,4457.948717,4195.897435,4455.384615,4243.589743,4246.666666,4484.615384,4178.974358,4548.717948,3938.974359,4034.871794
129,4317.948717,4494.871794,4475.897435,4276.410256,4457.435897,4188.717948,4457.435897,4240.512820,4253.333333,4489.743589,4181.025641,4549.230769,3940.000000,4032.820512
130,4326.666666,4495.897435,4488.717948,4281.538461,4461.538461,4189.743589,4459.487179,4244.615384,4266.153846,4496.410256,4180.000000,4555.897435,3955.384616,4039.487179
131,4332.820512,4504.615384,4490.769230,4283.076923,4458.974358,4195.897435,4456.923076,4242.564102,4260.000000,4488.717948,4184.615384,4554.358974,3953.846154,4045.641025
132,4332.820512,4510.256410,4487.179487,4282.564102,4454.358974,4190.256410,4457.435897,4238.974358,4251.794871,4488.205128,4194.871794,4552.307692,3949.230770,4043.589743
133,4334.358974,4507.179487,4491.282051,4281.538461,4453.846153,4180.000000,4457.948717,4249.230769,4257.948717,4502.051282,4202.051282,4557.948717,3962.051283,4047.692307
134,4339.487179,4504.102564,4492.307692,4281.025641,4451.282051,4185.128205,4459.487179,4257.948717,4264.615384,4508.205128,4195.384615,4565.128205,3971.794872,4056.923076
135,4338.974358,4500.000000,4488.205128,4280.512820,4448.717948,4189.743589,4460.000000,4250.256410,4256.410256,4502.564102,4183.589743,4566.153846,3964.615385,4052.820512
136,4337.435897,4498.974358,4489.230769,4281.538461,4452.820512,4184.615384,4457.948717,4242.051282,4248.205128,4495.384615,4189.743589,4564.615384,3960.512821,4043.589743
137,4343.589743,4506.666666,4493.333333,4283.589743,4457.435897,4184.615384,4457.948717,4243.076923,4251.794871,4495.384615,4201.538461,4573.846153,3964.102565,4048.205128
138,4349.230769,4512.820512,4495.897435,4287.692307,4456.923076,4187.179487,4459.487179,4242.051282,4250.256410,4498.461538,4192.820512,4589.743589,3962.051283,4053.333333
139,4344.102564,4510.256410,4494.358974,4289.230769,4452.820512,4186.153846,4455.897435,4236.923076,4239.487179,4491.794871,4184.102564,4593.333333,3958.974359,4046.666666
140,4339.487179,4505.128205,4492.820512,4291.282051,4449.743589,4186.153846,4451.794871,4230.769230,4237.435897,4486.666666,4185.641025,4591.794871,3957.948718,4042.564102
141,4340.512820,4503.076923,4490.769230,4290.769230,4452.307692,4186.153846,4448.205128,4226.666666,4240.512820,4484.102564,4184.102564,4591.794871,3953.846154,4041.025641
142,4340.512820,4501.538461,4488.717948,4285.128205,4459.487179,4187.692307,4445.641025,4228.717948,4244.615384,4478.974358,4186.666666,4590.769230,3949.743590,4038.974358
143,4342.051282,4502.564102,4489.743589,4285.128205,4462.051282,4190.256410,4452.820512,4236.410256,4252.820512,4485.641025,4193.846153,4592.307692,3957.948718,4040.000000
144,4346.153846,4505.641025,4492.307692,4288.205128,4461.025641,4187.179487,4462.051282,4244.615384,4255.384615,4504.102564,4199.487179,4594.871794,3968.717949,4046.153846
145,4347.692307,4508.205128,4492.307692,4289.743589,4462.051282,4188.717948,4463.589743,4248.205128,4257.948717,4514.358974,4202.564102,4592.307692,3974.358975,4053.846153
146,4348.205128,4510.256410,4491.794871,4292.820512,4464.102564,4195.384615,4460.000000,4246.666666,4263.076923,4508.205128,4201.538461,4585.128205,3976.923077,4053.846153
147,4348.717948,4509.743589,4491.794871,4293.333333,4464.615384,4192.820512,4456.410256,4242.051282,4257.948717,4496.410256,4194.871794,4577.948717,3966.666667,4044.615384
148,4342.051282,4507.179487,4484.102564,4284.102564,4462.564102,4185.128205,4454.358974,4231.794871,4245.641025,4487.692307,4183.076923,4570.256410,3952.307693,4033.846153
149,4333.846153,4506.153846,4482.564102,4280.000000,4463.076923,4185.128205,4449.743589,4221.025641,4237.435897,4483.589743,4174.358974,4567.179487,3949.230770,4030.256410
150,4332.820512,4503.589743,4487.179487,4284.615384,4463.076923,4189.230769,4448.205128,4224.102564,4234.871794,4482.051282,4176.410256,4561.538461,3947.692308,4030.769230
151,4331.794871,4498.461538,4481.025641,4280.000000,4460.000000,4188.717948,4452.307692,4230.256410,4235.897435,4483.076923,4179.487179,4551.794871,3943.589744,4028.205128
152,4327.692307,4492.307692,4473.333333,4270.769230,4458.461538,4185.641025,4452.820512,4225.128205,4236.923076,4486.666666,4172.307692,4551.794871,3949.230770,4024.102564
153,4326.666666,4491.282051,4474.358974,4272.820512,4459.487179,4185.641025,4444.102564,4220.000000,4237.948717,4487.179487,4165.128205,4554.358974,3953.846154,4023.589743
154,4332.820512,4497.435897,4477.435897,4278.974358,4458.461538,4182.564102,4440.512820,4219.487179,4237.948717,4484.102564,4172.307692,4549.743589,3947.692308,4027.692307
155,4341.025641,4507.179487,4482.051282,4282.564102,4461.538461,4178.974358,4444.615384,4220.000000,4235.897435,4485.641025,4190.256410,4548.717948,3951.282052,4033.333333
156,4345.641025,4513.333333,4491.794871,4288.717948,4466.153846,4186.153846,4450.769230,4224.102564,4244.615384,4496.410256,4198.974358,4557.435897,3967.179488,4040.512820
157,4350.769230,4509.743589,4499.487179,4290.769230,4465.128205,4196.410256,4460.000000,4233.333333,4257.948717,4507.692307,4196.923076,4566.153846,3982.051283,4051.282051
158,4357.435897,4509.230769,4500.512820,4288.717948,4468.717948,4197.948717,4465.128205,4241.025641,4261.538461,4514.358974,4205.641025,4570.769230,3987.179488,4056.410256
159,4356.923076,4513.846153,4502.564102,4291.794871,4473.333333,4196.410256,4462.051282,4240.000000,4260.512820,4515.384615,4214.358974,4569.230769,3984.615385,4052.307692
160,4349.230769,4513.846153,4499.487179,4292.307692,4468.205128,4191.282051,4454.358974,4228.717948,4258.461538,4508.717948,4205.641025,4562.051282,3980.512821,4048.717948
161,4352.307692,4513.333333,4492.307692,4288.205128,4466.153846,4183.076923,4444.615384,4221.025641,4246.153846,4498.461538,4194.871794,4554.871794,3972.307693,4048.717948
162,4362.051282,4515.384615,4496.923076,4291.282051,4468.717948,4183.076923,4441.025641,4223.589743,4236.923076,4492.307692,4197.948717,4553.846153,3974.358975,4051.282051
163,4365.128205,4514.871794,4505.641025,4297.435897,4467.692307,4189.230769,4448.717948,4229.743589,4249.230769,4499.487179,4208.205128,4556.410256,3990.769231,4055.897435
164,4360.000000,4514.358974,4499.487179,4293.846153,4465.128205,4185.641025,4450.769230,4231.282051,4256.410256,4515.384615,4208.205128,4550.256410,3994.871795,4052.820512
165,4352.820512,4513.333333,4487.692307,4282.051282,4461.025641,4175.897435,4442.564102,4224.102564,4247.179487,4515.384615,4194.871794,4532.307692,3982.051283,4041.025641
166,4346.153846,4502.564102,4488.717948,4270.256410,4452.307692,4173.846153,4440.000000,4217.948717,4244.615384,4503.589743,4186.666666,4520.000000,3977.948718,4035.384615
167,4348.717948,4498.974358,4491.794871,4271.794871,4453.846153,4176.410256,4438.974358,4221.025641,4245.641025,4502.564102,4190.256410,4523.589743,3982.564103,4041.025641
168,4357.435897,4509.230769,4487.179487,4279.487179,4464.102564,4174.358974,4432.820512,4220.000000,4235.897435,4505.128205,4192.820512,4524.615384,3980.512821,4044.615384
169,4353.846153,4511.794871,4482.564102,4278.461538,4462.051282,4171.794871,4429.230769,4211.282051,4234.871794,4497.948717,4191.794871,4515.897435,3975.384616,4040.512820
170,4349.230769,4506.666666,4485.128205,4277.435897,4451.794871,4171.794871,4431.794871,4209.743589,4244.102564,4498.974358,4198.974358,4515.897435,3976.923077,4040.000000
171,4357.435897,4506.666666,4492.820512,4281.025641,4451.282051,4174.871794,4436.923076,4214.358974,4241.538461,4505.128205,4204.102564,4523.589743,3984.102565,4044.102564
172,4357.435897,4506.153846,4490.769230,4274.871794,4452.307692,4174.871794,4437.435897,4212.307692,4234.358974,4502.051282,4196.410256,4518.461538,3985.128206,4042.564102
173,4350.256410,4498.461538,4485.128205,4269.230769,4450.769230,4174.871794,4436.923076,4208.205128,4238.461538,4500.000000,4196.923076,4510.769230,3977.948718,4037.948717
174,4355.897435,4498.974358,4490.256410,4275.897435,4454.358974,4175.897435,4441.025641,4217.948717,4245.641025,4503.076923,4212.820512,4517.435897,3980.512821,4041.538461
175,4363.589743,4508.205128,4494.871794,4283.076923,4454.871794,4173.333333,4439.487179,4228.205128,4245.641025,4508.717948,4214.358974,4524.102564,3990.769231,4049.230769
176,4362.051282,4511.794871,4491.794871,4284.615384,4451.282051,4171.282051,4432.307692,4218.461538,4238.974358,4508.717948,4193.846153,4522.564102,3992.820513,4050.769230
177,4365.128205,4516.923076,4496.410256,4286.666666,4455.384615,4173.846153,4430.256410,4210.769230,4238.974358,4501.025641,4187.179487,4524.615384,3993.333334,4048.717948
178,4370.769230,4524.102564,4500.512820,4286.153846,4464.102564,4177.435897,4433.333333,4216.923076,4248.205128,4504.102564,4208.205128,4528.717948,3996.410257,4048.717948
179,4370.256410,4521.025641,4495.897435,4283.076923,4464.102564,4180.512820,4437.435897,4217.948717,4249.230769,4516.410256,4220.000000,4531.282051,3996.410257,4051.794871
180,4374.358974,4521.025641,4500.000000,4288.717948,4463.589743,4184.102564,4440.512820,4217.948717,4242.564102,4518.461538,4207.692307,4536.923076,3998.461539,4057.948717
181,4377.435897,4527.692307,4505.641025,4295.897435,4469.743589,4183.589743,4435.897435,4220.000000,4240.512820,4508.717948,4195.897435,4541.538461,3998.461539,4057.948717
182,4367.179487,4518.461538,4494.358974,4287.179487,4466.153846,4176.410256,4425.128205,4206.153846,4237.435897,4501.538461,4191.282051,4534.871794,3990.256411,4047.179487
183,4366.153846,4512.307692,4487.692307,4285.641025,4461.025641,4175.384615,4426.666666,4198.461538,4231.794871,4497.435897,4196.410256,4537.435897,3989.230770,4045.128205
184,4377.435897,4523.589743,4496.410256,4297.435897,4467.179487,4182.051282,4436.410256,4209.743589,4234.358974,4502.051282,4205.128205,4549.230769,4001.538461,4054.871794
185,4376.923076,4521.025641,4496.923076,4291.282051,4471.282051,4181.538461,4437.435897,4209.743589,4243.076923,4509.230769,4203.589743,4547.692307,4010.256410,4056.923076
186,4371.282051,4512.820512,4492.307692,4277.948717,4462.051282,4177.435897,4431.282051,4203.589743,4238.461538,4505.128205,4207.692307,4545.641025,4007.179487,4055.897435
187,4373.333333,4517.948717,4495.897435,4282.051282,4455.384615,4176.923076,4428.717948,4208.205128,4228.717948,4499.487179,4219.487179,4549.743589,4000.512820,4055.384615
188,4370.769230,4517.948717,4492.820512,4285.641025,4454.871794,4174.358974,4427.179487,4205.128205,4229.743589,4498.461538,4212.307692,4545.128205,3998.461539,4051.282051
189,4368.717948,4512.307692,4487.692307,4285.641025,4452.820512,4172.307692,4427.692307,4201.538461,4234.871794,4500.000000,4203.076923,4542.564102,4002.051282,4051.282051
190,4381.538461,4520.512820,4497.948717,4295.384615,4456.923076,4179.487179,4436.923076,4209.743589,4235.897435,4505.641025,4206.666666,4554.358974,4012.307692,4057.948717
191,4387.179487,4527.692307,4503.589743,4292.307692,4463.076923,4185.641025,4445.128205,4212.307692,4235.897435,4509.743589,4202.564102,4556.923076,4011.794871,4056.410256
192,4378.461538,4522.564102,4497.948717,4284.615384,4462.051282,4179.487179,4438.974358,4207.179487,4237.948717,4511.282051,4204.615384,4552.820512,4003.589743,4052.820512
193,4376.923076,4522.051282,4502.051282,4293.333333,4463.076923,4174.358974,4431.794871,4209.230769,4239.487179,4516.410256,4211.282051,4559.487179,4012.307692,4061.538461
194,4380.000000,4529.230769,4507.692307,4300.000000,4461.025641,4176.923076,4433.333333,4209.743589,4239.487179,4510.769230,4197.435897,4558.974358,4021.025641,4065.128205
195,4376.410256,4533.846153,4507.179487,4295.384615,4456.410256,4179.487179,4437.435897,4204.615384,4236.410256,4501.538461,4193.333333,4552.820512,4007.692307,4057.435897
196,4374.358974,4528.205128,4502.051282,4289.230769,4456.923076,4179.487179,4441.538461,4207.692307,4235.897435,4507.692307,4210.769230,4554.871794,4000.000000,4054.358974
197,4376.923076,4520.000000,4495.897435,4281.025641,4458.461538,4178.974358,4445.128205,4214.871794,4240.000000,4508.717948,4213.846153,4560.000000,4007.179487,4056.410256
198,4380.512820,4518.974358,4495.384615,4278.974358,4457.435897,4176.923076,4442.051282,4215.384615,4239.487179,4502.051282,4206.153846,4562.564102,4007.692307,4052.820512
199,4385.641025,4525.128205,4505.641025,4289.230769,4461.538461,4174.871794,4441.538461,4216.410256,4240.000000,4511.794871,4210.256410,4573.333333,4008.205128,4056.923076
200,4390.769230,4532.820512,4510.256410,4296.923076,4467.179487,4181.025641,4447.692307,4223.076923,4243.076923,4521.025641,4212.820512,4583.076923,4016.923076,4066.666666
201,4391.282051,4530.769230,4506.666666,4295.897435,4465.641025,4188.205128,4451.282051,4225.128205,4244.102564,4514.358974,4210.256410,4578.461538,4015.897435,4064.102564
202,4389.743589,4520.512820,4508.205128,4293.846153,4460.512820,4184.102564,4448.205128,4223.589743,4246.153846,4514.358974,4210.769230,4577.948717,4007.179487,4059.487179
203,4387.179487,4517.948717,4506.666666,4288.717948,4460.000000,4180.000000,4446.153846,4222.564102,4248.205128,4516.923076,4212.820512,4580.512820,4006.666666,4059.487179
204,4386.666666,4529.230769,4504.615384,4288.717948,4464.615384,4180.000000,4440.512820,4216.410256,4240.000000,4510.256410,4213.333333,4575.897435,4010.769230,4056.410256
205,4391.282051,4532.820512,4507.179487,4293.846153,4464.615384,4180.000000,4436.923076,4216.410256,4238.461538,4514.871794,4213.846153,4576.410256,4012.307692,4057.435897
206,4398.461538,4529.230769,4509.230769,4296.410256,4462.564102,4181.538461,4444.102564,4224.102564,4250.256410,4523.589743,4217.435897,4587.179487,4014.871794,4065.641025
207,4395.384615,4529.230769,4509.743589,4291.794871,4466.666666,4183.589743,4448.205128,4222.564102,4247.179487,4515.384615,4220.512820,4587.692307,4016.923076,4065.128205
208,4383.076923,4521.538461,4505.128205,4285.128205,4468.717948,4183.589743,4446.666666,4215.897435,4235.897435,4504.615384,4221.538461,4577.435897,4013.333333,4056.410256
209,4383.076923,4514.358974,4501.538461,4284.615384,4461.025641,4181.538461,4445.128205,4213.846153,4233.846153,4501.538461,4210.256410,4574.871794,4006.153846,4052.307692
210,4391.282051,4525.128205,4504.615384,4288.717948,4456.410256,4178.461538,4443.076923,4211.282051,4231.794871,4498.461538,4191.794871,4580.000000,4004.102564,4052.307692
211,4390.256410,4533.846153,4509.230769,4289.743589,4462.564102,4176.923076,4444.615384,4216.923076,4232.307692,4506.666666,4198.461538,4589.230769,4007.692307,4055.897435
212,4386.666666,4523.589743,4507.179487,4288.717948,4463.076923,4178.974358,4445.128205,4221.025641,4238.461538,4517.435897,4219.487179,4593.333333,4005.641025,4056.410256
213,4386.666666,4516.923076,4503.076923,4286.666666,4454.358974,4174.871794,4435.897435,4208.717948,4231.794871,4507.179487,4218.974358,4588.205128,3999.487180,4052.820512
214,4389.230769,4524.102564,4504.102564,4288.717948,4454.358974,4169.743589,4432.307692,4204.102564,4226.153846,4501.538461,4205.641025,4588.205128,4004.615384,4053.333333
215,4393.846153,4531.282051,4507.179487,4295.897435,4464.102564,4175.897435,4441.025641,4213.846153,4240.512820,4514.358974,4212.820512,4600.512820,4021.025641,4060.512820
216,4395.384615,4531.282051,4507.692307,4296.923076,4464.615384,4179.487179,4442.564102,4212.820512,4243.076923,4512.307692,4223.076923,4609.230769,4028.205128,4063.076923
217,4392.307692,4527.179487,4505.641025,4286.666666,4461.025641,4173.846153,4436.410256,4203.589743,4226.666666,4497.435897,4213.846153,4602.051282,4019.487179,4058.461538
218,4392.307692,4531.794871,4504.102564,4285.641025,4463.076923,4175.384615,4439.487179,4204.615384,4223.589743,4500.000000,4208.717948,4595.897435,4011.794871,4056.923076
219,4398.974358,4540.512820,4505.641025,4295.897435,4467.179487,4185.128205,4446.153846,4210.256410,4235.384615,4512.820512,4220.512820,4604.102564,4023.076923,4066.153846
220,4405.641025,4538.461538,4508.205128,4298.974358,4469.230769,4184.615384,4444.102564,4212.820512,4244.615384,4517.948717,4221.538461,4609.230769,4034.358974,4071.794871
221,4404.102564,4534.871794,4507.692307,4293.333333,4467.179487,4179.487179,4438.974358,4216.410256,4244.102564,4515.384615,4215.897435,4602.564102,4025.128205,4067.179487
222,4402.051282,4540.000000,4506.153846,4291.282051,4467.692307,4180.000000,4439.487179,4222.051282,4239.487179,4513.846153,4224.615384,4604.102564,4016.410256,4071.794871
223,4406.153846,4547.692307,4509.743589,4295.897435,4467.179487,4180.000000,4440.512820,4224.615384,4240.000000,4512.820512,4231.794871,4610.769230,4015.384615,4080.000000
224,4413.333333,4553.333333,4519.487179,4298.461538,4466.153846,4179.487179,4441.538461,4225.128205,4247.179487,4514.358974,4229.230769,4608.717948,4014.871794,4082.051282
225,4412.820512,4553.333333,4523.076923,4298.461538,4468.205128,4182.051282,4441.538461,4228.205128,4253.333333,4520.512820,4231.794871,4605.641025,4020.000000,4087.692307
226,4409.230769,4551.794871,4521.538461,4300.512820,4467.692307,4184.102564,4442.564102,4225.128205,4253.333333,4527.692307,4231.282051,4602.564102,4019.487179,4094.358974
227,4409.743589,4556.410256,4518.974358,4300.512820,4466.666666,4181.025641,4444.102564,4219.487179,4247.179487,4527.692307,4228.205128,4596.923076,4005.641025,4089.743589
228,4402.051282,4555.384615,4512.820512,4293.846153,4467.179487,4181.025641,4444.102564,4222.051282,4242.564102,4516.923076,4228.205128,4592.820512,3994.871795,4082.564102
229,4391.794871,4546.666666,4504.615384,4286.666666,4467.179487,4186.666666,4445.128205,4223.589743,4242.051282,4505.641025,4219.487179,4586.666666,3992.820513,4078.974358
230,4397.948717,4546.666666,4507.179487,4288.205128,4466.153846,4187.692307,4448.717948,4221.025641,4241.025641,4508.717948,4214.358974,4584.102564,3987.692308,4080.512820
231,4409.230769,4549.743589,4517.948717,4294.358974,4470.769230,4186.153846,4449.743589,4224.102564,4245.128205,4515.384615,4228.205128,4593.333333,3986.153847,4087.179487
232,4409.230769,4549.230769,4524.615384,4298.974358,4472.307692,4189.743589,4449.230769,4229.743589,4252.307692,4514.871794,4237.435897,4602.051282,3992.820513,4089.743589
233,4411.282051,4554.358974,4525.128205,4301.538461,4470.256410,4191.282051,4452.307692,4230.769230,4250.256410,4517.435897,4227.692307,4601.538461,3998.461539,4090.256410
234,4416.410256,4561.025641,4524.615384,4302.564102,4474.358974,4186.153846,4451.794871,4228.717948,4242.051282,4520.000000,4217.948717,4603.589743,3995.897436,4092.307692
235,4409.743589,4555.384615,4523.589743,4298.461538,4473.333333,4181.025641,4443.589743,4222.564102,4240.512820,4513.333333,4223.076923,4608.717948,3987.692308,4087.179487
236,4407.179487,4545.128205,4522.564102,4293.846153,4467.179487,4180.512820,4437.948717,4220.000000,4245.641025,4515.384615,4232.307692,4614.871794,3991.794872,4084.615384
237,4416.410256,4547.692307,4524.102564,4296.410256,4471.794871,4181.538461,4441.538461,4221.025641,4245.641025,4518.974358,4232.307692,4626.153846,4001.025641,4093.333333
238,4418.974358,4556.410256,4525.128205,4304.102564,4477.435897,4181.025641,4441.538461,4213.846153,4240.000000,4508.205128,4225.641025,4633.846153,3994.871795,4093.333333
239,4414.871794,4561.025641,4524.102564,4305.128205,4473.846153,4180.000000,4435.897435,4206.153846,4236.410256,4502.051282,4221.538461,4635.384615,3988.717949,4086.666666
240,4416.410256,4555.897435,4523.589743,4297.948717,4470.769230,4181.025641,4436.923076,4213.333333,4236.923076,4510.769230,4223.076923,4635.897435,3995.384616,4087.179487
241,4418.461538,4545.641025,4522.564102,4292.820512,4474.358974,4183.076923,4441.538461,4223.076923,4244.102564,4517.435897,4222.564102,4636.410256,3995.897436,4088.717948
242,4415.384615,4546.666666,4522.051282,4294.358974,4478.461538,4186.666666,4446.666666,4229.743589,4252.820512,4519.487179,4224.102564,4636.923076,3993.846154,4087.692307
243,4417.435897,4558.974358,4524.102564,4300.512820,4483.589743,4191.794871,4455.384615,4231.794871,4251.282051,4516.923076,4228.205128,4638.974358,4003.589743,4089.230769
244,4418.974358,4557.948717,4524.615384,4302.564102,4484.102564,4192.820512,4453.846153,4227.179487,4243.589743,4508.717948,4225.641025,4636.410256,4007.179487,4089.743589
245,4419.487179,4548.205128,4524.615384,4297.435897,4476.410256,4186.666666,4445.128205,4226.666666,4245.641025,4510.256410,4223.589743,4631.282051,4000.512820,4088.205128
246,4423.589743,4548.717948,4526.153846,4293.846153,4472.307692,4180.512820,4446.666666,4230.256410,4248.205128,4517.948717,4227.179487,4632.820512,4000.000000,4091.794871
247,4422.051282,4551.794871,4525.641025,4295.384615,4474.358974,4181.538461,4449.743589,4225.128205,4238.974358,4515.897435,4227.692307,4628.717948,3998.461539,4090.769230
248,4413.333333,4551.282051,4525.128205,4298.461538,4472.820512,4183.076923,4445.641025,4221.025641,4235.897435,4511.794871,4226.666666,4619.487179,3994.358975,4086.153846
249,4415.384615,4551.794871,4526.153846,4299.487179,4469.230769,4180.512820,4444.615384,4225.641025,4243.589743,4515.897435,4229.743589,4614.358974,3998.461539,4087.179487
250,4417.948717,4550.256410,4525.641025,4297.948717,4470.256410,4178.974358,4445.641025,4226.153846,4252.307692,4513.333333,4222.564102,4607.179487,3998.974359,4088.205128
251,4410.256410,4544.615384,4523.589743,4293.333333,4471.282051,4180.512820,4443.589743,4226.153846,4248.717948,4500.512820,4211.794871,4592.820512,3983.076924,4081.538461
252,4410.256410,4544.102564,4524.102564,4290.769230,4467.179487,4182.564102,4446.666666,4233.333333,4243.076923,4507.692307,4220.000000,4585.128205,3982.051283,4077.948717
253,4415.897435,4548.717948,4525.128205,4292.307692,4467.179487,4183.076923,4454.358974,4233.846153,4245.641025,4522.051282,4230.256410,4585.128205,4001.538461,4082.051282
254,4414.871794,4548.205128,4525.641025,4289.743589,4470.769230,4185.128205,4454.871794,4226.666666,4243.589743,4515.384615,4224.102564,4582.564102,4005.641025,4082.051282
255,4413.846153,4544.615384,4526.153846,4287.179487,4470.256410,4183.589743,4450.769230,4226.666666,4241.538461,4506.666666,4218.974358,4580.000000,3997.435898,4078.461538
256,4413.333333,4542.564102,4524.615384,4290.256410,4469.230769,4181.025641,4449.230769,4225.641025,4243.076923,4511.282051,4222.564102,4577.435897,3996.923077,4075.384615
257,4412.820512,4543.589743,4524.102564,4291.282051,4475.897435,4185.641025,4447.179487,4220.512820,4237.948717,4512.820512,4220.512820,4578.974358,3997.948718,4073.333333
258,4417.948717,4548.205128,4527.179487,4292.307692,4479.487179,4189.743589,4443.589743,4219.487179,4230.256410,4504.615384,4209.743589,4585.641025,3997.948718,4074.871794
259,4415.384615,4546.153846,4526.153846,4289.743589,4469.743589,4183.076923,4443.076923,4221.538461,4233.846153,4505.128205,4207.692307,4584.615384,3996.923077,4074.358974
