,AF3,F7,F3,FC5,T7,P7,O1,O2,P8,T8,FC6,F4,F8,AF4
0,4424.102564,4537.948717,4532.820512,4266.153846,4501.025641,4216.923076,4446.153846,4217.435897,4231.282051,4507.179487,4212.820512,4663.076923,4008.717948,4030.256410
1,4422.051282,4535.897435,4530.256410,4260.000000,4495.897435,4221.538461,4441.538461,4214.358974,4232.307692,4505.128205,4217.948717,4656.923076,4008.717948,4021.025641
2,4421.025641,4537.948717,4531.282051,4265.641025,4502.051282,4229.743589,4448.717948,4213.846153,4229.743589,4505.641025,4217.948717,4651.794871,4004.102564,4021.538461
3,4423.076923,4540.000000,4531.282051,4269.230769,4510.256410,4231.794871,4455.384615,4217.435897,4237.435897,4505.128205,4211.794871,4656.410256,4001.538461,4021.538461
4,4424.102564,4540.000000,4532.307692,4266.666666,4509.743589,4230.256410,4449.743589,4217.948717,4249.230769,4511.794871,4213.846153,4663.589743,4007.692307,4021.025641
5,4427.692307,4538.461538,4536.923076,4265.641025,4503.589743,4229.230769,4443.076923,4216.923076,4244.102564,4517.948717,4219.487179,4662.051282,4014.871794,4034.358974
6,4426.666666,4535.384615,4533.846153,4265.128205,4498.974358,4221.538461,4442.564102,4218.974358,4233.333333,4510.256410,4215.384615,4654.358974,4006.153846,4031.794871
7,4417.948717,4529.230769,4525.641025,4263.076923,4497.948717,4214.358974,4441.538461,4216.923076,4231.282051,4501.025641,4205.128205,4649.230769,3990.769231,4006.153846
8,4412.307692,4519.487179,4521.538461,4253.333333,4494.358974,4218.461538,4442.051282,4214.871794,4231.282051,4504.102564,4208.205128,4650.256410,3992.307693,4005.641025
9,4413.333333,4516.410256,4526.153846,4245.128205,4491.794871,4221.538461,4445.641025,4223.589743,4235.384615,4509.230769,4217.435897,4652.820512,3993.846154,4018.461538
10,4411.794871,4528.205128,4528.205128,4252.820512,4494.358974,4217.435897,4445.128205,4228.205128,4243.076923,4507.692307,4212.307692,4653.333333,3986.666667,4009.743589
11,4411.794871,4536.923076,4522.051282,4263.076923,4496.410256,4214.358974,4435.384615,4218.974358,4239.487179,4506.666666,4200.000000,4648.717948,3987.179488,4006.666666
12,4421.025641,4536.410256,4520.000000,4262.564102,4500.512820,4215.897435,4425.641025,4212.307692,4229.743589,4505.128205,4200.000000,4645.641025,3989.743590,4015.384615
13,4428.205128,4544.102564,4527.692307,4264.615384,4502.564102,4218.461538,4432.307692,4216.923076,4229.743589,4505.641025,4205.128205,4650.769230,3989.743590,4013.333333
14,4429.230769,4550.256410,4531.794871,4271.282051,4500.512820,4220.512820,4443.589743,4218.461538,4235.384615,4506.666666,4203.076923,4657.435897,3991.794872,4018.461538
15,4429.743589,4538.974358,4528.205128,4266.666666,4501.025641,4223.076923,4444.102564,4215.897435,4236.923076,4507.179487,4206.153846,4654.358974,3989.743590,4028.205128
16,4427.179487,4533.333333,4526.153846,4262.051282,4496.923076,4222.564102,4443.076923,4216.923076,4236.410256,4508.205128,4213.846153,4650.769230,3988.205129,4018.461538
17,4418.461538,4541.538461,4523.589743,4262.564102,4493.846153,4218.974358,4446.153846,4219.487179,4233.846153,4508.205128,4210.769230,4649.743589,3992.307693,4005.641025
18,4411.794871,4535.897435,4516.410256,4254.358974,4497.948717,4216.923076,4443.589743,4216.923076,4228.717948,4504.615384,4200.000000,4641.025641,3985.128206,4005.128205
19,4411.282051,4528.717948,4516.410256,4250.769230,4499.487179,4216.923076,4442.564102,4216.923076,4229.230769,4506.153846,4198.974358,4639.487179,3976.410257,4008.717948
20,4413.846153,4535.384615,4524.615384,4261.025641,4495.897435,4217.948717,4447.179487,4224.102564,4237.948717,4513.333333,4208.717948,4650.256410,3985.641026,4014.358974
21,4417.948717,4540.512820,4532.820512,4267.179487,4495.897435,4219.487179,4445.641025,4223.589743,4244.102564,4514.871794,4218.461538,4655.384615,3992.307693,4018.974358
22,4420.000000,4537.948717,4532.820512,4266.666666,4497.948717,4217.948717,4442.051282,4216.410256,4241.538461,4513.846153,4222.564102,4655.384615,3989.230770,4022.051282
23,4411.282051,4535.384615,4524.615384,4261.025641,4498.461538,4215.384615,4442.051282,4209.743589,4229.230769,4507.692307,4210.769230,4649.230769,3986.153847,4016.410256
24,4396.923076,4535.384615,4514.871794,4252.820512,4498.974358,4217.948717,4441.538461,4202.051282,4217.435897,4497.435897,4197.435897,4635.384615,3977.948718,4003.076923
25,4396.410256,4532.820512,4510.769230,4252.307692,4494.358974,4218.461538,4440.000000,4198.461538,4213.333333,4493.846153,4197.435897,4633.846153,3969.743590,3997.435898
26,4409.743589,4534.358974,4517.435897,4262.051282,4491.794871,4216.410256,4442.564102,4206.666666,4218.461538,4499.487179,4204.102564,4646.666666,3978.974359,4006.153846
27,4417.435897,4546.153846,4529.743589,4267.692307,4499.487179,4224.102564,4446.666666,4223.589743,4236.410256,4514.871794,4210.769230,4655.384615,3996.923077,4021.538461
28,4416.923076,4552.820512,4536.410256,4267.692307,4503.589743,4230.769230,4445.128205,4229.743589,4247.692307,4521.538461,4216.923076,4659.487179,4002.051282,4030.256410
29,4421.538461,4546.666666,4534.871794,4267.692307,4501.025641,4221.538461,4442.564102,4222.051282,4241.025641,4516.410256,4218.461538,4660.512820,3995.897436,4025.641025
30,4427.179487,4541.025641,4529.743589,4266.153846,4501.538461,4218.461538,4442.564102,4214.358974,4232.820512,4513.333333,4211.794871,4654.358974,3989.230770,4018.461538
31,4423.589743,4543.076923,4530.769230,4265.128205,4507.692307,4229.743589,4445.641025,4214.871794,4231.282051,4510.769230,4210.769230,4654.358974,3988.717949,4022.051282
32,4423.076923,4542.051282,4533.333333,4266.153846,4506.666666,4234.871794,4453.333333,4215.897435,4228.717948,4503.589743,4215.897435,4661.025641,3990.256411,4023.076923
33,4428.205128,4538.974358,4533.333333,4267.179487,4503.589743,4231.794871,4459.487179,4215.384615,4227.179487,4502.564102,4215.384615,4656.923076,3984.615385,4016.923076
34,4432.307692,4540.000000,4535.897435,4270.769230,4503.076923,4233.846153,4454.358974,4218.461538,4230.256410,4510.256410,4211.282051,4654.358974,3983.076924,4020.512820
35,4434.358974,4545.641025,4541.025641,4272.820512,4496.410256,4230.256410,4446.666666,4219.487179,4232.307692,4512.307692,4214.871794,4664.102564,3993.333334,4036.923076
36,4429.230769,4541.025641,4533.333333,4267.179487,4490.769230,4218.461538,4442.564102,4216.410256,4231.794871,4506.153846,4216.410256,4663.076923,3992.307693,4031.794871
37,4414.871794,4524.615384,4517.435897,4256.410256,4492.820512,4212.820512,4436.410256,4212.820512,4225.641025,4495.384615,4204.615384,4644.615384,3971.794872,4001.025641
38,4409.743589,4528.205128,4516.410256,4258.461538,4496.410256,4216.410256,4437.435897,4215.897435,4222.051282,4492.820512,4197.948717,4641.025641,3966.153847,3996.923077
39,4416.410256,4540.000000,4521.538461,4266.666666,4494.358974,4217.948717,4441.538461,4214.871794,4219.487179,4497.948717,4197.435897,4647.179487,3970.769231,4019.487179
40,4412.307692,4530.256410,4516.923076,4263.589743,4490.769230,4214.358974,4437.435897,4205.641025,4214.358974,4490.256410,4193.333333,4637.948717,3960.000000,4017.948717
41,4408.717948,4527.179487,4513.333333,4256.410256,4493.846153,4221.025641,4437.435897,4210.256410,4222.051282,4486.153846,4195.384615,4634.871794,3959.487180,4004.102564
42,4418.974358,4538.461538,4518.461538,4260.000000,4504.102564,4228.205128,4443.589743,4221.538461,4227.179487,4496.410256,4200.000000,4646.153846,3974.871795,4001.538461
43,4427.179487,4539.487179,4525.128205,4265.128205,4503.589743,4221.538461,4442.564102,4220.512820,4222.051282,4505.128205,4196.410256,4650.769230,3980.512821,4007.179487
44,4427.692307,4537.948717,4530.256410,4265.641025,4496.923076,4215.897435,4441.025641,4215.897435,4227.179487,4507.692307,4205.128205,4651.282051,3984.615385,4024.102564
45,4430.769230,4544.102564,4534.871794,4266.666666,4504.615384,4223.076923,4444.102564,4221.538461,4237.435897,4510.769230,4221.538461,4654.871794,3994.358975,4034.871794
46,4425.641025,4540.000000,4528.717948,4264.102564,4508.717948,4230.769230,4442.564102,4219.487179,4225.641025,4503.076923,4208.717948,4650.256410,3986.666667,4022.564102
47,4417.435897,4533.846153,4521.538461,4261.025641,4500.512820,4232.307692,4443.589743,4214.871794,4217.948717,4495.897435,4194.358974,4644.615384,3975.897436,4012.820512
48,4425.128205,4540.000000,4525.641025,4265.641025,4498.974358,4232.820512,4447.692307,4223.076923,4231.282051,4503.589743,4208.205128,4651.282051,3984.615385,4016.923076
49,4431.794871,4542.051282,4525.641025,4267.692307,4501.538461,4232.307692,4445.641025,4227.179487,4235.384615,4510.256410,4213.333333,4652.820512,3984.615385,4018.461538
50,4424.615384,4536.410256,4521.538461,4263.589743,4501.538461,4231.794871,4442.051282,4219.487179,4233.846153,4508.205128,4201.538461,4648.717948,3976.410257,4017.948717
51,4423.076923,4534.358974,4523.589743,4261.538461,4499.487179,4229.230769,4442.051282,4216.410256,4232.820512,4502.564102,4197.948717,4652.307692,3980.000000,4018.974358
52,4426.153846,4538.974358,4522.564102,4261.025641,4500.000000,4226.153846,4442.051282,4218.461538,4224.615384,4498.461538,4200.000000,4656.923076,3982.564103,4021.538461
53,4425.641025,4538.974358,4520.512820,4260.512820,4503.589743,4229.230769,4443.076923,4216.923076,4222.051282,4501.025641,4207.179487,4654.871794,3983.076924,4021.025641
54,4427.692307,4536.923076,4526.666666,4264.102564,4501.538461,4230.769230,4443.589743,4215.897435,4228.205128,4508.205128,4213.846153,4654.871794,3986.153847,4014.358974
55,4427.692307,4539.487179,4525.128205,4267.179487,4495.384615,4223.076923,4442.051282,4219.487179,4227.179487,4508.205128,4206.153846,4656.410256,3979.487180,4016.410256
56,4425.641025,4539.487179,4517.435897,4264.102564,4494.358974,4220.000000,4442.051282,4222.051282,4223.076923,4501.538461,4196.923076,4651.282051,3968.205129,4020.000000
57,4428.717948,4538.974358,4523.589743,4266.153846,4499.487179,4228.205128,4443.076923,4229.230769,4231.282051,4505.641025,4201.025641,4650.256410,3972.820513,4016.410256
58,4429.743589,4537.948717,4526.153846,4265.128205,4501.538461,4231.282051,4444.102564,4233.846153,4236.923076,4512.820512,4205.641025,4656.410256,3977.435898,4014.871794
59,4424.102564,4529.230769,4514.871794,4254.358974,4500.512820,4227.692307,4442.564102,4224.615384,4225.128205,4506.153846,4201.538461,4653.846153,3969.743590,4009.230769
60,4423.589743,4526.666666,4510.256410,4244.615384,4497.435897,4230.769230,4443.076923,4217.948717,4219.487179,4495.384615,4194.871794,4644.102564,3966.666667,4002.564102
61,4426.666666,4535.384615,4512.820512,4244.102564,4494.358974,4232.820512,4448.717948,4226.153846,4226.666666,4498.974358,4192.820512,4644.102564,3968.205129,4009.230769
62,4427.179487,4541.025641,4521.025641,4254.871794,4495.897435,4234.358974,4457.948717,4233.846153,4233.846153,4509.743589,4199.487179,4651.794871,3972.307693,4018.461538
63,4432.307692,4542.564102,4527.179487,4268.205128,4501.025641,4241.025641,4463.589743,4235.897435,4236.410256,4512.307692,4205.641025,4655.384615,3976.410257,4020.000000
64,4431.282051,4537.948717,4520.000000,4263.076923,4508.717948,4240.512820,4458.974358,4230.769230,4227.179487,4500.512820,4196.923076,4648.205128,3973.333334,4013.846153
65,4418.461538,4529.230769,4508.205128,4246.153846,4504.615384,4231.794871,4449.743589,4218.974358,4217.435897,4489.743589,4187.692307,4638.461538,3969.230770,4004.615384
66,4415.897435,4533.333333,4509.743589,4245.128205,4495.384615,4230.256410,4445.128205,4213.333333,4225.128205,4497.435897,4191.282051,4638.974358,3978.974359,4007.179487
67,4427.179487,4544.615384,4515.384615,4251.794871,4500.512820,4234.358974,4445.641025,4216.923076,4231.794871,4504.615384,4192.307692,4645.641025,3992.307693,4015.384615
68,4429.230769,4542.051282,4514.358974,4248.717948,4505.128205,4233.846153,4445.128205,4214.871794,4217.948717,4492.820512,4185.128205,4645.641025,3990.256411,4016.923076
69,4427.692307,4536.923076,4514.358974,4246.666666,4503.589743,4231.794871,4442.564102,4212.820512,4212.307692,4486.153846,4185.641025,4644.102564,3984.615385,4018.974358
70,4431.794871,4541.025641,4519.487179,4250.256410,4507.179487,4231.794871,4444.615384,4222.564102,4226.666666,4496.923076,4190.769230,4650.256410,3994.358975,4021.538461
71,4429.743589,4542.564102,4526.153846,4252.307692,4509.230769,4231.794871,4446.153846,4230.769230,4234.871794,4505.128205,4190.256410,4653.846153,4006.666666,4017.435897
72,4428.717948,4542.051282,4527.179487,4253.333333,4501.025641,4232.307692,4446.153846,4231.794871,4234.871794,4510.256410,4198.974358,4654.358974,4009.230769,4021.025641
73,4426.153846,4541.538461,4519.487179,4250.769230,4495.384615,4226.666666,4446.153846,4229.230769,4231.794871,4508.717948,4202.051282,4650.256410,4000.512820,4028.205128
74,4414.871794,4532.307692,4513.333333,4246.153846,4494.871794,4222.051282,4443.589743,4221.538461,4226.153846,4495.384615,4189.230769,4645.641025,3988.205129,4022.564102
75,4414.871794,4527.179487,4516.923076,4248.205128,4493.846153,4227.179487,4444.102564,4217.948717,4228.205128,4491.794871,4186.153846,4648.717948,3987.179488,4013.846153
76,4427.692307,4536.923076,4522.051282,4250.769230,4496.923076,4231.794871,4448.717948,4222.564102,4231.282051,4502.051282,4187.692307,4652.820512,3996.923077,4009.743589
77,4430.769230,4538.974358,4518.974358,4246.666666,4506.666666,4229.230769,4448.717948,4222.051282,4226.153846,4507.692307,4188.205128,4651.282051,4001.025641,4014.871794
78,4425.641025,4530.256410,4514.358974,4245.128205,4511.794871,4228.717948,4443.076923,4217.948717,4224.615384,4504.615384,4201.538461,4651.794871,4004.102564,4026.153846
79,4428.205128,4532.820512,4516.410256,4249.743589,4499.487179,4231.282051,4444.102564,4223.589743,4231.282051,4505.641025,4209.743589,4655.897435,4010.256410,4033.333333
80,4428.717948,4540.000000,4518.974358,4249.743589,4489.743589,4230.256410,4446.666666,4223.076923,4227.179487,4505.641025,4191.794871,4652.820512,3999.487180,4023.076923
81,4427.179487,4537.435897,4516.923076,4246.153846,4500.512820,4231.282051,4443.589743,4216.923076,4226.153846,4505.128205,4183.076923,4649.230769,3990.769231,4009.743589
82,4427.692307,4532.820512,4514.871794,4245.128205,4505.128205,4227.692307,4441.538461,4218.974358,4233.333333,4503.076923,4199.487179,4649.743589,3998.974359,4010.769230
83,4425.641025,4531.282051,4513.333333,4248.205128,4494.358974,4224.615384,4442.564102,4220.512820,4224.615384,4499.487179,4206.153846,4650.256410,4003.076923,4016.923076
84,4426.666666,4535.384615,4510.769230,4250.769230,4498.974358,4227.692307,4443.076923,4218.974358,4217.948717,4502.564102,4200.512820,4650.769230,4003.076923,4019.487179
85,4430.769230,4540.000000,4510.769230,4249.743589,4505.641025,4225.128205,4441.538461,4220.512820,4228.205128,4509.743589,4198.974358,4651.794871,4006.666666,4023.076923
86,4429.743589,4538.461538,4515.897435,4249.743589,4497.435897,4224.102564,4441.025641,4222.051282,4233.846153,4508.205128,4201.025641,4653.333333,4004.615384,4026.666666
87,4428.205128,4537.948717,4518.974358,4251.282051,4495.384615,4230.256410,4443.076923,4220.512820,4227.179487,4505.128205,4200.000000,4653.333333,3997.948718,4025.128205
88,4432.307692,4541.538461,4515.384615,4250.256410,4501.025641,4233.333333,4444.102564,4218.974358,4228.205128,4508.205128,4199.487179,4653.846153,4002.564102,4020.000000
89,4433.333333,4540.512820,4512.307692,4250.769230,4499.487179,4229.743589,4442.564102,4216.923076,4229.230769,4507.179487,4200.512820,4653.333333,4009.230769,4017.435897
90,4429.743589,4537.948717,4513.846153,4252.307692,4499.487179,4232.307692,4443.076923,4214.871794,4223.076923,4504.615384,4197.948717,4652.307692,4008.717948,4023.076923
91,4427.692307,4545.641025,4516.410256,4249.230769,4509.230769,4236.410256,4445.128205,4221.025641,4224.615384,4506.153846,4198.461538,4650.256410,4004.615384,4029.743589
92,4426.666666,4551.794871,4515.384615,4251.282051,4515.897435,4231.794871,4444.102564,4225.641025,4227.179487,4504.615384,4202.051282,4648.717948,4003.076923,4024.102564
93,4434.358974,4550.256410,4514.871794,4261.025641,4511.794871,4232.307692,4443.076923,4222.051282,4225.128205,4503.589743,4202.051282,4651.282051,4007.179487,4020.512820
94,4439.487179,4549.743589,4521.025641,4265.128205,4502.564102,4237.435897,4444.102564,4218.461538,4226.666666,4510.256410,4201.538461,4653.333333,4008.205128,4026.153846
95,4434.871794,4551.794871,4528.717948,4264.102564,4504.102564,4239.487179,4446.666666,4226.666666,4233.846153,4512.820512,4206.153846,4655.897435,4007.692307,4030.256410
96,4440.512820,4555.384615,4529.743589,4267.692307,4508.717948,4235.384615,4447.692307,4232.307692,4239.487179,4510.769230,4210.256410,4661.025641,4008.717948,4033.333333
97,4448.205128,4558.461538,4523.589743,4270.256410,4506.666666,4233.846153,4446.666666,4224.102564,4233.846153,4507.179487,4206.153846,4658.974358,4006.153846,4029.743589
98,4436.410256,4554.871794,4515.897435,4263.076923,4507.692307,4233.846153,4443.076923,4214.358974,4222.051282,4498.974358,4197.948717,4649.743589,3995.384616,4017.948717
99,4431.794871,4548.205128,4517.435897,4262.051282,4507.692307,4232.820512,4441.538461,4213.333333,4218.461538,4497.948717,4194.871794,4651.282051,3993.846154,4025.128205
100,4445.128205,4553.846153,4526.666666,4270.769230,4507.179487,4234.358974,4444.102564,4217.435897,4225.641025,4505.128205,4207.692307,4663.589743,4007.179487,4041.025641
101,4446.666666,4558.461538,4530.256410,4268.205128,4510.769230,4234.871794,4446.153846,4219.487179,4229.230769,4514.358974,4222.564102,4665.128205,4015.897435,4035.897435
102,4443.589743,4553.846153,4525.128205,4260.000000,4508.205128,4232.307692,4444.102564,4218.974358,4228.205128,4517.435897,4220.000000,4657.435897,4013.333333,4028.717948
103,4451.282051,4555.897435,4524.102564,4269.743589,4503.589743,4234.358974,4445.128205,4225.128205,4232.307692,4512.307692,4215.897435,4657.435897,4008.205128,4036.410256
104,4451.282051,4560.000000,4525.128205,4282.564102,4505.641025,4235.384615,4447.692307,4230.256410,4233.846153,4509.743589,4218.974358,4662.051282,4005.128205,4042.564102
105,4445.128205,4555.384615,4522.051282,4274.358974,4505.641025,4229.743589,4442.051282,4220.512820,4230.256410,4511.794871,4213.846153,4660.512820,3999.487180,4038.461538
106,4449.230769,4551.282051,4524.102564,4262.564102,4502.051282,4226.666666,4434.871794,4214.871794,4229.743589,4513.846153,4206.153846,4655.897435,4000.512820,4028.717948
107,4453.846153,4556.410256,4528.717948,4267.179487,4504.102564,4230.769230,4440.000000,4227.179487,4233.333333,4517.435897,4210.256410,4658.974358,4010.256410,4026.153846
108,4446.666666,4556.410256,4525.128205,4272.307692,4508.717948,4230.769230,4444.615384,4229.743589,4230.256410,4517.948717,4213.846153,4662.051282,4013.333333,4034.358974
109,4442.051282,4553.333333,4517.948717,4267.179487,4508.717948,4230.256410,4438.461538,4219.487179,4220.512820,4508.717948,4211.282051,4656.410256,4004.615384,4037.948717
110,4446.153846,4553.333333,4518.461538,4263.076923,4502.051282,4229.743589,4435.384615,4212.820512,4217.948717,4503.589743,4206.153846,4651.794871,3996.923077,4029.743589
111,4438.461538,4546.666666,4514.871794,4264.102564,4497.435897,4224.102564,4433.333333,4204.615384,4219.487179,4503.076923,4195.897435,4648.205128,3989.743590,4019.487179
112,4426.666666,4544.615384,4510.769230,4265.641025,4500.512820,4222.051282,4427.179487,4200.512820,4215.897435,4498.974358,4191.794871,4645.641025,3985.128206,4013.846153
113,4433.333333,4552.820512,4518.974358,4264.615384,4501.538461,4225.641025,4432.307692,4212.820512,4215.384615,4503.589743,4200.000000,4654.871794,3993.333334,4017.948717
114,4448.205128,4559.487179,4525.128205,4266.153846,4502.051282,4230.769230,4443.076923,4222.564102,4225.128205,4513.333333,4203.589743,4663.076923,4003.076923,4025.128205
115,4441.538461,4553.333333,4521.538461,4265.128205,4501.025641,4227.692307,4437.948717,4217.948717,4231.282051,4508.717948,4201.538461,4655.897435,4001.025641,4028.205128
116,4427.179487,4542.564102,4514.358974,4254.871794,4495.897435,4220.512820,4426.666666,4216.410256,4229.743589,4497.948717,4203.076923,4647.692307,3992.820513,4025.128205
117,4425.128205,4536.410256,4511.282051,4251.794871,4498.974358,4225.128205,4432.307692,4222.564102,4233.846153,4497.948717,4202.051282,4649.230769,3989.230770,4020.512820
118,4429.743589,4537.435897,4516.410256,4261.538461,4502.051282,4229.743589,4442.564102,4231.794871,4238.974358,4507.692307,4197.435897,4655.384615,3993.846154,4022.051282
119,4436.410256,4547.179487,4524.615384,4264.102564,4498.974358,4225.641025,4442.051282,4233.846153,4237.948717,4515.897435,4207.179487,4660.000000,4002.564102,4030.256410
120,4433.846153,4551.794871,4521.538461,4260.000000,4495.897435,4218.974358,4433.333333,4222.051282,4230.769230,4509.230769,4215.897435,4655.897435,4002.564102,4027.692307
121,4428.717948,4551.282051,4514.358974,4262.564102,4497.435897,4221.025641,4428.717948,4214.871794,4224.102564,4495.897435,4207.692307,4649.230769,3996.410257,4021.025641
122,4435.384615,4553.333333,4520.512820,4263.589743,4498.974358,4227.179487,4431.282051,4217.435897,4221.538461,4497.435897,4203.076923,4650.256410,3993.846154,4028.717948
123,4436.410256,4551.282051,4526.666666,4261.025641,4497.435897,4225.128205,4431.282051,4213.333333,4218.461538,4507.692307,4204.615384,4653.846153,3993.333334,4031.282051
124,4424.615384,4546.666666,4524.102564,4264.102564,4492.307692,4217.435897,4427.179487,4208.717948,4222.564102,4507.179487,4203.589743,4652.820512,3996.410257,4016.410256
125,4424.615384,4547.179487,4523.589743,4268.717948,4494.871794,4218.974358,4426.666666,4213.846153,4231.282051,4504.102564,4208.717948,4653.333333,3997.948718,4018.461538
126,4435.384615,4551.794871,4525.641025,4267.179487,4504.102564,4230.256410,4433.333333,4215.897435,4228.205128,4506.153846,4209.230769,4654.358974,3995.384616,4036.410256
127,4434.871794,4554.358974,4525.641025,4266.666666,4503.076923,4231.794871,4441.538461,4219.487179,4223.076923,4509.230769,4205.128205,4654.871794,3997.435898,4040.512820
128,4437.948717,4556.923076,4525.128205,4270.256410,4500.000000,4231.794871,4444.615384,4230.256410,4234.871794,4513.846153,4208.717948,4658.974358,4004.615384,4029.743589
129,4445.641025,4557.435897,4524.102564,4269.230769,4506.666666,4234.871794,4442.051282,4227.179487,4241.538461,4515.384615,4211.794871,4658.974358,4003.589743,4029.230769
130,4438.461538,4553.846153,4518.461538,4264.102564,4507.692307,4230.256410,4436.923076,4215.384615,4231.794871,4510.256410,4207.179487,4652.820512,3997.948718,4035.384615
131,4427.179487,4548.717948,4516.410256,4262.051282,4498.974358,4229.743589,4434.358974,4216.410256,4226.153846,4508.205128,4206.153846,4651.282051,3994.358975,4029.230769
132,4426.666666,4548.717948,4516.923076,4264.615384,4496.410256,4232.307692,4436.923076,4218.974358,4223.589743,4504.615384,4201.538461,4649.743589,3989.230770,4017.435897
133,4430.256410,4549.743589,4514.358974,4265.641025,4503.076923,4232.307692,4443.076923,4214.871794,4227.179487,4501.538461,4197.948717,4645.641025,3989.230770,4017.435897
134,4430.256410,4550.769230,4513.333333,4264.102564,4501.025641,4233.333333,4444.615384,4218.461538,4233.846153,4514.358974,4205.128205,4649.230769,3998.461539,4025.128205
135,4431.282051,4551.282051,4517.948717,4264.615384,4491.282051,4234.358974,4443.589743,4228.205128,4240.512820,4524.615384,4202.051282,4657.435897,4004.102564,4028.717948
136,4430.769230,4546.153846,4519.487179,4267.179487,4490.769230,4233.333333,4443.589743,4226.153846,4242.564102,4513.846153,4192.820512,4656.410256,4000.512820,4029.230769
137,4428.717948,4544.102564,4515.384615,4266.153846,4500.512820,4231.794871,4443.589743,4223.076923,4234.871794,4506.666666,4202.051282,4650.256410,3992.307693,4022.564102
138,4432.820512,4548.205128,4519.487179,4263.076923,4503.589743,4232.820512,4445.641025,4228.717948,4233.846153,4517.435897,4210.769230,4650.769230,3991.282052,4018.461538
139,4441.538461,4548.205128,4525.641025,4266.666666,4495.897435,4232.820512,4448.717948,4234.358974,4248.205128,4524.102564,4207.179487,4655.897435,3996.923077,4022.564102
140,4448.205128,4548.717948,4527.179487,4276.410256,4495.384615,4233.846153,4449.230769,4233.333333,4253.333333,4521.538461,4210.769230,4661.025641,4003.076923,4030.769230
141,4448.205128,4553.846153,4529.230769,4279.487179,4503.589743,4234.358974,4449.230769,4230.769230,4241.538461,4523.076923,4221.538461,4663.589743,4005.128205,4037.948717
142,4441.538461,4546.666666,4524.102564,4268.205128,4499.487179,4231.282051,4441.025641,4223.076923,4233.333333,4515.897435,4209.743589,4654.358974,3996.923077,4031.794871
143,4437.948717,4534.358974,4512.307692,4258.974358,4488.717948,4226.153846,4431.282051,4209.743589,4225.128205,4500.512820,4190.769230,4642.564102,3983.076924,4015.897435
144,4442.564102,4542.564102,4512.307692,4266.666666,4491.282051,4227.179487,4436.410256,4212.307692,4224.102564,4503.076923,4197.948717,4650.256410,3985.641026,4017.435897
145,4448.205128,4554.871794,4524.615384,4276.410256,4500.000000,4238.461538,4448.205128,4226.153846,4238.974358,4517.948717,4214.358974,4666.153846,4000.512820,4033.846153
146,4448.205128,4555.384615,4530.769230,4277.435897,4505.641025,4249.743589,4451.282051,4230.256410,4245.128205,4522.564102,4215.897435,4666.153846,4007.179487,4041.538461
147,4446.153846,4552.820512,4527.692307,4277.435897,4507.692307,4247.179487,4447.692307,4223.589743,4237.948717,4523.076923,4215.384615,4657.948717,4000.512820,4036.923076
148,4443.589743,4552.307692,4520.512820,4273.846153,4506.666666,4235.897435,4445.128205,4216.923076,4232.307692,4518.974358,4213.333333,4654.358974,3987.179488,4025.641025
149,4442.051282,4555.384615,4518.974358,4272.820512,4508.205128,4232.820512,4444.615384,4215.897435,4233.333333,4510.256410,4205.128205,4653.333333,3987.692308,4021.538461
150,4442.051282,4556.923076,4522.051282,4279.487179,4510.256410,4235.897435,4443.076923,4220.512820,4233.333333,4515.897435,4205.128205,4656.410256,4004.615384,4027.692307
151,4441.538461,4555.897435,4521.025641,4280.000000,4502.564102,4234.358974,4437.948717,4222.051282,4232.307692,4520.512820,4214.358974,4660.512820,4009.230769,4031.794871
152,4443.076923,4555.384615,4518.974358,4274.871794,4493.846153,4231.794871,4437.948717,4223.076923,4237.435897,4515.384615,4217.948717,4660.512820,4003.076923,4032.820512
153,4444.615384,4556.410256,4519.487179,4276.923076,4497.435897,4234.871794,4445.128205,4229.230769,4242.564102,4516.410256,4217.948717,4656.410256,4001.538461,4036.410256
154,4443.076923,4554.871794,4517.948717,4280.512820,4506.153846,4236.410256,4445.641025,4232.820512,4241.538461,4516.410256,4212.820512,4651.282051,3998.461539,4034.871794
155,4441.538461,4552.307692,4521.538461,4278.461538,4507.179487,4233.333333,4442.564102,4231.282051,4240.000000,4512.307692,4205.641025,4654.358974,4000.512820,4031.794871
156,4441.025641,4553.333333,4527.179487,4277.948717,4501.538461,4231.794871,4446.153846,4229.230769,4239.487179,4515.897435,4210.769230,4660.512820,4010.256410,4031.282051
157,4435.384615,4552.307692,4522.564102,4273.846153,4496.923076,4232.307692,4445.641025,4222.564102,4235.384615,4516.410256,4215.384615,4657.948717,4003.076923,4024.102564
158,4428.717948,4550.256410,4515.384615,4263.589743,4491.282051,4229.743589,4435.384615,4210.769230,4228.205128,4504.102564,4201.025641,4650.769230,3987.179488,4017.435897
159,4434.358974,4554.871794,4516.410256,4266.153846,4490.256410,4230.256410,4432.307692,4209.743589,4228.717948,4502.564102,4197.435897,4650.256410,3993.333334,4029.743589
160,4445.128205,4559.487179,4518.974358,4280.000000,4498.974358,4233.846153,4434.358974,4218.461538,4234.358974,4515.897435,4213.846153,4653.846153,4011.282051,4038.974358
161,4444.615384,4555.384615,4516.923076,4280.000000,4506.666666,4231.794871,4433.333333,4217.435897,4233.846153,4518.461538,4217.435897,4653.333333,4014.358974,4028.205128
162,4440.512820,4550.769230,4515.384615,4271.794871,4505.641025,4229.743589,4435.384615,4215.897435,4232.307692,4512.307692,4214.871794,4654.358974,4006.153846,4019.487179
163,4444.615384,4561.025641,4522.564102,4277.948717,4502.051282,4235.384615,4445.128205,4228.717948,4243.589743,4519.487179,4224.102564,4663.589743,4011.794871,4032.820512
164,4447.179487,4567.179487,4528.205128,4284.102564,4506.153846,4235.384615,4446.666666,4229.743589,4246.666666,4525.641025,4224.102564,4667.692307,4018.461538,4044.615384
165,4444.615384,4560.000000,4525.641025,4277.948717,4508.717948,4227.179487,4436.923076,4215.384615,4232.820512,4514.358974,4211.282051,4658.461538,4007.179487,4041.025641
166,4445.128205,4558.461538,4526.153846,4276.410256,4502.051282,4229.230769,4439.487179,4218.974358,4233.846153,4513.333333,4216.923076,4657.435897,4004.615384,4037.948717
167,4446.153846,4562.051282,4529.743589,4281.025641,4493.846153,4235.384615,4444.615384,4229.230769,4249.230769,4526.153846,4233.846153,4667.692307,4021.025641,4040.512820
168,4447.179487,4563.589743,4527.692307,4280.000000,4494.358974,4230.769230,4434.871794,4220.512820,4249.743589,4527.179487,4234.871794,4669.743589,4023.589743,4042.051282
169,4449.743589,4559.487179,4525.641025,4279.487179,4496.923076,4226.666666,4429.230769,4212.307692,4236.923076,4518.461538,4226.153846,4663.076923,4015.384615,4044.102564
170,4445.641025,4556.410256,4527.179487,4280.000000,4498.461538,4229.230769,4440.000000,4215.897435,4231.282051,4509.743589,4220.512820,4657.948717,4015.384615,4044.102564
171,4441.025641,4558.974358,4528.717948,4280.000000,4502.564102,4233.333333,4445.128205,4215.897435,4236.410256,4509.230769,4222.564102,4657.948717,4016.923076,4038.461538
172,4452.820512,4562.051282,4532.820512,4284.102564,4505.128205,4241.538461,4443.076923,4216.923076,4246.153846,4521.025641,4231.282051,4664.615384,4022.051282,4041.025641
173,4455.384615,4558.974358,4534.358974,4287.179487,4508.717948,4245.128205,4446.666666,4223.076923,4248.717948,4523.589743,4235.897435,4667.692307,4024.615384,4047.179487
174,4443.589743,4554.871794,4531.282051,4287.692307,4506.153846,4241.538461,4445.641025,4226.153846,4245.641025,4518.461538,4231.282051,4661.025641,4014.871794,4038.461538
175,4449.743589,4558.974358,4532.820512,4287.692307,4498.461538,4242.051282,4443.589743,4230.769230,4250.256410,4523.076923,4228.717948,4662.051282,4013.333333,4038.461538
176,4461.538461,4558.461538,4536.410256,4283.589743,4499.487179,4244.102564,4448.205128,4233.846153,4250.769230,4524.615384,4233.846153,4670.256410,4022.051282,4052.820512
177,4450.769230,4553.333333,4528.717948,4278.461538,4504.615384,4235.897435,4445.641025,4225.641025,4236.923076,4510.256410,4232.820512,4664.615384,4016.923076,4048.205128
178,4436.923076,4549.230769,4521.538461,4279.487179,4497.435897,4229.743589,4440.512820,4213.333333,4227.179487,4503.076923,4223.076923,4652.307692,4005.641025,4033.333333
179,4442.564102,4551.794871,4524.102564,4280.000000,4489.743589,4234.358974,4441.025641,4214.358974,4236.923076,4513.333333,4223.076923,4651.794871,4008.205128,4031.794871
180,4447.692307,4557.435897,4523.589743,4280.512820,4492.307692,4236.410256,4443.589743,4220.000000,4244.615384,4516.923076,4235.384615,4655.384615,4016.923076,4031.794871
181,4436.923076,4555.897435,4517.948717,4280.512820,4497.435897,4231.794871,4441.025641,4217.435897,4231.794871,4506.153846,4232.307692,4653.333333,4014.358974,4032.307692
182,4427.179487,4551.282051,4514.358974,4268.717948,4496.410256,4231.282051,4438.461538,4213.333333,4216.410256,4498.974358,4220.512820,4647.179487,4002.564102,4035.384615
183,4432.307692,4552.307692,4516.923076,4263.076923,4493.333333,4234.871794,4440.000000,4217.435897,4223.076923,4507.179487,4222.564102,4646.153846,4004.102564,4029.743589
184,4437.948717,4557.435897,4520.000000,4276.410256,4497.435897,4236.410256,4444.102564,4225.128205,4240.512820,4516.410256,4224.615384,4651.794871,4015.384615,4026.153846
185,4426.666666,4551.794871,4516.410256,4276.923076,4499.487179,4233.846153,4442.564102,4223.076923,4236.923076,4509.230769,4214.871794,4649.230769,4011.282051,4029.230769
186,4422.564102,4545.641025,4514.358974,4263.076923,4493.846153,4232.820512,4443.589743,4222.051282,4226.666666,4505.128205,4211.282051,4645.641025,4007.692307,4029.743589
187,4432.307692,4551.794871,4522.051282,4263.076923,4493.333333,4239.487179,4455.384615,4234.358974,4238.461538,4514.358974,4218.974358,4654.358974,4016.410256,4033.846153
188,4433.333333,4558.974358,4525.641025,4268.717948,4494.871794,4241.538461,4457.435897,4241.538461,4252.820512,4514.358974,4220.512820,4658.974358,4018.974358,4040.000000
189,4424.615384,4551.282051,4520.000000,4263.589743,4496.410256,4235.384615,4450.256410,4232.307692,4246.153846,4505.641025,4213.846153,4652.307692,4019.487179,4036.923076
190,4418.974358,4543.076923,4520.512820,4262.564102,4502.051282,4233.846153,4452.307692,4223.076923,4237.435897,4509.743589,4213.846153,4652.820512,4027.692307,4034.358974
191,4416.410256,4545.641025,4525.128205,4263.589743,4497.948717,4237.435897,4454.871794,4220.512820,4239.487179,4515.897435,4219.487179,4657.435897,4030.256410,4037.435897
192,4415.384615,4545.128205,4523.076923,4261.025641,4487.179487,4233.333333,4449.743589,4217.435897,4234.871794,4509.743589,4214.871794,4654.358974,4020.512820,4030.769230
193,4410.769230,4540.512820,4519.487179,4261.538461,4487.179487,4230.256410,4446.666666,4216.923076,4229.743589,4505.128205,4206.153846,4653.333333,4022.051282,4024.102564
194,4404.102564,4538.461538,4517.435897,4260.000000,4491.282051,4231.794871,4446.153846,4214.871794,4234.358974,4505.641025,4211.794871,4653.333333,4031.282051,4034.358974
195,4407.179487,4538.974358,4517.948717,4258.974358,4487.692307,4230.769230,4444.615384,4216.923076,4238.974358,4506.666666,4220.000000,4651.794871,4030.256410,4042.564102
196,4416.410256,4544.615384,4523.076923,4263.076923,4491.794871,4230.769230,4447.692307,4226.666666,4237.948717,4508.205128,4223.589743,4656.923076,4026.666666,4039.487179
197,4414.358974,4549.230769,4527.179487,4263.076923,4500.512820,4233.333333,4451.794871,4226.666666,4234.358974,4508.205128,4227.692307,4659.487179,4030.256410,4040.000000
198,4406.666666,4545.641025,4526.666666,4261.538461,4500.000000,4234.871794,4456.923076,4219.487179,4234.358974,4508.205128,4226.666666,4654.871794,4030.256410,4036.410256
199,4403.589743,4538.461538,4520.512820,4266.666666,4496.410256,4235.897435,4458.461538,4218.974358,4234.358974,4506.666666,4215.897435,4650.769230,4019.487179,4027.692307
200,4399.487179,4537.435897,4514.871794,4265.641025,4493.333333,4233.846153,4449.230769,4217.435897,4227.179487,4500.000000,4205.128205,4646.666666,4008.717948,4029.743589
201,4393.846153,4533.846153,4512.307692,4257.948717,4491.282051,4230.769230,4441.025641,4204.615384,4217.435897,4492.307692,4201.538461,4639.487179,4007.179487,4025.128205
202,4393.846153,4533.333333,4511.794871,4259.487179,4487.692307,4230.769230,4441.538461,4196.410256,4213.846153,4491.282051,4200.000000,4636.923076,4009.743589,4011.282051
203,4398.974358,4538.461538,4512.307692,4264.102564,4491.794871,4231.282051,4442.564102,4200.000000,4218.974358,4493.333333,4198.974358,4638.461538,4007.692307,4018.974358
204,4397.948717,4538.974358,4512.307692,4260.512820,4501.025641,4229.230769,4438.974358,4201.538461,4223.589743,4496.410256,4202.564102,4638.974358,4004.615384,4028.205128
205,4397.948717,4540.000000,4514.358974,4259.487179,4499.487179,4229.743589,4440.512820,4202.051282,4227.692307,4506.153846,4215.384615,4642.051282,4015.384615,4023.589743
206,4406.153846,4547.692307,4515.384615,4263.589743,4494.358974,4232.307692,4442.051282,4208.717948,4232.307692,4511.282051,4220.512820,4644.615384,4024.615384,4028.717948
207,4411.794871,4553.333333,4516.923076,4265.641025,4498.974358,4232.820512,4436.923076,4214.871794,4234.358974,4508.205128,4216.410256,4646.153846,4016.410256,4040.000000
208,4412.307692,4551.794871,4517.948717,4265.128205,4508.205128,4231.794871,4436.923076,4217.948717,4235.384615,4510.769230,4217.435897,4651.282051,4012.307692,4038.974358
209,4414.358974,4553.333333,4517.435897,4265.641025,4506.666666,4234.871794,4441.538461,4215.384615,4235.897435,4515.384615,4220.512820,4653.846153,4017.435897,4033.333333
210,4412.820512,4554.871794,4515.897435,4268.717948,4496.410256,4231.282051,4437.435897,4207.179487,4230.256410,4512.820512,4217.948717,4650.256410,4019.487179,4033.846153
211,4403.076923,4543.589743,4511.282051,4265.128205,4492.307692,4225.128205,4428.205128,4201.538461,4225.641025,4507.179487,4208.717948,4643.589743,4016.923076,4033.846153
212,4398.974358,4535.384615,4504.615384,4251.794871,4494.358974,4225.128205,4426.153846,4198.974358,4227.179487,4504.615384,4198.974358,4637.948717,4015.897435,4024.102564
213,4400.512820,4540.000000,4500.512820,4248.717948,4497.435897,4220.512820,4427.692307,4197.948717,4223.076923,4505.641025,4197.435897,4635.384615,4020.000000,4017.948717
214,4396.923076,4542.564102,4505.641025,4260.512820,4498.974358,4217.435897,4427.692307,4198.461538,4220.512820,4508.205128,4203.589743,4637.948717,4020.512820,4025.128205
215,4396.410256,4536.923076,4510.769230,4262.051282,4495.897435,4226.666666,4427.692307,4201.538461,4226.153846,4507.179487,4211.282051,4643.589743,4019.487179,4024.615384
216,4403.589743,4532.820512,4507.692307,4250.769230,4491.794871,4233.846153,4432.307692,4207.179487,4229.230769,4507.179487,4214.871794,4644.615384,4022.051282,4018.461538
217,4412.307692,4539.487179,4508.205128,4254.358974,4497.435897,4232.307692,4440.000000,4214.871794,4231.794871,4513.333333,4210.256410,4644.102564,4020.000000,4026.666666
218,4415.897435,4553.333333,4514.871794,4268.717948,4501.025641,4234.871794,4443.589743,4220.512820,4240.512820,4523.589743,4212.820512,4650.769230,4018.461538,4028.717948
219,4414.358974,4553.846153,4516.410256,4269.743589,4499.487179,4237.435897,4440.000000,4217.435897,4241.025641,4524.615384,4218.974358,4654.871794,4023.076923,4023.589743
220,4410.769230,4537.948717,4511.282051,4262.051282,4505.128205,4232.307692,4430.256410,4206.153846,4226.153846,4510.256410,4208.717948,4642.564102,4018.461538,4029.743589
221,4410.256410,4536.410256,4509.230769,4261.025641,4502.564102,4231.282051,4425.128205,4202.051282,4225.128205,4504.615384,4203.589743,4636.410256,4007.179487,4026.666666
222,4414.358974,4548.717948,4511.282051,4265.641025,4488.205128,4232.820512,4436.923076,4212.820512,4241.025641,4513.846153,4217.435897,4648.205128,4010.769230,4014.871794
223,4412.307692,4546.666666,4513.846153,4266.153846,4488.205128,4232.820512,4446.153846,4220.512820,4243.589743,4514.871794,4220.000000,4653.333333,4015.384615,4022.051282
224,4403.589743,4536.410256,4512.307692,4263.076923,4494.358974,4231.282051,4434.871794,4210.769230,4232.307692,4510.256410,4206.666666,4644.102564,4009.743589,4031.794871
225,4396.923076,4535.384615,4507.179487,4258.974358,4491.794871,4228.205128,4426.153846,4200.512820,4227.692307,4508.205128,4197.948717,4635.897435,4008.205128,4020.000000
226,4403.076923,4539.487179,4507.692307,4258.974358,4491.794871,4228.205128,4429.230769,4201.025641,4223.076923,4505.641025,4201.538461,4637.435897,4008.717948,4012.307692
227,4414.358974,4542.051282,4512.307692,4265.128205,4492.820512,4232.307692,4430.256410,4208.205128,4222.051282,4505.128205,4214.871794,4644.615384,4007.692307,4024.615384
228,4407.692307,4538.461538,4509.743589,4263.076923,4492.307692,4228.717948,4427.179487,4206.666666,4229.230769,4504.615384,4217.948717,4646.666666,4004.615384,4024.102564
229,4397.948717,4541.538461,4506.666666,4258.974358,4492.307692,4222.051282,4427.179487,4199.487179,4228.717948,4504.615384,4206.153846,4642.051282,4001.025641,4019.487179
230,4409.743589,4551.794871,4515.384615,4270.769230,4490.769230,4229.230769,4430.256410,4204.615384,4226.153846,4514.871794,4208.205128,4643.076923,4004.615384,4031.794871
231,4414.358974,4549.230769,4520.512820,4276.923076,4490.769230,4233.333333,4430.769230,4208.717948,4234.871794,4516.923076,4220.000000,4646.666666,4009.743589,4032.307692
232,4398.461538,4534.358974,4512.307692,4265.641025,4490.769230,4221.538461,4428.205128,4204.102564,4234.358974,4504.615384,4215.384615,4641.025641,4006.153846,4016.923076
233,4398.461538,4535.897435,4510.769230,4261.025641,4491.282051,4214.871794,4427.692307,4207.179487,4226.666666,4508.205128,4208.205128,4643.076923,4009.230769,4021.538461
234,4405.641025,4544.102564,4515.897435,4267.179487,4490.769230,4220.000000,4428.717948,4218.461538,4237.435897,4521.025641,4217.948717,4651.282051,4024.102564,4035.384615
235,4399.487179,4538.461538,4514.358974,4265.641025,4490.256410,4224.102564,4429.230769,4225.128205,4250.256410,4522.564102,4227.179487,4651.794871,4029.230769,4033.846153
236,4403.589743,4535.897435,4513.846153,4262.564102,4493.333333,4228.205128,4437.435897,4231.282051,4247.179487,4523.076923,4222.564102,4652.307692,4027.692307,4036.410256
237,4410.769230,4541.538461,4517.435897,4264.615384,4493.846153,4233.333333,4445.641025,4235.897435,4242.564102,4526.666666,4222.051282,4654.871794,4022.564102,4039.487179
238,4397.435897,4538.974358,4513.333333,4261.025641,4488.717948,4226.666666,4442.051282,4229.230769,4242.051282,4517.948717,4227.179487,4645.641025,4006.666666,4028.717948
239,4387.179487,4533.846153,4505.641025,4258.974358,4487.692307,4223.589743,4439.487179,4225.128205,4238.461538,4512.307692,4221.538461,4637.948717,3999.487180,4017.948717
240,4395.897435,4537.435897,4509.230769,4263.076923,4492.820512,4230.769230,4444.615384,4230.769230,4237.948717,4520.512820,4213.333333,4648.717948,4012.820512,4015.384615
241,4401.025641,4538.461538,4515.384615,4259.487179,4492.820512,4227.692307,4439.487179,4227.179487,4236.923076,4518.461538,4217.948717,4654.871794,4018.461538,4022.051282
242,4397.948717,4532.307692,4511.794871,4256.410256,4490.769230,4214.358974,4425.128205,4213.846153,4227.179487,4502.564102,4217.948717,4645.641025,4004.102564,4027.179487
243,4395.897435,4532.820512,4509.743589,4257.435897,4489.743589,4216.923076,4426.666666,4208.717948,4225.128205,4501.025641,4216.410256,4644.615384,3998.461539,4022.564102
244,4394.871794,4537.948717,4513.333333,4252.307692,4490.769230,4234.358974,4443.076923,4215.897435,4236.410256,4513.846153,4221.538461,4651.282051,4005.128205,4019.487179
245,4396.923076,4541.025641,4512.307692,4249.743589,4493.333333,4234.871794,4446.153846,4216.923076,4236.923076,4511.282051,4208.717948,4645.641025,4001.025641,4021.538461
246,4390.256410,4532.820512,4500.512820,4256.923076,4486.666666,4219.487179,4430.769230,4204.615384,4217.435897,4493.333333,4189.230769,4630.256410,3978.974359,4008.205128
247,4380.512820,4524.102564,4496.410256,4261.025641,4477.948717,4212.307692,4421.025641,4200.512820,4209.230769,4486.666666,4201.025641,4629.230769,3972.820513,3998.974359
248,4391.794871,4534.871794,4511.794871,4263.589743,4482.564102,4218.461538,4428.717948,4216.410256,4233.846153,4504.102564,4222.564102,4644.615384,3994.871795,4022.051282
249,4401.025641,4540.512820,4516.410256,4262.564102,4491.794871,4218.974358,4433.333333,4221.025641,4248.205128,4515.897435,4216.410256,4646.666666,4002.564102,4032.307692
250,4387.179487,4529.230769,4498.461538,4248.717948,4492.307692,4214.871794,4427.179487,4201.538461,4220.000000,4502.051282,4196.923076,4625.641025,3983.076924,4007.692307
251,4383.589743,4530.256410,4494.871794,4247.692307,4490.769230,4226.153846,4432.820512,4199.487179,4203.589743,4500.000000,4196.410256,4618.974358,3976.410257,3996.410257
252,4399.487179,4545.128205,4512.820512,4266.153846,4494.871794,4237.435897,4448.205128,4218.461538,4226.666666,4513.333333,4211.282051,4634.358974,3996.410257,4013.846153
253,4405.128205,4546.153846,4520.000000,4272.307692,4499.487179,4235.384615,4449.230769,4221.025641,4239.487179,4512.820512,4219.487179,4638.974358,4009.743589,4027.692307
254,4403.589743,4542.564102,4513.333333,4266.666666,4498.461538,4231.794871,4435.384615,4203.589743,4224.102564,4504.102564,4218.461538,4632.820512,4001.025641,4026.666666
255,4401.538461,4540.512820,4510.769230,4265.641025,4492.307692,4231.282051,4428.205128,4195.384615,4215.897435,4503.076923,4213.846153,4631.282051,3990.769231,4020.512820
