,AF3,F7,F3,FC5,T7,P7,O1,O2,P8,T8,FC6,F4,F8,AF4
0,4396.410256,4516.410256,4528.205128,4142.564102,4521.538461,4183.076923,4423.589743,4186.153846,4205.641025,4491.282051,4172.820512,4638.461538,3979.487180,4029.743589
1,4374.358974,4497.948717,4512.820512,4130.769230,4521.025641,4174.358974,4410.256410,4170.769230,4193.333333,4479.487179,4158.974358,4625.128205,3961.538462,4018.461538
2,4377.948717,4495.897435,4508.717948,4128.717948,4518.974358,4173.846153,4414.358974,4175.897435,4195.384615,4484.615384,4164.102564,4624.102564,3953.333334,4014.871794
3,4390.769230,4508.717948,4516.923076,4135.897435,4519.487179,4176.410256,4425.641025,4187.692307,4204.615384,4496.923076,4170.769230,4630.256410,3961.025642,4017.948717
4,4384.615384,4508.205128,4520.512820,4138.461538,4523.076923,4174.358974,4423.076923,4185.641025,4203.589743,4487.179487,4160.000000,4630.256410,3960.512821,4012.820512
5,4375.384615,4501.538461,4518.974358,4134.358974,4518.461538,4170.256410,4415.384615,4182.564102,4195.897435,4474.358974,4153.333333,4630.256410,3957.435898,4005.641025
6,4374.871794,4504.615384,4515.897435,4131.282051,4513.846153,4172.307692,4417.435897,4184.615384,4194.358974,4476.923076,4168.205128,4630.769230,3958.461539,4006.153846
7,4375.384615,4504.615384,4511.282051,4130.769230,4516.923076,4173.846153,4421.025641,4182.564102,4194.871794,4482.051282,4181.025641,4625.128205,3951.282052,4007.179487
8,4378.974358,4502.564102,4512.820512,4133.846153,4520.512820,4174.358974,4423.076923,4183.589743,4199.487179,4488.205128,4174.358974,4622.564102,3952.307693,4008.205128
9,4384.102564,4505.128205,4521.025641,4138.974358,4521.025641,4177.948717,4428.205128,4188.205128,4207.179487,4493.846153,4173.333333,4630.256410,3966.153847,4018.974358
10,4383.076923,4502.564102,4521.538461,4140.000000,4515.897435,4176.923076,4424.615384,4184.615384,4204.102564,4488.205128,4180.000000,4635.897435,3969.230770,4022.564102
11,4375.384615,4500.000000,4515.384615,4135.384615,4510.256410,4171.282051,4413.333333,4175.384615,4192.307692,4476.923076,4172.820512,4627.692307,3957.435898,4006.666666
12,4371.282051,4501.538461,4517.948717,4135.897435,4513.846153,4173.846153,4415.384615,4178.461538,4193.846153,4484.615384,4168.205128,4623.589743,3954.358975,4003.076923
13,4387.179487,4507.179487,4527.179487,4149.743589,4522.564102,4185.128205,4426.153846,4193.333333,4206.666666,4502.051282,4183.589743,4638.974358,3964.615385,4023.076923
14,4402.564102,4517.948717,4533.333333,4157.435897,4524.102564,4189.743589,4423.076923,4194.871794,4207.179487,4497.435897,4191.282051,4648.717948,3976.410257,4034.871794
15,4394.358974,4518.461538,4527.179487,4151.794871,4521.025641,4184.102564,4411.282051,4185.641025,4199.487179,4487.692307,4182.564102,4637.948717,3972.820513,4023.076923
16,4386.666666,4509.230769,4519.487179,4150.256410,4517.435897,4175.384615,4413.333333,4183.076923,4199.487179,4495.384615,4180.512820,4632.307692,3962.564103,4008.205128
17,4389.743589,4508.717948,4522.051282,4152.307692,4512.820512,4173.333333,4419.487179,4184.102564,4201.538461,4490.769230,4185.128205,4638.974358,3968.205129,4010.256410
18,4386.153846,4513.333333,4524.615384,4150.769230,4517.435897,4182.051282,4419.487179,4182.051282,4196.410256,4469.230769,4183.589743,4636.410256,3971.794872,4017.435897
19,4388.717948,4517.435897,4521.025641,4152.307692,4525.641025,4188.205128,4422.564102,4184.102564,4200.000000,4473.333333,4180.000000,4633.846153,3968.205129,4025.641025
20,4397.948717,4518.974358,4514.358974,4154.358974,4524.615384,4186.153846,4426.153846,4188.205128,4210.769230,4494.358974,4182.051282,4636.410256,3975.384616,4028.717948
21,4389.743589,4511.282051,4513.333333,4150.769230,4521.538461,4183.589743,4422.564102,4184.615384,4206.666666,4494.871794,4184.102564,4630.256410,3974.871795,4016.923076
22,4380.000000,4512.307692,4520.000000,4151.282051,4529.230769,4190.256410,4422.051282,4187.179487,4203.076923,4491.282051,4184.102564,4626.666666,3963.076924,4008.205128
23,4386.153846,4521.025641,4523.589743,4157.435897,4536.410256,4197.435897,4425.641025,4198.461538,4213.333333,4497.948717,4187.179487,4634.871794,3965.641026,4016.410256
24,4390.769230,4516.923076,4522.564102,4158.461538,4529.743589,4191.794871,4424.102564,4197.435897,4218.461538,4492.820512,4193.333333,4637.948717,3978.974359,4025.128205
25,4386.153846,4508.717948,4522.564102,4152.307692,4521.025641,4183.076923,4421.538461,4186.153846,4209.743589,4484.615384,4197.435897,4632.820512,3977.948718,4018.461538
26,4387.179487,4510.256410,4520.512820,4148.205128,4524.102564,4184.102564,4423.076923,4182.564102,4205.128205,4489.743589,4191.282051,4635.384615,3972.307693,4014.871794
27,4393.333333,4514.871794,4521.538461,4155.897435,4530.256410,4189.743589,4423.076923,4188.205128,4209.743589,4494.358974,4185.641025,4641.538461,3975.384616,4022.051282
28,4393.846153,4521.025641,4529.230769,4167.692307,4534.358974,4190.256410,4425.641025,4190.769230,4216.923076,4498.461538,4194.358974,4647.179487,3985.128206,4028.717948
29,4396.923076,4527.179487,4535.897435,4170.256410,4538.461538,4193.333333,4429.743589,4195.384615,4220.512820,4510.769230,4206.153846,4653.846153,3990.769231,4033.846153
30,4403.076923,4529.230769,4540.512820,4168.205128,4536.410256,4197.435897,4429.230769,4197.435897,4217.948717,4510.256410,4202.564102,4655.384615,3987.179488,4033.846153
31,4402.051282,4529.230769,4540.512820,4168.717948,4535.384615,4193.333333,4428.205128,4189.743589,4217.948717,4491.282051,4191.794871,4648.717948,3983.076924,4029.230769
32,4396.923076,4521.538461,4529.230769,4168.717948,4536.923076,4189.743589,4430.256410,4187.692307,4216.923076,4483.076923,4191.282051,4643.076923,3978.974359,4025.128205
33,4395.384615,4515.384615,4524.102564,4166.666666,4537.948717,4194.358974,4430.769230,4192.820512,4213.333333,4491.282051,4192.820512,4642.051282,3974.358975,4025.641025
34,4396.923076,4525.128205,4531.282051,4167.692307,4540.000000,4200.000000,4429.743589,4195.384615,4216.410256,4496.923076,4194.871794,4643.589743,3980.512821,4032.820512
35,4402.051282,4535.384615,4532.820512,4171.282051,4541.538461,4198.974358,4426.666666,4196.923076,4222.564102,4503.589743,4196.923076,4646.153846,3987.692308,4034.871794
36,4404.102564,4533.333333,4532.820512,4172.820512,4541.025641,4194.358974,4425.128205,4199.487179,4224.615384,4507.692307,4196.410256,4647.179487,3981.025642,4027.179487
37,4400.000000,4530.256410,4533.846153,4173.333333,4540.000000,4192.307692,4427.692307,4198.974358,4224.615384,4499.487179,4198.461538,4645.641025,3974.871795,4024.615384
38,4394.871794,4530.256410,4530.256410,4170.256410,4538.461538,4194.358974,4431.282051,4194.871794,4222.564102,4486.153846,4203.076923,4641.538461,3978.461539,4030.769230
39,4391.282051,4526.153846,4525.641025,4167.692307,4537.435897,4197.435897,4431.794871,4190.769230,4216.410256,4489.743589,4193.846153,4636.923076,3978.974359,4026.666666
40,4390.256410,4518.461538,4524.615384,4170.769230,4538.974358,4198.461538,4434.358974,4187.179487,4213.846153,4499.487179,4185.641025,4638.461538,3970.769231,4015.384615
41,4395.384615,4521.538461,4527.179487,4173.846153,4541.538461,4195.897435,4436.410256,4185.641025,4212.820512,4497.435897,4195.384615,4644.615384,3966.666667,4014.871794
42,4400.000000,4528.205128,4527.179487,4172.307692,4538.974358,4190.256410,4431.794871,4185.641025,4209.743589,4494.358974,4197.435897,4645.128205,3974.358975,4027.179487
43,4395.384615,4525.128205,4527.179487,4169.743589,4536.923076,4189.230769,4426.153846,4191.794871,4210.256410,4498.974358,4191.282051,4647.692307,3985.641026,4038.461538
44,4392.307692,4520.512820,4533.333333,4170.769230,4537.948717,4191.794871,4424.615384,4201.025641,4217.948717,4497.948717,4197.435897,4653.333333,3989.743590,4031.282051
45,4402.051282,4526.153846,4536.923076,4178.974358,4538.461538,4187.179487,4425.128205,4202.564102,4223.076923,4488.717948,4202.051282,4654.871794,3983.589744,4024.102564
46,4408.717948,4533.846153,4532.820512,4182.051282,4534.871794,4183.076923,4423.589743,4200.512820,4217.948717,4489.230769,4197.948717,4652.820512,3975.384616,4033.846153
47,4402.051282,4529.230769,4529.743589,4180.000000,4535.384615,4190.769230,4430.769230,4201.025641,4215.897435,4502.051282,4202.051282,4653.333333,3978.461539,4041.538461
48,4398.974358,4522.564102,4533.333333,4182.564102,4539.487179,4200.512820,4441.025641,4203.076923,4225.128205,4511.282051,4208.205128,4654.871794,3987.179488,4035.384615
49,4398.974358,4524.102564,4529.743589,4176.410256,4540.000000,4198.461538,4438.974358,4200.512820,4223.589743,4501.538461,4197.435897,4650.256410,3979.487180,4025.128205
50,4392.307692,4525.128205,4522.051282,4163.589743,4540.000000,4193.846153,4427.692307,4194.358974,4210.256410,4479.487179,4185.128205,4642.564102,3966.666667,4027.692307
51,4394.871794,4524.102564,4523.076923,4162.564102,4537.948717,4194.871794,4427.179487,4191.794871,4209.743589,4470.769230,4187.692307,4641.025641,3970.256411,4034.358974
52,4401.538461,4522.564102,4528.205128,4163.076923,4529.230769,4190.769230,4430.256410,4189.230769,4209.743589,4477.435897,4193.333333,4640.000000,3972.307693,4027.692307
53,4397.435897,4517.948717,4527.179487,4151.794871,4521.538461,4182.051282,4423.589743,4182.564102,4197.948717,4483.076923,4189.743589,4635.384615,3957.948718,4013.333333
54,4393.333333,4518.461538,4520.000000,4149.743589,4522.051282,4183.076923,4421.025641,4180.512820,4196.410256,4479.487179,4187.692307,4633.333333,3954.358975,4014.871794
55,4391.794871,4526.153846,4521.538461,4153.846153,4525.641025,4187.692307,4426.153846,4184.102564,4203.076923,4475.897435,4189.743589,4634.871794,3968.717949,4023.076923
56,4385.641025,4526.666666,4524.615384,4145.128205,4524.102564,4186.666666,4428.205128,4184.102564,4201.025641,4470.256410,4186.153846,4636.410256,3970.256411,4018.461538
57,4387.179487,4521.025641,4520.000000,4135.897435,4523.589743,4185.641025,4425.128205,4181.538461,4196.410256,4459.487179,4182.051282,4634.358974,3956.410257,4014.358974
58,4396.410256,4524.102564,4518.974358,4138.461538,4529.230769,4190.256410,4429.743589,4184.615384,4201.538461,4468.717948,4189.230769,4633.846153,3957.435898,4016.923076
59,4399.487179,4529.230769,4524.102564,4142.051282,4537.435897,4197.948717,4441.538461,4195.384615,4213.846153,4490.256410,4195.897435,4639.487179,3971.794872,4021.025641
60,4391.794871,4526.666666,4521.025641,4135.384615,4536.923076,4202.564102,4447.179487,4203.589743,4218.461538,4486.666666,4187.179487,4638.461538,3972.307693,4020.512820
61,4384.102564,4515.384615,4514.871794,4123.076923,4525.641025,4195.897435,4441.538461,4194.358974,4211.794871,4466.666666,4177.435897,4627.179487,3958.974359,4016.923076
62,4388.205128,4511.282051,4523.076923,4120.512820,4520.000000,4186.153846,4434.871794,4185.128205,4210.769230,4472.307692,4185.641025,4632.307692,3957.948718,4021.538461
63,4395.897435,4519.487179,4532.307692,4130.256410,4527.692307,4190.256410,4438.461538,4194.358974,4216.923076,4486.666666,4195.897435,4648.717948,3969.230770,4021.538461
64,4401.025641,4526.666666,4533.333333,4138.461538,4531.282051,4196.410256,4442.051282,4203.589743,4218.974358,4478.974358,4200.000000,4650.769230,3974.358975,4015.384615
65,4400.000000,4525.641025,4532.307692,4131.282051,4532.820512,4195.384615,4437.435897,4202.051282,4217.435897,4477.435897,4201.025641,4644.615384,3971.282052,4024.102564
66,4395.384615,4523.589743,4527.692307,4120.512820,4533.846153,4193.846153,4431.282051,4198.461538,4215.897435,4489.230769,4195.897435,4640.512820,3970.769231,4035.384615
67,4394.358974,4524.615384,4522.051282,4121.025641,4529.230769,4193.846153,4431.794871,4193.333333,4213.846153,4488.205128,4189.743589,4639.487179,3969.743590,4028.717948
68,4393.333333,4523.589743,4522.564102,4123.589743,4527.692307,4195.897435,4437.435897,4189.230769,4213.333333,4475.897435,4187.179487,4641.025641,3967.692308,4014.871794
69,4385.128205,4522.051282,4523.076923,4116.923076,4530.256410,4198.461538,4443.076923,4195.897435,4214.871794,4481.025641,4185.128205,4639.487179,3964.615385,4011.794871
70,4383.589743,4522.051282,4520.512820,4113.846153,4524.615384,4197.435897,4445.641025,4201.538461,4215.897435,4494.871794,4187.692307,4636.923076,3963.076924,4016.410256
71,4388.717948,4521.025641,4521.025641,4116.410256,4520.000000,4195.384615,4443.076923,4198.974358,4213.846153,4489.743589,4192.307692,4636.410256,3963.589744,4017.948717
72,4385.641025,4520.000000,4520.512820,4112.820512,4525.128205,4196.410256,4442.564102,4201.538461,4214.358974,4479.487179,4189.230769,4634.871794,3966.666667,4015.897435
73,4383.589743,4523.076923,4517.435897,4105.641025,4526.666666,4192.820512,4446.153846,4204.615384,4221.025641,4481.538461,4188.717948,4636.923076,3974.358975,4018.974358
74,4389.230769,4521.025641,4518.461538,4106.666666,4518.461538,4187.179487,4441.538461,4201.025641,4222.051282,4484.102564,4191.282051,4639.487179,3976.410257,4017.435897
75,4392.820512,4514.871794,4516.410256,4106.666666,4513.846153,4186.666666,4435.897435,4200.000000,4216.923076,4485.128205,4188.717948,4633.846153,3968.205129,4011.282051
76,4387.692307,4517.948717,4511.282051,4104.102564,4517.435897,4186.153846,4437.435897,4198.461538,4215.384615,4489.743589,4188.717948,4630.769230,3964.102565,4019.487179
77,4381.538461,4525.128205,4515.897435,4106.666666,4521.538461,4187.179487,4436.410256,4189.743589,4217.948717,4486.153846,4189.230769,4633.846153,3972.820513,4026.666666
78,4387.692307,4526.666666,4520.512820,4108.717948,4523.589743,4189.743589,4436.410256,4189.743589,4217.435897,4473.333333,4189.743589,4636.410256,3980.512821,4015.897435
79,4394.358974,4518.974358,4515.897435,4106.666666,4520.512820,4189.230769,4436.923076,4197.435897,4214.358974,4472.307692,4194.871794,4639.487179,3976.923077,4013.333333
80,4392.820512,4514.871794,4515.897435,4107.692307,4513.333333,4186.666666,4432.307692,4195.384615,4215.897435,4481.025641,4194.358974,4640.512820,3964.102565,4021.538461
81,4389.743589,4523.076923,4517.435897,4109.230769,4516.410256,4185.641025,4433.333333,4194.871794,4218.461538,4474.871794,4182.564102,4635.897435,3957.948718,4023.589743
82,4383.589743,4521.538461,4517.435897,4107.179487,4524.102564,4188.717948,4442.051282,4202.564102,4218.461538,4463.589743,4181.538461,4636.410256,3965.128206,4016.410256
83,4376.410256,4509.230769,4517.435897,4104.615384,4516.410256,4187.179487,4441.025641,4196.923076,4213.846153,4464.615384,4193.333333,4639.487179,3968.717949,4008.205128
84,4382.564102,4514.358974,4515.897435,4110.769230,4503.589743,4183.076923,4430.769230,4181.025641,4206.153846,4466.666666,4188.717948,4634.871794,3963.589744,4010.256410
85,4391.794871,4526.153846,4513.846153,4117.948717,4507.179487,4184.615384,4429.743589,4178.974358,4200.512820,4464.615384,4173.333333,4631.794871,3960.512821,4018.461538
86,4380.512820,4522.051282,4511.794871,4113.333333,4516.923076,4188.205128,4430.769230,4185.641025,4201.538461,4460.512820,4176.410256,4634.358974,3955.897436,4010.256410
87,4368.717948,4519.487179,4509.743589,4105.128205,4521.025641,4186.153846,4427.692307,4181.025641,4200.000000,4451.282051,4183.589743,4631.794871,3950.769231,3994.358975
88,4376.410256,4524.615384,4510.256410,4111.282051,4520.512820,4186.666666,4429.230769,4175.384615,4200.000000,4445.128205,4173.333333,4627.692307,3957.435898,3999.487180
89,4384.102564,4524.102564,4516.923076,4117.948717,4518.974358,4194.358974,4434.871794,4183.076923,4209.230769,4451.282051,4174.871794,4631.794871,3964.102565,4017.948717
90,4385.641025,4522.051282,4521.025641,4112.307692,4521.538461,4197.435897,4439.487179,4188.717948,4218.461538,4461.025641,4191.282051,4637.948717,3968.205129,4024.102564
91,4386.153846,4525.128205,4517.948717,4108.205128,4522.564102,4196.923076,4441.538461,4189.230769,4218.974358,4467.692307,4191.794871,4637.948717,3974.358975,4013.333333
92,4383.076923,4524.615384,4509.230769,4107.692307,4521.025641,4194.358974,4440.512820,4195.384615,4214.871794,4473.846153,4189.743589,4635.384615,3973.333334,4006.153846
93,4386.666666,4521.025641,4510.769230,4104.615384,4520.000000,4191.282051,4437.435897,4200.512820,4221.538461,4475.897435,4203.589743,4637.948717,3973.846154,4021.538461
94,4396.923076,4527.179487,4523.076923,4106.666666,4520.512820,4194.871794,4438.974358,4198.461538,4232.820512,4474.871794,4203.076923,4647.179487,3980.512821,4036.923076
95,4395.384615,4538.974358,4524.615384,4116.923076,4521.538461,4200.000000,4438.974358,4200.512820,4230.256410,4473.846153,4186.666666,4650.256410,3981.025642,4029.230769
96,4391.794871,4539.487179,4519.487179,4122.051282,4524.102564,4198.974358,4436.923076,4203.076923,4223.589743,4474.871794,4187.692307,4645.128205,3977.948718,4017.435897
97,4397.948717,4536.410256,4523.589743,4120.512820,4528.205128,4198.461538,4440.512820,4199.487179,4229.230769,4486.666666,4200.000000,4645.128205,3986.153847,4025.641025
98,4398.974358,4538.974358,4524.615384,4121.538461,4529.230769,4202.564102,4446.153846,4204.102564,4234.871794,4495.384615,4206.153846,4647.179487,3992.820513,4038.461538
99,4399.487179,4540.000000,4523.589743,4129.230769,4526.153846,4201.538461,4445.128205,4215.384615,4232.307692,4489.743589,4209.230769,4648.717948,3992.820513,4042.051282
100,4407.179487,4540.000000,4532.307692,4133.846153,4524.102564,4199.487179,4443.589743,4213.333333,4232.307692,4488.205128,4207.179487,4654.358974,4000.512820,4043.589743
101,4405.641025,4543.589743,4535.384615,4126.666666,4526.153846,4201.025641,4443.589743,4203.076923,4234.871794,4495.384615,4194.871794,4652.820512,4002.564102,4041.025641
102,4395.897435,4535.384615,4528.205128,4118.461538,4520.512820,4195.384615,4436.410256,4198.461538,4228.717948,4487.692307,4191.282051,4642.564102,3987.179488,4030.769230
103,4390.769230,4524.615384,4524.615384,4121.025641,4513.846153,4188.205128,4431.794871,4199.487179,4220.000000,4480.512820,4198.974358,4641.538461,3979.487180,4026.666666
104,4392.820512,4532.307692,4527.692307,4127.179487,4515.897435,4191.282051,4436.923076,4203.076923,4224.615384,4494.871794,4203.076923,4648.717948,3985.641026,4037.435897
105,4397.435897,4542.564102,4530.769230,4125.641025,4521.025641,4197.948717,4443.589743,4204.102564,4229.230769,4500.512820,4200.000000,4649.743589,3988.205129,4043.076923
106,4401.538461,4537.435897,4532.820512,4128.717948,4521.538461,4202.051282,4444.102564,4201.025641,4225.641025,4487.179487,4193.846153,4648.717948,3990.256411,4032.307692
107,4401.025641,4532.307692,4531.794871,4132.820512,4520.512820,4199.487179,4443.076923,4200.000000,4226.666666,4483.076923,4193.846153,4649.230769,3996.410257,4027.179487
108,4396.410256,4537.435897,4530.256410,4125.641025,4521.025641,4188.205128,4438.461538,4202.051282,4232.307692,4489.230769,4200.000000,4649.230769,3994.358975,4042.051282
109,4398.461538,4539.487179,4534.871794,4126.666666,4520.512820,4190.256410,4437.948717,4204.102564,4234.871794,4497.435897,4199.487179,4652.820512,3993.333334,4056.410256
110,4408.205128,4535.384615,4540.512820,4140.000000,4520.000000,4199.487179,4442.564102,4206.666666,4230.769230,4504.615384,4197.435897,4653.846153,4000.000000,4044.615384
111,4405.641025,4531.282051,4534.871794,4138.461538,4520.000000,4195.384615,4439.487179,4204.102564,4224.102564,4497.948717,4202.051282,4647.692307,3994.871795,4029.743589
112,4395.384615,4531.282051,4525.641025,4128.717948,4517.948717,4186.666666,4430.256410,4197.948717,4222.051282,4486.153846,4199.487179,4643.076923,3985.128206,4033.333333
113,4394.358974,4535.384615,4526.666666,4133.333333,4516.923076,4188.205128,4427.692307,4196.410256,4224.615384,4491.794871,4193.333333,4644.615384,3985.128206,4040.512820
114,4398.461538,4536.410256,4533.333333,4138.974358,4520.000000,4193.846153,4434.871794,4205.641025,4225.128205,4503.076923,4197.948717,4644.615384,3991.794872,4040.512820
115,4406.153846,4536.923076,4536.410256,4137.435897,4524.102564,4200.000000,4444.102564,4211.282051,4230.256410,4500.000000,4203.589743,4646.153846,3998.461539,4041.025641
116,4415.384615,4541.025641,4535.384615,4144.615384,4522.564102,4203.589743,4444.615384,4208.717948,4236.410256,4497.948717,4202.564102,4652.820512,4001.025641,4042.564102
117,4409.743589,4541.025641,4531.282051,4149.230769,4520.512820,4197.948717,4438.461538,4206.153846,4231.794871,4503.076923,4197.948717,4652.307692,3997.948718,4041.025641
118,4399.487179,4537.435897,4530.769230,4141.538461,4522.051282,4196.923076,4440.000000,4207.179487,4232.820512,4501.538461,4200.512820,4650.256410,3996.923077,4044.102564
119,4400.512820,4540.000000,4535.384615,4136.410256,4525.641025,4202.051282,4445.641025,4206.666666,4238.461538,4494.358974,4204.615384,4651.282051,3995.897436,4049.230769
120,4397.435897,4534.871794,4528.717948,4137.435897,4520.000000,4196.410256,4437.435897,4197.435897,4225.128205,4484.102564,4193.333333,4642.564102,3985.641026,4041.025641
121,4390.256410,4522.564102,4517.435897,4136.410256,4509.230769,4186.153846,4428.717948,4192.820512,4210.256410,4474.358974,4183.589743,4634.358974,3976.923077,4026.153846
122,4396.410256,4528.717948,4520.000000,4136.923076,4511.282051,4188.717948,4433.846153,4200.000000,4218.461538,4479.487179,4193.846153,4642.051282,3985.641026,4028.205128
123,4405.641025,4540.512820,4529.230769,4142.564102,4522.051282,4195.897435,4437.948717,4206.153846,4232.820512,4494.358974,4202.564102,4652.307692,3994.871795,4043.589743
124,4401.538461,4531.282051,4532.820512,4148.717948,4524.102564,4196.923076,4437.435897,4209.230769,4233.846153,4493.846153,4201.025641,4652.820512,3996.923077,4050.256410
125,4395.897435,4518.974358,4528.205128,4151.282051,4518.461538,4197.435897,4438.974358,4210.256410,4230.256410,4490.256410,4200.512820,4649.743589,3994.358975,4041.025641
126,4394.358974,4525.128205,4520.000000,4146.153846,4512.820512,4194.358974,4435.384615,4204.615384,4224.615384,4490.256410,4193.333333,4644.615384,3983.589744,4025.128205
127,4389.743589,4533.333333,4521.538461,4139.487179,4508.205128,4187.692307,4427.692307,4197.435897,4216.923076,4477.435897,4182.051282,4641.538461,3973.333334,4019.487179
128,4386.666666,4530.256410,4524.615384,4141.538461,4508.205128,4186.666666,4428.205128,4197.435897,4215.897435,4470.769230,4185.128205,4645.641025,3976.923077,4028.717948
129,4389.230769,4522.051282,4522.564102,4142.564102,4508.205128,4186.153846,4430.769230,4197.435897,4218.974358,4480.512820,4189.230769,4645.128205,3983.076924,4034.871794
130,4389.230769,4518.974358,4522.051282,4137.948717,4504.615384,4182.564102,4427.179487,4192.307692,4215.384615,4487.179487,4185.641025,4640.000000,3975.897436,4029.743589
131,4392.820512,4524.615384,4523.589743,4141.538461,4504.615384,4184.102564,4425.128205,4190.256410,4215.897435,4489.230769,4185.128205,4643.076923,3972.820513,4029.230769
132,4397.948717,4526.666666,4525.128205,4149.743589,4506.153846,4184.615384,4423.589743,4189.743589,4223.076923,4490.769230,4187.179487,4645.641025,3978.974359,4031.794871
133,4393.333333,4520.512820,4524.615384,4152.307692,4506.666666,4182.051282,4423.589743,4188.717948,4218.974358,4482.051282,4183.589743,4640.000000,3977.948718,4025.641025
134,4391.282051,4523.589743,4521.025641,4150.256410,4508.205128,4185.128205,4427.692307,4189.230769,4214.871794,4478.461538,4181.538461,4637.435897,3973.846154,4025.128205
135,4400.512820,4536.923076,4523.589743,4150.256410,4508.205128,4186.666666,4427.179487,4194.871794,4224.615384,4486.666666,4187.179487,4646.153846,3981.025642,4037.435897
136,4402.051282,4533.846153,4533.846153,4154.871794,4505.641025,4184.615384,4427.692307,4202.564102,4229.743589,4488.717948,4187.692307,4652.820512,3992.307693,4045.128205
137,4401.025641,4521.025641,4534.871794,4158.461538,4512.820512,4193.333333,4437.948717,4202.564102,4228.717948,4493.333333,4192.820512,4652.307692,3992.307693,4037.948717
138,4407.692307,4525.641025,4531.282051,4156.410256,4520.512820,4200.000000,4441.025641,4201.538461,4229.743589,4503.076923,4198.461538,4651.282051,3989.743590,4035.384615
139,4406.153846,4530.256410,4531.794871,4156.410256,4515.384615,4189.743589,4430.769230,4202.051282,4227.179487,4496.923076,4190.769230,4648.205128,3989.743590,4041.025641
140,4397.435897,4525.641025,4534.871794,4162.564102,4515.384615,4186.666666,4428.205128,4201.025641,4224.102564,4488.717948,4188.717948,4649.230769,3988.205129,4039.487179
141,4398.461538,4527.692307,4537.948717,4159.487179,4520.000000,4193.333333,4435.384615,4201.025641,4225.128205,4489.743589,4191.794871,4651.794871,3986.153847,4035.384615
142,4403.076923,4528.205128,4534.358974,4158.461538,4511.794871,4189.743589,4433.846153,4203.076923,4226.666666,4485.641025,4190.256410,4648.205128,3985.128206,4034.871794
143,4398.974358,4520.000000,4530.256410,4163.076923,4504.102564,4183.589743,4433.846153,4198.974358,4223.589743,4477.435897,4193.333333,4643.076923,3980.512821,4035.897435
144,4392.820512,4518.461538,4530.256410,4158.461538,4508.205128,4184.615384,4445.128205,4190.256410,4217.435897,4477.435897,4195.384615,4641.538461,3976.410257,4035.897435
145,4391.794871,4521.025641,4527.692307,4156.923076,4509.230769,4185.128205,4429.743589,4191.794871,4220.000000,4484.615384,4186.666666,4640.512820,3975.384616,4027.179487
146,4394.358974,4524.102564,4530.769230,4168.717948,4507.692307,4186.666666,4390.769230,4197.435897,4226.666666,4490.769230,4190.256410,4642.051282,3974.358975,4019.487179
147,4397.948717,4526.666666,4536.410256,4172.307692,4509.743589,4189.230769,4395.897435,4196.923076,4224.615384,4487.692307,4204.615384,4646.666666,3975.384616,4028.205128
148,4397.948717,4521.025641,4531.794871,4163.589743,4507.692307,4183.589743,4313.333333,4195.384615,4217.948717,4473.333333,4195.897435,4648.205128,3980.512821,4036.410256
149,4398.461538,4522.051282,4529.230769,4165.128205,4506.666666,4182.564102,4083.076923,4198.974358,4221.538461,4473.846153,4187.692307,4645.641025,3988.205129,4039.487179
150,4403.076923,4535.384615,4534.358974,4168.717948,4511.794871,4191.282051,4026.153846,4205.641025,4229.743589,4493.846153,4198.461538,4647.692307,3989.230770,4041.025641
151,4402.564102,4539.487179,4534.871794,4167.692307,4514.358974,4193.846153,4216.923076,4210.769230,4232.307692,4504.102564,4205.128205,4650.256410,3986.666667,4030.256410
152,4391.282051,4530.256410,4530.256410,4167.692307,4510.769230,4186.666666,4326.153846,4206.666666,4229.743589,4493.333333,4200.000000,4647.692307,3986.153847,4023.589743
153,4390.769230,4524.615384,4530.769230,4168.205128,4507.692307,4184.102564,4303.589743,4200.000000,4226.153846,4484.102564,4199.487179,4645.128205,3982.564103,4034.358974
154,4398.461538,4522.564102,4530.769230,4167.692307,4506.666666,4188.205128,4327.692307,4197.948717,4224.102564,4491.282051,4197.948717,4643.076923,3977.948718,4036.923076
155,4395.897435,4524.102564,4526.153846,4165.641025,4510.256410,4186.666666,4358.974358,4193.846153,4222.051282,4490.256410,4188.205128,4639.487179,3976.410257,4023.589743
156,4401.025641,4533.333333,4526.666666,4168.717948,4515.897435,4185.641025,4353.846153,4193.846153,4224.615384,4483.589743,4194.871794,4643.076923,3984.615385,4024.102564
157,4405.128205,4534.871794,4532.307692,4171.282051,4512.307692,4187.179487,4362.051282,4201.538461,4225.641025,4495.897435,4207.692307,4648.717948,3993.333334,4033.846153
158,4391.282051,4524.102564,4528.717948,4168.717948,4505.641025,4184.615384,4365.128205,4197.948717,4217.435897,4504.102564,4193.846153,4638.461538,3986.666667,4031.282051
159,4385.641025,4518.974358,4522.051282,4166.666666,4509.230769,4183.076923,4364.102564,4186.153846,4213.846153,4486.153846,4178.461538,4631.794871,3971.794872,4019.487179
160,4397.948717,4527.179487,4529.230769,4168.205128,4509.230769,4185.128205,4370.769230,4188.205128,4223.589743,4478.974358,4190.256410,4643.076923,3974.358975,4021.538461
161,4404.102564,4535.384615,4539.487179,4176.410256,4506.666666,4187.179487,4378.974358,4199.487179,4231.794871,4488.717948,4204.615384,4652.820512,3990.256411,4035.897435
162,4398.974358,4533.333333,4538.461538,4185.641025,4511.282051,4187.179487,4384.615384,4203.589743,4229.743589,4485.128205,4204.615384,4654.358974,3994.358975,4038.974358
163,4397.948717,4524.102564,4533.846153,4182.564102,4511.282051,4185.641025,4385.128205,4198.974358,4221.538461,4480.000000,4201.025641,4650.256410,3988.717949,4033.846153
164,4394.871794,4520.000000,4528.205128,4170.769230,4506.153846,4184.102564,4385.128205,4190.256410,4218.974358,4481.025641,4192.307692,4639.487179,3980.000000,4030.256410
165,4388.205128,4522.564102,4523.589743,4167.179487,4506.153846,4183.076923,4387.692307,4189.230769,4218.461538,4478.461538,4185.641025,4632.820512,3971.282052,4021.538461
166,4385.641025,4521.025641,4526.666666,4168.717948,4505.641025,4181.538461,4392.307692,4195.384615,4215.384615,4482.564102,4189.743589,4638.974358,3967.179488,4015.384615
167,4387.692307,4521.538461,4531.282051,4171.282051,4505.128205,4182.564102,4397.435897,4194.871794,4217.948717,4488.205128,4192.820512,4644.615384,3971.282052,4024.615384
168,4390.256410,4524.615384,4531.282051,4175.384615,4507.179487,4186.153846,4397.948717,4188.717948,4218.461538,4477.435897,4188.717948,4642.564102,3978.974359,4032.307692
169,4381.538461,4513.333333,4523.076923,4166.153846,4506.666666,4178.461538,4392.820512,4180.512820,4205.128205,4461.538461,4177.948717,4633.333333,3972.307693,4018.461538
170,4373.846153,4503.589743,4516.410256,4157.435897,4502.564102,4172.307692,4392.820512,4175.384615,4198.974358,4465.641025,4173.333333,4626.153846,3955.897436,4005.641025
171,4383.076923,4514.871794,4526.153846,4173.846153,4503.589743,4182.564102,4405.641025,4186.153846,4211.282051,4483.076923,4187.179487,4636.923076,3958.974359,4014.871794
172,4394.871794,4525.641025,4534.358974,4187.692307,4511.282051,4189.743589,4413.846153,4203.589743,4218.974358,4485.128205,4194.871794,4646.666666,3976.923077,4027.179487
173,4389.743589,4519.487179,4527.692307,4180.000000,4511.794871,4183.589743,4409.743589,4202.051282,4216.923076,4478.974358,4183.589743,4639.487179,3976.923077,4021.538461
174,4385.128205,4519.487179,4526.666666,4175.384615,4506.153846,4182.564102,4415.897435,4196.410256,4225.128205,4487.179487,4180.000000,4636.410256,3967.692308,4016.923076
175,4396.410256,4528.717948,4536.923076,4186.666666,4511.282051,4194.871794,4429.230769,4210.769230,4235.897435,4496.923076,4193.333333,4648.717948,3976.923077,4026.666666
176,4406.666666,4526.666666,4537.948717,4195.384615,4523.589743,4202.564102,4429.743589,4220.000000,4238.974358,4497.435897,4198.461538,4655.384615,3994.871795,4035.384615
177,4401.538461,4521.025641,4531.794871,4191.794871,4521.538461,4192.820512,4423.589743,4208.205128,4238.974358,4502.564102,4200.512820,4651.794871,3996.923077,4036.410256
178,4397.435897,4529.230769,4535.897435,4187.692307,4515.384615,4187.179487,4425.128205,4203.589743,4238.974358,4510.256410,4207.179487,4651.794871,3988.205129,4040.000000
179,4401.538461,4533.846153,4540.000000,4185.128205,4516.410256,4194.358974,4425.128205,4212.307692,4236.923076,4511.282051,4206.666666,4654.871794,3985.641026,4041.538461
180,4402.564102,4530.256410,4537.948717,4186.153846,4518.974358,4194.358974,4420.512820,4208.717948,4235.384615,4500.512820,4201.025641,4657.435897,3986.666667,4033.333333
181,4397.948717,4531.794871,4539.487179,4194.871794,4516.410256,4185.641025,4420.512820,4196.923076,4231.282051,4486.153846,4202.051282,4656.410256,3987.692308,4031.282051
182,4398.974358,4529.743589,4540.000000,4198.974358,4510.256410,4186.666666,4423.589743,4199.487179,4222.564102,4489.230769,4201.025641,4650.256410,3986.153847,4038.461538
183,4400.000000,4524.615384,4533.846153,4189.743589,4512.307692,4191.282051,4424.102564,4203.076923,4220.000000,4494.358974,4191.282051,4644.102564,3982.564103,4037.948717
184,4396.410256,4526.666666,4529.743589,4178.974358,4517.948717,4187.692307,4422.564102,4198.461538,4225.128205,4489.743589,4191.794871,4646.666666,3985.641026,4034.871794
185,4400.000000,4527.692307,4533.333333,4186.666666,4512.820512,4185.128205,4426.153846,4198.461538,4232.307692,4498.974358,4204.615384,4651.282051,3991.282052,4035.384615
186,4404.615384,4528.205128,4534.358974,4197.435897,4507.179487,4188.717948,4429.230769,4202.051282,4232.307692,4512.820512,4208.717948,4650.769230,3990.256411,4037.948717
187,4397.435897,4531.794871,4533.846153,4193.846153,4511.794871,4190.256410,4426.666666,4196.923076,4225.128205,4499.487179,4196.923076,4648.205128,3986.666667,4036.410256
188,4390.769230,4526.153846,4530.256410,4183.076923,4511.794871,4186.153846,4423.076923,4189.230769,4216.923076,4483.076923,4189.230769,4641.025641,3978.974359,4025.128205
189,4393.846153,4519.487179,4525.641025,4180.512820,4506.153846,4184.615384,4425.641025,4194.358974,4213.846153,4482.564102,4192.307692,4633.846153,3972.307693,4016.410256
190,4400.000000,4528.717948,4530.256410,4186.153846,4508.205128,4187.179487,4431.794871,4204.102564,4219.487179,4484.102564,4195.384615,4639.487179,3975.897436,4023.076923
191,4400.000000,4529.743589,4534.358974,4186.666666,4513.333333,4187.179487,4429.230769,4203.589743,4226.153846,4488.205128,4195.897435,4647.692307,3983.076924,4035.384615
192,4396.410256,4522.051282,4530.256410,4181.538461,4514.358974,4186.153846,4427.179487,4200.512820,4228.717948,4488.205128,4194.358974,4644.615384,3985.128206,4036.923076
193,4399.487179,4524.102564,4530.256410,4183.076923,4510.256410,4186.666666,4430.769230,4203.076923,4223.076923,4482.564102,4201.025641,4643.076923,3980.000000,4030.256410
194,4401.025641,4524.615384,4531.794871,4187.179487,4507.692307,4185.641025,4431.794871,4201.538461,4217.948717,4482.564102,4211.282051,4644.615384,3971.794872,4025.641025
195,4390.256410,4520.512820,4521.538461,4177.948717,4510.256410,4185.128205,4429.230769,4191.794871,4217.948717,4480.512820,4199.487179,4635.897435,3969.230770,4021.538461
196,4381.538461,4520.000000,4514.871794,4168.717948,4508.205128,4184.102564,4426.666666,4187.179487,4216.410256,4473.333333,4181.538461,4629.230769,3974.358975,4018.461538
197,4386.666666,4522.051282,4521.025641,4180.000000,4504.102564,4185.641025,4425.641025,4194.358974,4220.512820,4480.000000,4189.230769,4634.358974,3977.948718,4021.025641
198,4398.974358,4521.025641,4530.256410,4192.820512,4514.871794,4188.717948,4431.794871,4203.589743,4227.179487,4495.897435,4206.666666,4641.538461,3980.000000,4033.333333
199,4401.025641,4522.051282,4529.743589,4186.666666,4521.538461,4188.717948,4434.871794,4200.000000,4220.000000,4490.256410,4201.025641,4638.461538,3969.743590,4029.230769
200,4386.666666,4522.051282,4518.461538,4176.923076,4509.743589,4185.128205,4425.128205,4186.666666,4209.743589,4472.820512,4188.205128,4632.307692,3958.974359,4011.794871
201,4381.538461,4522.051282,4518.461538,4181.025641,4508.717948,4184.615384,4421.538461,4187.179487,4218.974358,4474.871794,4190.769230,4636.923076,3975.384616,4015.384615
202,4395.897435,4526.666666,4530.769230,4188.717948,4517.948717,4187.692307,4429.230769,4196.410256,4228.205128,4492.820512,4197.435897,4643.589743,3992.307693,4032.820512
203,4403.589743,4525.128205,4531.794871,4186.666666,4511.282051,4186.666666,4429.743589,4193.846153,4220.000000,4496.923076,4195.384615,4640.000000,3983.076924,4033.333333
204,4397.435897,4518.974358,4525.128205,4184.102564,4502.564102,4184.615384,4429.230769,4191.282051,4218.974358,4488.205128,4196.410256,4636.410256,3968.717949,4023.076923
205,4396.410256,4521.025641,4529.743589,4190.769230,4509.743589,4186.666666,4433.846153,4199.487179,4226.153846,4489.743589,4210.769230,4644.615384,3970.256411,4028.717948
206,4397.948717,4524.102564,4533.846153,4190.769230,4512.820512,4186.153846,4432.307692,4200.512820,4226.153846,4493.333333,4214.358974,4646.666666,3981.538462,4041.025641
207,4392.307692,4518.974358,4527.692307,4183.589743,4505.641025,4183.589743,4426.666666,4195.384615,4221.538461,4486.153846,4203.076923,4637.948717,3991.282052,4037.435897
208,4392.307692,4523.076923,4525.128205,4187.692307,4508.205128,4183.589743,4427.692307,4198.974358,4227.692307,4488.205128,4198.974358,4637.435897,3993.333334,4033.333333
209,4397.948717,4532.820512,4526.666666,4191.282051,4514.358974,4184.102564,4426.666666,4200.000000,4229.743589,4498.461538,4200.512820,4641.025641,3986.153847,4033.846153
210,4400.000000,4529.230769,4526.153846,4188.205128,4512.307692,4184.102564,4425.641025,4194.358974,4222.051282,4493.846153,4203.589743,4642.051282,3984.102565,4028.717948
211,4396.923076,4521.025641,4525.641025,4188.205128,4512.307692,4186.666666,4429.230769,4196.410256,4221.538461,4492.307692,4207.692307,4643.589743,3987.179488,4029.743589
212,4394.871794,4518.461538,4526.153846,4189.230769,4518.974358,4186.666666,4426.153846,4197.435897,4226.153846,4501.025641,4202.051282,4645.641025,3992.820513,4042.051282
213,4395.897435,4526.666666,4530.769230,4188.205128,4522.051282,4185.641025,4424.615384,4198.461538,4230.256410,4502.051282,4202.051282,4649.230769,4001.538461,4042.051282
214,4396.923076,4534.871794,4535.897435,4188.205128,4520.000000,4190.256410,4434.358974,4206.153846,4235.897435,4505.128205,4213.846153,4652.820512,3999.487180,4032.307692
215,4397.435897,4526.666666,4533.846153,4187.179487,4520.512820,4189.743589,4436.923076,4208.205128,4232.307692,4508.205128,4212.820512,4650.256410,3985.641026,4034.358974
216,4394.358974,4513.846153,4525.641025,4185.128205,4521.538461,4185.641025,4433.333333,4203.076923,4223.076923,4502.051282,4198.974358,4641.538461,3986.666667,4041.538461
217,4393.846153,4518.974358,4527.179487,4184.615384,4520.000000,4189.230769,4440.512820,4205.128205,4226.666666,4501.538461,4196.923076,4639.487179,4001.538461,4041.025641
218,4395.897435,4528.205128,4531.794871,4184.615384,4522.051282,4190.256410,4443.076923,4208.205128,4232.820512,4505.128205,4198.974358,4641.025641,3997.948718,4038.974358
219,4390.256410,4523.589743,4527.692307,4183.589743,4522.564102,4188.717948,4435.897435,4201.538461,4224.102564,4495.384615,4196.410256,4637.948717,3980.000000,4035.897435
220,4385.128205,4519.487179,4527.692307,4184.615384,4522.051282,4190.256410,4433.846153,4194.358974,4220.512820,4485.128205,4191.794871,4636.410256,3975.384616,4028.717948
221,4388.717948,4521.538461,4532.307692,4188.717948,4522.051282,4189.743589,4433.846153,4196.410256,4220.512820,4488.717948,4189.230769,4640.512820,3986.153847,4029.230769
222,4393.846153,4521.025641,4533.333333,4192.820512,4521.538461,4184.615384,4430.256410,4197.435897,4216.923076,4498.461538,4189.743589,4643.589743,3996.410257,4040.512820
223,4394.358974,4522.564102,4531.282051,4190.769230,4522.051282,4185.128205,4430.769230,4189.230769,4213.846153,4500.512820,4190.769230,4638.461538,3989.230770,4042.564102
224,4393.846153,4525.128205,4529.743589,4187.179487,4523.589743,4187.692307,4429.743589,4186.666666,4211.794871,4489.230769,4192.307692,4632.307692,3973.846154,4028.717948
225,4390.256410,4519.487179,4529.743589,4185.128205,4523.076923,4185.128205,4427.179487,4192.307692,4212.820512,4485.128205,4193.846153,4635.384615,3974.358975,4020.000000
226,4387.692307,4515.384615,4529.230769,4187.692307,4520.512820,4184.615384,4426.666666,4194.358974,4218.974358,4495.384615,4191.794871,4641.025641,3979.487180,4024.102564
227,4392.820512,4523.076923,4527.692307,4192.307692,4519.487179,4185.128205,4428.205128,4194.358974,4219.487179,4493.846153,4185.128205,4638.974358,3974.358975,4031.282051
228,4394.358974,4524.615384,4528.205128,4189.743589,4521.025641,4183.589743,4428.205128,4194.358974,4214.871794,4483.589743,4184.102564,4634.871794,3975.384616,4036.923076
229,4391.282051,4521.025641,4531.794871,4191.794871,4522.051282,4186.153846,4429.743589,4191.794871,4216.923076,4492.820512,4190.256410,4635.897435,3985.641026,4037.948717
230,4397.435897,4527.692307,4533.846153,4199.487179,4524.615384,4192.820512,4438.461538,4196.410256,4224.615384,4511.282051,4199.487179,4643.076923,3994.358975,4037.435897
231,4401.025641,4530.256410,4532.307692,4195.384615,4526.666666,4191.794871,4442.564102,4203.076923,4223.589743,4503.589743,4203.589743,4644.615384,3994.358975,4036.923076
232,4391.794871,4522.051282,4529.230769,4190.769230,4524.615384,4188.205128,4437.435897,4196.410256,4219.487179,4488.717948,4196.923076,4641.025641,3985.641026,4037.435897
233,4392.307692,4523.076923,4531.794871,4201.025641,4524.102564,4190.769230,4438.974358,4197.435897,4224.102564,4500.512820,4198.974358,4646.666666,3986.666667,4045.641025
234,4398.461538,4527.692307,4536.410256,4198.974358,4525.641025,4195.897435,4445.641025,4205.641025,4231.794871,4511.282051,4204.615384,4652.820512,3997.948718,4046.666666
235,4397.948717,4525.641025,4532.820512,4185.128205,4524.102564,4195.897435,4444.102564,4201.025641,4230.256410,4502.564102,4200.000000,4649.230769,3998.461539,4034.358974
236,4396.410256,4522.564102,4529.743589,4190.769230,4525.641025,4196.410256,4443.076923,4196.923076,4222.564102,4500.512820,4198.461538,4647.179487,3993.333334,4033.846153
237,4392.307692,4523.076923,4540.000000,4200.000000,4526.153846,4198.461538,4444.615384,4199.487179,4224.615384,4507.692307,4204.102564,4649.743589,3989.230770,4045.128205
238,4391.282051,4529.743589,4542.051282,4199.487179,4523.589743,4198.461538,4443.589743,4202.051282,4232.307692,4506.666666,4201.025641,4648.205128,3989.743590,4041.025641
239,4397.948717,4531.794871,4533.333333,4201.025641,4528.717948,4198.461538,4443.589743,4198.974358,4225.641025,4495.897435,4196.923076,4646.153846,3992.307693,4030.769230
240,4399.487179,4522.564102,4536.410256,4201.025641,4535.384615,4197.435897,4444.102564,4197.948717,4217.435897,4481.538461,4204.102564,4647.179487,3989.230770,4036.410256
241,4394.871794,4518.974358,4544.615384,4201.538461,4534.871794,4198.974358,4445.128205,4203.076923,4229.743589,4492.820512,4207.692307,4651.282051,3987.692308,4046.666666
242,4400.512820,4532.307692,4544.102564,4210.769230,4536.923076,4201.538461,4446.153846,4205.128205,4237.435897,4520.512820,4206.153846,4659.487179,3993.846154,4050.769230
243,4400.000000,4536.923076,4538.974358,4209.230769,4533.846153,4197.435897,4441.025641,4200.512820,4228.205128,4512.820512,4202.564102,4655.897435,3993.846154,4043.589743
244,4393.846153,4529.230769,4540.512820,4198.974358,4527.179487,4191.794871,4438.974358,4203.076923,4228.205128,4496.923076,4204.102564,4648.205128,3989.743590,4038.974358
245,4405.128205,4532.820512,4546.666666,4207.179487,4533.333333,4197.948717,4445.641025,4213.846153,4236.410256,4506.153846,4212.820512,4658.974358,4000.000000,4047.692307
246,4413.846153,4543.076923,4545.128205,4220.512820,4541.025641,4202.564102,4444.615384,4210.256410,4232.307692,4503.589743,4213.333333,4666.153846,4007.692307,4048.205128
247,4405.641025,4541.538461,4539.487179,4215.384615,4538.974358,4197.948717,4438.461538,4199.487179,4226.153846,4491.282051,4207.692307,4654.358974,3994.871795,4037.435897
248,4401.025641,4529.230769,4538.461538,4209.743589,4535.384615,4192.820512,4437.435897,4198.461538,4224.102564,4495.384615,4213.846153,4648.205128,3982.051283,4042.051282
249,4405.641025,4527.179487,4542.051282,4216.410256,4534.358974,4191.794871,4435.897435,4200.512820,4225.641025,4498.974358,4220.000000,4654.871794,3989.743590,4051.794871
250,4402.051282,4536.923076,4544.102564,4218.974358,4534.871794,4193.333333,4436.410256,4201.025641,4228.205128,4497.435897,4204.615384,4657.948717,4000.512820,4044.102564
251,4395.897435,4541.538461,4538.974358,4214.358974,4536.923076,4191.282051,4442.051282,4198.974358,4224.615384,4506.153846,4190.769230,4654.871794,3997.435898,4038.974358
252,4398.974358,4535.384615,4534.871794,4212.307692,4536.410256,4189.743589,4443.076923,4195.384615,4221.025641,4509.743589,4200.512820,4654.871794,3991.282052,4047.179487
253,4406.153846,4528.717948,4540.000000,4218.461538,4537.948717,4198.461538,4444.102564,4197.435897,4228.205128,4501.538461,4218.461538,4661.025641,3988.717949,4054.358974
254,4408.717948,4529.743589,4545.128205,4222.051282,4541.025641,4204.102564,4448.205128,4205.641025,4234.871794,4499.487179,4225.641025,4663.076923,3988.205129,4046.666666
255,4401.538461,4535.384615,4542.051282,4217.435897,4539.487179,4197.435897,4446.153846,4204.102564,4230.256410,4502.564102,4213.333333,4654.358974,3992.820513,4031.794871
256,4395.897435,4540.000000,4537.435897,4214.358974,4538.461538,4195.897435,4443.589743,4200.512820,4228.717948,4505.641025,4203.076923,4651.282051,3997.948718,4036.410256
