,AF3,F7,F3,FC5,T7,P7,O1,O2,P8,T8,FC6,F4,F8,AF4
0,4378.461538,4518.461538,4542.051282,4244.102564,4495.897435,4180.000000,4428.717948,4221.025641,4241.538461,4503.076923,4242.051282,4650.769230,3997.435898,4057.435897
1,4374.871794,4514.871794,4534.358974,4243.589743,4492.307692,4177.435897,4424.102564,4221.025641,4236.923076,4497.435897,4235.897435,4645.641025,3986.153847,4049.743589
2,4358.974358,4506.153846,4529.230769,4229.230769,4486.153846,4169.230769,4417.435897,4210.256410,4217.948717,4492.307692,4225.641025,4630.769230,3975.384616,4038.461538
3,4362.564102,4512.820512,4532.307692,4228.717948,4490.256410,4171.282051,4424.102564,4213.333333,4216.923076,4496.410256,4231.282051,4635.897435,3988.717949,4042.051282
4,4374.871794,4520.512820,4537.948717,4241.538461,4494.358974,4178.974358,4431.794871,4221.538461,4227.179487,4495.897435,4243.076923,4649.230769,3996.923077,4044.615384
5,4368.717948,4508.717948,4541.538461,4240.512820,4489.743589,4176.923076,4426.153846,4213.333333,4217.948717,4484.615384,4234.871794,4645.128205,3984.102565,4038.461538
6,4370.256410,4508.717948,4542.564102,4240.000000,4491.282051,4175.897435,4425.128205,4212.307692,4220.000000,4494.358974,4241.025641,4644.615384,3990.256411,4048.717948
7,4388.205128,4529.743589,4545.641025,4250.769230,4501.538461,4186.153846,4437.948717,4232.307692,4247.179487,4517.948717,4266.153846,4656.923076,4018.974358,4066.153846
8,4393.846153,4536.410256,4551.282051,4253.846153,4508.717948,4195.384615,4446.153846,4240.512820,4254.871794,4518.974358,4256.923076,4657.948717,4027.692307,4066.153846
9,4383.589743,4524.615384,4543.076923,4249.743589,4508.717948,4189.743589,4437.948717,4225.128205,4238.461538,4508.717948,4232.307692,4647.692307,4014.358974,4056.923076
10,4376.923076,4518.974358,4528.205128,4247.692307,4500.512820,4183.076923,4427.179487,4213.333333,4231.282051,4503.589743,4241.538461,4639.487179,3998.461539,4050.769230
11,4371.282051,4521.025641,4524.102564,4237.948717,4494.358974,4185.128205,4428.205128,4213.333333,4229.230769,4498.461538,4249.230769,4631.794871,3984.102565,4041.025641
12,4365.641025,4517.435897,4527.179487,4229.743589,4496.410256,4183.076923,4428.717948,4212.820512,4222.051282,4496.410256,4233.333333,4633.846153,3981.538462,4034.871794
13,4370.769230,4515.897435,4530.256410,4241.025641,4497.435897,4179.487179,4421.025641,4214.871794,4228.205128,4504.615384,4230.769230,4646.153846,3996.923077,4042.564102
14,4376.410256,4517.435897,4530.769230,4249.743589,4491.794871,4178.974358,4416.923076,4218.974358,4239.487179,4509.743589,4238.461538,4649.743589,4001.538461,4047.179487
15,4375.897435,4521.025641,4531.794871,4247.179487,4491.794871,4181.025641,4423.589743,4218.461538,4239.487179,4509.743589,4248.717948,4644.102564,3990.256411,4041.538461
16,4379.487179,4523.589743,4531.794871,4246.666666,4495.897435,4185.641025,4429.743589,4220.512820,4235.897435,4509.743589,4256.410256,4646.153846,3992.307693,4040.000000
17,4383.076923,4522.564102,4530.769230,4249.230769,4493.333333,4186.153846,4428.717948,4225.128205,4231.794871,4507.179487,4240.512820,4648.717948,4000.512820,4043.076923
18,4375.897435,4517.948717,4529.743589,4245.128205,4490.256410,4178.974358,4424.615384,4222.051282,4224.102564,4497.435897,4224.102564,4640.000000,3996.410257,4037.435897
19,4369.743589,4513.846153,4529.230769,4244.615384,4491.282051,4176.410256,4424.102564,4218.461538,4223.076923,4494.358974,4238.974358,4634.871794,3990.256411,4031.794871
20,4375.384615,4513.846153,4533.846153,4249.230769,4491.282051,4180.000000,4426.666666,4223.589743,4230.769230,4502.564102,4249.230769,4645.128205,3991.794872,4039.487179
21,4377.948717,4512.820512,4533.846153,4242.051282,4486.666666,4176.923076,4424.102564,4222.051282,4227.692307,4503.589743,4238.461538,4649.230769,3993.333334,4043.076923
22,4375.897435,4512.307692,4531.282051,4235.897435,4483.076923,4171.282051,4420.000000,4212.820512,4218.974358,4497.948717,4237.948717,4642.051282,3991.282052,4036.923076
23,4377.435897,4511.282051,4533.846153,4243.076923,4487.692307,4172.820512,4424.102564,4213.846153,4222.051282,4503.589743,4244.102564,4642.564102,3993.846154,4039.487179
24,4380.000000,4512.307692,4536.923076,4247.692307,4492.307692,4179.487179,4428.717948,4217.948717,4228.205128,4511.282051,4246.666666,4647.179487,3995.897436,4047.179487
25,4376.923076,4515.384615,4534.871794,4243.076923,4491.282051,4181.538461,4427.692307,4214.871794,4228.717948,4504.102564,4243.076923,4642.051282,3990.256411,4040.512820
26,4372.307692,4513.333333,4532.307692,4237.948717,4490.769230,4177.948717,4428.205128,4215.384615,4229.230769,4496.923076,4229.743589,4635.384615,3988.205129,4033.333333
27,4366.666666,4507.692307,4530.256410,4233.846153,4492.820512,4175.384615,4429.230769,4217.948717,4220.512820,4494.871794,4223.076923,4631.794871,3988.717949,4031.794871
28,4361.538461,4503.589743,4526.153846,4233.846153,4486.666666,4176.923076,4427.179487,4216.410256,4214.358974,4484.102564,4228.717948,4628.717948,3978.974359,4024.102564
29,4363.076923,4505.641025,4525.128205,4236.923076,4481.538461,4174.358974,4426.666666,4216.410256,4220.000000,4480.512820,4232.307692,4629.743589,3972.307693,4023.076923
30,4359.487179,4501.538461,4526.153846,4231.794871,4483.076923,4166.666666,4420.000000,4215.897435,4216.410256,4491.282051,4228.717948,4630.256410,3977.948718,4028.717948
31,4355.384615,4495.897435,4528.205128,4230.256410,4481.538461,4167.692307,4414.358974,4214.871794,4212.820512,4499.487179,4224.615384,4627.692307,3980.000000,4025.641025
32,4361.025641,4497.948717,4530.769230,4233.333333,4476.410256,4171.282051,4416.410256,4217.435897,4222.564102,4497.948717,4223.589743,4628.205128,3975.897436,4023.589743
33,4364.615384,4501.538461,4529.743589,4231.282051,4475.384615,4165.641025,4416.923076,4213.846153,4223.076923,4493.333333,4224.102564,4628.717948,3979.487180,4030.769230
34,4362.564102,4503.076923,4529.743589,4231.794871,4478.974358,4163.076923,4412.820512,4209.230769,4215.384615,4493.846153,4227.179487,4626.666666,3986.153847,4033.846153
35,4361.025641,4501.025641,4531.282051,4231.794871,4476.923076,4164.102564,4411.794871,4211.794871,4214.358974,4491.282051,4229.743589,4625.128205,3978.461539,4027.179487
36,4356.923076,4492.307692,4526.666666,4223.589743,4467.179487,4158.974358,4408.717948,4208.205128,4207.692307,4479.487179,4226.666666,4622.564102,3964.615385,4021.025641
37,4352.307692,4486.153846,4518.974358,4216.923076,4464.615384,4151.282051,4398.974358,4197.435897,4201.025641,4476.410256,4214.358974,4616.410256,3963.589744,4017.948717
38,4352.820512,4489.743589,4518.974358,4218.974358,4467.179487,4151.282051,4395.384615,4195.384615,4207.692307,4480.512820,4209.230769,4616.410256,3969.230770,4016.410256
39,4349.743589,4487.179487,4518.974358,4217.948717,4463.076923,4154.358974,4395.384615,4195.384615,4201.025641,4470.769230,4206.666666,4616.410256,3965.128206,4013.333333
40,4340.512820,4478.461538,4510.256410,4212.307692,4461.538461,4151.794871,4390.256410,4184.102564,4183.589743,4459.487179,4195.384615,4611.282051,3949.230770,4006.153846
41,4343.589743,4485.128205,4507.692307,4214.358974,4471.794871,4152.307692,4394.358974,4180.512820,4187.692307,4468.205128,4202.564102,4612.307692,3950.256411,4008.717948
42,4357.435897,4494.871794,4517.435897,4222.051282,4480.000000,4163.589743,4409.743589,4193.333333,4206.666666,4482.051282,4218.974358,4617.435897,3978.461539,4025.641025
43,4356.923076,4495.897435,4516.410256,4218.461538,4472.820512,4167.692307,4412.820512,4202.051282,4214.871794,4483.589743,4219.487179,4617.948717,3988.717949,4030.769230
44,4345.641025,4492.307692,4501.025641,4205.641025,4462.564102,4157.948717,4400.000000,4200.000000,4209.230769,4480.512820,4215.897435,4614.358974,3966.666667,4013.333333
45,4345.128205,4487.692307,4502.564102,4206.666666,4465.128205,4152.307692,4400.000000,4197.948717,4202.051282,4481.025641,4214.871794,4613.846153,3960.000000,4005.128205
46,4353.333333,4490.769230,4512.820512,4218.974358,4470.769230,4156.410256,4408.717948,4201.538461,4201.025641,4482.564102,4220.000000,4617.948717,3973.333334,4014.871794
47,4347.692307,4494.871794,4502.564102,4214.871794,4469.743589,4156.410256,4403.076923,4200.000000,4202.051282,4478.461538,4219.487179,4616.923076,3968.205129,4011.282051
48,4336.410256,4490.769230,4495.384615,4207.179487,4468.717948,4153.333333,4395.384615,4196.410256,4204.615384,4472.820512,4203.076923,4611.794871,3955.897436,4001.538461
49,4340.512820,4491.282051,4506.666666,4211.794871,4468.717948,4155.897435,4403.589743,4198.974358,4207.692307,4474.358974,4195.897435,4612.307692,3960.000000,4007.692307
50,4349.230769,4499.487179,4510.769230,4220.000000,4466.666666,4157.948717,4410.769230,4200.000000,4202.564102,4478.461538,4210.256410,4616.923076,3970.256411,4016.410256
51,4352.820512,4504.615384,4510.256410,4225.128205,4468.717948,4161.025641,4410.256410,4198.461538,4198.461538,4480.000000,4207.692307,4616.923076,3972.307693,4018.974358
52,4355.384615,4510.769230,4515.897435,4223.076923,4477.948717,4165.641025,4414.358974,4201.025641,4202.051282,4484.615384,4196.410256,4615.897435,3967.179488,4022.051282
53,4354.358974,4515.897435,4515.897435,4218.974358,4480.512820,4166.153846,4414.871794,4200.000000,4200.512820,4486.153846,4207.179487,4616.410256,3958.974359,4017.948717
54,4355.384615,4514.871794,4516.410256,4227.179487,4478.461538,4167.179487,4412.307692,4190.256410,4200.000000,4482.051282,4214.358974,4618.461538,3962.564103,4016.923076
55,4359.487179,4514.358974,4517.948717,4235.384615,4477.435897,4169.230769,4413.846153,4189.743589,4203.076923,4481.025641,4202.051282,4617.948717,3974.871795,4026.153846
56,4350.256410,4511.282051,4512.307692,4224.102564,4475.384615,4163.589743,4411.282051,4195.384615,4200.512820,4482.564102,4195.384615,4610.769230,3969.743590,4022.051282
57,4341.538461,4510.256410,4508.717948,4216.410256,4475.384615,4158.974358,4408.717948,4197.948717,4203.076923,4483.076923,4203.076923,4609.230769,3960.512821,4014.871794
58,4350.256410,4514.358974,4513.846153,4224.102564,4481.538461,4165.128205,4418.461538,4206.666666,4214.358974,4487.692307,4209.743589,4615.897435,3970.256411,4022.051282
59,4358.461538,4513.333333,4515.897435,4224.102564,4488.205128,4172.307692,4426.153846,4215.384615,4217.948717,4493.846153,4213.846153,4621.538461,3980.000000,4027.179487
60,4354.871794,4509.230769,4514.358974,4217.948717,4487.179487,4172.820512,4425.128205,4216.410256,4217.948717,4493.846153,4219.487179,4623.076923,3973.846154,4026.153846
61,4349.743589,4504.102564,4513.846153,4217.948717,4482.051282,4167.179487,4421.538461,4211.794871,4216.923076,4490.769230,4215.384615,4621.538461,3967.179488,4028.205128
62,4343.589743,4497.435897,4509.743589,4218.461538,4478.461538,4161.025641,4415.384615,4203.589743,4208.205128,4485.128205,4201.025641,4615.897435,3967.692308,4024.615384
63,4341.025641,4494.871794,4506.666666,4214.871794,4477.948717,4164.615384,4412.820512,4198.974358,4200.512820,4476.923076,4192.307692,4613.846153,3966.666667,4017.948717
64,4344.102564,4495.897435,4510.256410,4216.923076,4479.487179,4168.205128,4414.871794,4197.948717,4196.923076,4470.256410,4197.948717,4615.897435,3961.025642,4018.461538
65,4344.615384,4493.846153,4513.846153,4220.512820,4477.435897,4163.076923,4416.410256,4195.384615,4193.846153,4472.307692,4205.128205,4614.871794,3952.820513,4019.487179
66,4341.538461,4496.923076,4513.333333,4215.897435,4472.820512,4162.051282,4419.487179,4196.410256,4193.846153,4479.487179,4198.461538,4612.820512,3949.230770,4013.333333
67,4345.128205,4498.974358,4512.820512,4214.871794,4477.948717,4169.743589,4421.538461,4203.589743,4201.538461,4481.538461,4194.871794,4614.358974,3958.461539,4010.769230
68,4348.717948,4492.820512,4513.333333,4219.487179,4483.076923,4172.307692,4417.948717,4205.641025,4209.743589,4480.512820,4205.641025,4616.923076,3969.743590,4015.897435
69,4338.974358,4486.153846,4511.282051,4214.871794,4476.923076,4162.564102,4410.256410,4198.461538,4203.076923,4475.897435,4207.692307,4609.230769,3961.538462,4012.307692
70,4332.820512,4492.820512,4508.717948,4208.717948,4471.282051,4155.897435,4407.179487,4192.307692,4194.358974,4473.333333,4201.025641,4602.564102,3947.179488,4004.615384
71,4343.076923,4502.564102,4511.282051,4215.384615,4473.846153,4163.076923,4410.256410,4193.846153,4195.897435,4476.923076,4205.128205,4612.307692,3953.846154,4011.794871
72,4348.717948,4500.512820,4513.846153,4219.487179,4476.923076,4169.743589,4414.358974,4200.000000,4201.538461,4482.051282,4204.615384,4618.461538,3966.153847,4015.384615
73,4343.589743,4500.000000,4514.358974,4216.410256,4483.589743,4167.692307,4413.333333,4201.538461,4202.051282,4485.128205,4200.512820,4613.333333,3959.487180,4009.230769
74,4345.641025,4506.666666,4516.410256,4219.487179,4489.230769,4168.205128,4412.820512,4198.461538,4202.564102,4486.153846,4209.230769,4615.384615,3954.871795,4014.871794
75,4346.153846,4500.512820,4515.897435,4218.974358,4482.051282,4170.256410,4411.282051,4195.897435,4204.615384,4483.076923,4208.717948,4618.974358,3964.615385,4019.487179
76,4338.461538,4493.333333,4511.282051,4212.307692,4479.487179,4167.179487,4404.615384,4194.358974,4201.538461,4480.000000,4201.538461,4613.846153,3966.666667,4011.282051
77,4344.615384,4503.589743,4513.333333,4222.051282,4489.230769,4168.205128,4411.282051,4200.512820,4200.000000,4487.179487,4211.794871,4615.897435,3964.102565,4014.358974
78,4360.000000,4510.769230,4524.102564,4238.461538,4491.794871,4174.871794,4426.153846,4211.282051,4211.794871,4498.461538,4222.051282,4628.717948,3975.897436,4030.256410
79,4367.692307,4512.820512,4532.820512,4237.948717,4491.282051,4181.538461,4430.769230,4217.435897,4230.769230,4503.076923,4224.102564,4635.897435,3987.692308,4038.461538
80,4368.205128,4523.589743,4531.282051,4231.794871,4494.871794,4185.641025,4427.179487,4219.487179,4233.333333,4501.538461,4232.820512,4633.846153,3987.692308,4038.974358
81,4366.666666,4529.230769,4526.153846,4233.333333,4493.846153,4184.615384,4427.692307,4216.923076,4219.487179,4499.487179,4235.384615,4630.256410,3985.641026,4034.871794
82,4364.102564,4520.000000,4520.512820,4234.871794,4491.282051,4177.435897,4423.076923,4209.230769,4207.179487,4492.820512,4222.051282,4624.102564,3982.564103,4027.692307
83,4357.435897,4513.846153,4516.410256,4233.333333,4491.794871,4177.435897,4415.384615,4201.025641,4205.128205,4481.025641,4215.897435,4617.435897,3971.794872,4024.102564
84,4355.384615,4515.897435,4520.512820,4231.794871,4489.743589,4178.461538,4417.948717,4200.000000,4207.692307,4485.128205,4220.512820,4618.461538,3968.205129,4025.128205
85,4357.948717,4515.384615,4526.153846,4232.307692,4490.256410,4173.846153,4423.076923,4201.538461,4208.717948,4494.358974,4217.948717,4622.564102,3975.897436,4028.205128
86,4356.410256,4508.717948,4526.153846,4233.846153,4491.794871,4174.358974,4423.076923,4204.102564,4211.282051,4491.282051,4216.410256,4622.564102,3975.897436,4028.205128
87,4356.923076,4506.153846,4526.666666,4234.871794,4490.256410,4177.948717,4424.615384,4209.230769,4218.974358,4487.179487,4224.102564,4627.692307,3969.743590,4025.641025
88,4358.974358,4508.717948,4528.717948,4234.358974,4490.256410,4178.974358,4427.179487,4211.282051,4221.025641,4489.230769,4229.743589,4632.820512,3971.282052,4025.641025
89,4355.897435,4507.179487,4528.205128,4230.256410,4491.282051,4176.923076,4424.102564,4210.769230,4214.358974,4484.615384,4226.153846,4628.205128,3976.923077,4025.641025
90,4355.384615,4506.153846,4528.717948,4228.205128,4489.230769,4174.871794,4422.564102,4215.384615,4215.384615,4480.512820,4218.974358,4626.666666,3973.846154,4024.102564
91,4361.025641,4510.769230,4533.333333,4240.000000,4491.282051,4174.871794,4427.692307,4218.974358,4221.538461,4486.153846,4220.512820,4634.871794,3966.666667,4028.717948
92,4360.512820,4514.871794,4533.333333,4241.538461,4489.743589,4175.897435,4424.615384,4210.769230,4214.871794,4486.153846,4225.641025,4637.435897,3971.282052,4033.333333
93,4356.410256,4509.743589,4525.128205,4225.128205,4483.076923,4172.307692,4413.333333,4198.461538,4200.000000,4474.358974,4224.102564,4624.615384,3973.846154,4024.615384
94,4356.923076,4501.025641,4521.538461,4218.974358,4481.538461,4166.666666,4410.256410,4197.435897,4202.564102,4472.820512,4224.102564,4617.948717,3967.692308,4021.025641
95,4356.410256,4504.615384,4527.692307,4225.128205,4483.076923,4171.282051,4417.435897,4204.102564,4213.846153,4484.615384,4228.717948,4628.205128,3971.794872,4029.743589
96,4353.333333,4508.717948,4527.179487,4225.641025,4481.538461,4171.794871,4415.384615,4203.589743,4211.794871,4481.538461,4221.538461,4631.282051,3977.948718,4025.128205
97,4351.282051,4499.487179,4521.538461,4222.051282,4474.871794,4161.538461,4408.717948,4200.000000,4208.205128,4469.743589,4214.871794,4622.564102,3969.743590,4015.897435
98,4353.333333,4491.282051,4525.641025,4225.641025,4473.333333,4157.948717,4411.282051,4203.589743,4218.974358,4477.948717,4217.948717,4622.051282,3969.230770,4022.564102
99,4357.948717,4498.461538,4528.717948,4228.717948,4482.051282,4165.128205,4414.871794,4204.615384,4220.512820,4487.179487,4217.948717,4628.717948,3978.974359,4029.743589
100,4360.512820,4507.692307,4522.564102,4229.230769,4485.128205,4172.307692,4414.358974,4202.051282,4209.743589,4482.051282,4228.205128,4628.717948,3977.948718,4025.641025
101,4361.025641,4509.230769,4518.974358,4233.846153,4478.461538,4169.743589,4413.333333,4203.076923,4209.230769,4477.948717,4236.923076,4624.102564,3976.410257,4026.153846
102,4350.769230,4501.538461,4514.358974,4227.692307,4473.846153,4164.615384,4407.692307,4196.410256,4206.666666,4472.307692,4217.948717,4616.410256,3972.307693,4022.564102
103,4341.538461,4495.384615,4507.179487,4218.974358,4479.487179,4164.102564,4404.615384,4188.717948,4201.025641,4466.666666,4209.230769,4608.717948,3963.589744,4012.820512
104,4347.692307,4502.564102,4509.743589,4224.102564,4486.153846,4169.743589,4411.282051,4197.435897,4207.179487,4469.743589,4227.179487,4610.256410,3971.282052,4016.923076
105,4353.333333,4508.205128,4515.384615,4231.794871,4483.076923,4170.256410,4413.846153,4200.512820,4210.256410,4475.384615,4227.179487,4613.333333,3982.051283,4023.076923
106,4353.846153,4502.051282,4515.384615,4228.205128,4480.000000,4164.102564,4409.230769,4196.410256,4208.205128,4476.410256,4216.410256,4615.897435,3976.410257,4021.025641
107,4358.974358,4502.051282,4517.948717,4228.717948,4482.051282,4166.153846,4410.256410,4203.589743,4211.282051,4475.897435,4229.230769,4620.512820,3975.897436,4025.641025
108,4358.461538,4508.717948,4520.000000,4234.871794,4485.128205,4172.307692,4415.897435,4210.256410,4215.897435,4479.487179,4240.000000,4622.564102,3991.794872,4031.794871
109,4352.307692,4507.692307,4516.923076,4231.282051,4484.102564,4170.769230,4415.897435,4206.153846,4212.307692,4484.615384,4231.794871,4618.461538,3991.794872,4024.102564
110,4347.692307,4501.025641,4509.230769,4225.641025,4480.512820,4163.589743,4407.692307,4196.923076,4203.589743,4477.948717,4223.076923,4611.794871,3973.846154,4015.897435
111,4342.564102,4494.871794,4503.076923,4217.948717,4476.410256,4161.025641,4400.512820,4191.282051,4201.025641,4464.615384,4218.974358,4608.717948,3965.128206,4012.307692
112,4341.538461,4486.666666,4508.717948,4212.307692,4474.358974,4162.051282,4406.153846,4194.871794,4208.205128,4466.666666,4215.384615,4612.820512,3966.666667,4012.820512
113,4350.769230,4493.333333,4520.512820,4225.128205,4478.461538,4164.615384,4415.384615,4205.128205,4212.307692,4478.974358,4217.948717,4623.076923,3971.282052,4021.538461
114,4354.871794,4506.153846,4521.538461,4235.897435,4477.435897,4165.641025,4413.333333,4203.589743,4205.128205,4474.871794,4218.461538,4625.641025,3972.307693,4025.641025
115,4348.205128,4495.897435,4516.410256,4223.589743,4472.820512,4160.512820,4409.743589,4198.974358,4205.128205,4470.769230,4214.871794,4618.974358,3970.256411,4017.435897
116,4345.128205,4483.589743,4514.871794,4214.358974,4474.871794,4158.974358,4411.794871,4202.564102,4208.717948,4478.461538,4214.871794,4615.384615,3969.743590,4014.358974
117,4350.769230,4494.358974,4514.871794,4221.538461,4478.461538,4164.615384,4409.743589,4197.948717,4198.974358,4471.282051,4215.384615,4616.410256,3971.282052,4017.435897
118,4354.358974,4501.025641,4513.333333,4223.589743,4477.435897,4162.051282,4405.128205,4192.307692,4195.897435,4460.512820,4215.384615,4616.923076,3968.717949,4017.948717
119,4350.769230,4490.256410,4511.282051,4217.435897,4472.307692,4153.846153,4405.128205,4196.923076,4206.666666,4469.230769,4209.230769,4613.846153,3962.564103,4014.358974
120,4345.128205,4488.205128,4510.256410,4215.384615,4471.282051,4161.538461,4409.743589,4201.025641,4208.205128,4472.820512,4195.384615,4612.307692,3965.128206,4013.333333
121,4345.641025,4498.461538,4512.307692,4217.948717,4478.974358,4173.333333,4414.871794,4202.051282,4201.025641,4466.666666,4200.000000,4612.820512,3973.846154,4017.435897
122,4354.358974,4502.051282,4516.410256,4227.179487,4485.128205,4170.769230,4420.512820,4204.102564,4200.512820,4469.230769,4224.102564,4618.461538,3973.846154,4017.948717
123,4353.846153,4497.435897,4511.794871,4228.205128,4482.051282,4166.153846,4419.487179,4196.923076,4194.871794,4467.179487,4226.153846,4618.974358,3965.128206,4010.769230
124,4337.948717,4489.230769,4499.487179,4216.410256,4475.384615,4166.666666,4406.153846,4183.076923,4182.564102,4452.820512,4203.589743,4607.692307,3954.871795,4003.589743
125,4337.435897,4490.769230,4497.948717,4212.820512,4472.820512,4162.564102,4402.564102,4187.179487,4188.717948,4451.794871,4195.897435,4605.641025,3952.307693,4006.666666
126,4352.307692,4497.435897,4504.615384,4218.461538,4474.871794,4158.974358,4412.820512,4202.051282,4208.717948,4466.153846,4204.615384,4616.410256,3962.051283,4018.461538
127,4353.846153,4492.820512,4504.102564,4221.025641,4474.358974,4160.000000,4413.333333,4202.051282,4212.820512,4471.794871,4211.794871,4619.487179,3970.256411,4019.487179
128,4345.641025,4489.230769,4499.487179,4220.512820,4470.769230,4158.974358,4407.179487,4195.897435,4201.025641,4466.666666,4216.410256,4615.384615,3965.641026,4010.256410
129,4347.692307,4494.358974,4503.589743,4220.000000,4469.230769,4160.000000,4411.282051,4204.102564,4202.564102,4466.666666,4213.846153,4616.923076,3966.153847,4010.256410
130,4348.717948,4492.307692,4509.230769,4216.410256,4475.384615,4165.641025,4415.384615,4211.282051,4214.871794,4473.846153,4213.846153,4618.461538,3970.769231,4013.846153
131,4345.128205,4486.153846,4509.230769,4217.948717,4478.974358,4166.153846,4412.820512,4204.102564,4212.307692,4476.410256,4220.000000,4612.820512,3964.615385,4006.666666
132,4348.205128,4495.897435,4510.769230,4224.615384,4475.897435,4163.589743,4415.897435,4204.102564,4206.153846,4473.333333,4212.820512,4615.897435,3964.615385,4002.051282
133,4351.794871,4504.102564,4514.358974,4222.051282,4477.435897,4169.743589,4418.461538,4209.230769,4207.179487,4470.769230,4208.205128,4622.051282,3973.846154,4009.743589
134,4352.307692,4499.487179,4515.384615,4221.025641,4478.461538,4172.820512,4415.897435,4206.153846,4206.666666,4468.717948,4227.179487,4620.512820,3973.846154,4018.974358
135,4354.358974,4498.461538,4515.897435,4230.769230,4474.871794,4165.128205,4410.769230,4199.487179,4201.025641,4466.666666,4230.769230,4616.923076,3969.230770,4020.512820
136,4353.333333,4495.897435,4508.717948,4228.717948,4474.871794,4162.051282,4400.512820,4191.794871,4191.282051,4464.102564,4213.333333,4615.384615,3965.128206,4014.358974
137,4351.794871,4495.384615,4504.102564,4219.487179,4476.923076,4166.153846,4396.923076,4188.205128,4189.743589,4462.564102,4216.410256,4613.846153,3962.564103,4012.820512
138,4362.051282,4506.153846,4515.384615,4232.307692,4475.384615,4169.230769,4410.769230,4201.025641,4208.717948,4472.307692,4227.179487,4623.589743,3976.410257,4024.102564
139,4372.820512,4513.333333,4525.128205,4243.589743,4481.025641,4173.846153,4424.615384,4219.487179,4225.128205,4489.743589,4227.692307,4639.487179,3995.897436,4037.435897
140,4365.641025,4506.666666,4517.948717,4232.820512,4484.615384,4175.897435,4419.487179,4217.948717,4216.923076,4487.692307,4226.153846,4636.410256,3993.333334,4036.923076
141,4356.923076,4504.102564,4512.307692,4228.205128,4478.974358,4170.769230,4411.282051,4206.153846,4206.153846,4473.333333,4229.230769,4625.128205,3980.000000,4026.666666
142,4360.512820,4507.692307,4517.435897,4233.333333,4483.076923,4172.820512,4415.897435,4205.128205,4210.769230,4478.461538,4236.410256,4625.641025,3978.461539,4025.128205
143,4363.589743,4505.641025,4516.410256,4231.282051,4487.692307,4176.410256,4415.897435,4206.153846,4214.871794,4485.128205,4237.435897,4625.641025,3978.974359,4031.282051
144,4365.128205,4508.717948,4514.358974,4230.769230,4480.000000,4171.282051,4409.743589,4206.153846,4215.897435,4476.923076,4223.589743,4624.615384,3979.487180,4031.794871
145,4373.846153,4523.589743,4523.589743,4240.512820,4480.512820,4171.794871,4415.897435,4210.256410,4218.974358,4477.435897,4220.000000,4634.358974,3985.641026,4033.846153
146,4381.538461,4531.794871,4532.307692,4244.615384,4493.846153,4185.128205,4428.205128,4217.435897,4217.948717,4490.769230,4241.025641,4643.076923,3987.692308,4043.076923
147,4383.589743,4534.358974,4535.384615,4249.230769,4502.564102,4193.846153,4430.769230,4222.051282,4223.589743,4495.897435,4250.256410,4644.102564,3988.205129,4051.794871
148,4391.794871,4545.641025,4544.102564,4260.000000,4506.153846,4193.846153,4435.897435,4230.769230,4236.410256,4503.076923,4246.666666,4652.307692,3997.435898,4057.948717
149,4402.564102,4553.846153,4549.230769,4260.512820,4508.717948,4195.384615,4444.615384,4238.461538,4244.102564,4514.871794,4254.358974,4659.487179,4007.179487,4062.564102
150,4395.897435,4548.717948,4542.051282,4252.307692,4506.153846,4196.410256,4440.512820,4232.307692,4241.025641,4511.282051,4251.794871,4650.769230,4000.512820,4057.948717
151,4386.153846,4549.230769,4541.025641,4256.410256,4508.717948,4202.051282,4439.487179,4228.717948,4236.923076,4506.153846,4236.410256,4644.615384,3992.307693,4053.846153
152,4394.358974,4557.435897,4545.128205,4269.743589,4514.358974,4206.153846,4448.205128,4236.923076,4236.923076,4512.307692,4240.512820,4651.282051,3997.948718,4061.025641
153,4393.846153,4550.769230,4537.948717,4266.666666,4508.717948,4198.461538,4439.487179,4232.820512,4232.307692,4508.717948,4252.307692,4645.128205,4000.000000,4058.974358
154,4378.461538,4537.435897,4528.205128,4253.846153,4497.948717,4187.692307,4425.641025,4218.974358,4222.564102,4495.897435,4238.974358,4633.333333,3989.743590,4046.666666
155,4378.974358,4534.871794,4530.769230,4252.820512,4501.025641,4187.179487,4429.743589,4221.538461,4221.538461,4496.410256,4232.820512,4641.538461,3985.641026,4048.717948
156,4391.282051,4538.974358,4537.435897,4256.410256,4504.615384,4190.769230,4432.307692,4232.820512,4233.333333,4507.179487,4247.692307,4652.307692,3994.871795,4061.025641
157,4388.717948,4540.000000,4535.897435,4250.769230,4495.897435,4183.589743,4424.615384,4231.794871,4237.435897,4512.307692,4254.871794,4649.743589,4001.538461,4063.076923
158,4377.435897,4530.769230,4530.769230,4243.076923,4493.333333,4177.435897,4423.589743,4223.589743,4228.205128,4506.153846,4243.589743,4643.589743,4000.512820,4051.282051
159,4374.358974,4521.538461,4530.769230,4245.128205,4495.897435,4182.564102,4428.717948,4219.487179,4223.589743,4501.025641,4235.384615,4643.589743,3994.871795,4043.076923
160,4381.025641,4527.692307,4538.974358,4248.205128,4492.307692,4184.615384,4429.743589,4224.102564,4222.564102,4502.051282,4243.076923,4647.179487,3988.205129,4047.692307
161,4387.692307,4533.333333,4541.538461,4249.230769,4486.666666,4183.076923,4429.743589,4224.615384,4218.461538,4501.538461,4247.179487,4651.282051,3989.743590,4053.846153
162,4389.230769,4529.230769,4536.410256,4251.794871,4494.358974,4185.128205,4429.743589,4223.589743,4225.128205,4505.128205,4240.512820,4652.820512,3997.948718,4054.871794
163,4390.769230,4530.256410,4540.000000,4254.358974,4501.025641,4186.666666,4430.769230,4227.179487,4235.384615,4512.820512,4245.128205,4656.410256,4002.051282,4060.000000
164,4393.333333,4539.487179,4546.666666,4260.512820,4496.923076,4185.641025,4430.769230,4227.692307,4228.205128,4513.333333,4260.000000,4659.487179,3996.410257,4065.641025
165,4391.794871,4545.128205,4546.153846,4265.128205,4498.974358,4187.692307,4428.717948,4222.564102,4218.461538,4505.641025,4255.897435,4653.846153,3989.230770,4063.076923
166,4390.769230,4544.102564,4541.538461,4263.589743,4504.102564,4190.256410,4428.205128,4222.564102,4222.051282,4502.564102,4238.461538,4648.717948,3992.820513,4062.051282
167,4388.205128,4541.025641,4533.333333,4254.871794,4500.000000,4189.230769,4427.692307,4220.512820,4223.076923,4504.102564,4241.538461,4647.692307,3999.487180,4060.000000
168,4380.000000,4533.846153,4527.692307,4247.179487,4493.846153,4188.205128,4426.153846,4212.820512,4216.923076,4503.076923,4248.205128,4645.641025,3995.897436,4050.256410
169,4379.487179,4529.230769,4530.256410,4247.179487,4493.846153,4187.692307,4426.666666,4215.384615,4221.538461,4505.128205,4238.461538,4641.025641,3988.205129,4045.641025
170,4383.589743,4531.282051,4531.282051,4254.871794,4495.897435,4186.666666,4429.743589,4220.512820,4228.205128,4508.205128,4235.897435,4638.974358,3983.589744,4046.666666
171,4380.000000,4534.871794,4530.256410,4259.487179,4499.487179,4184.615384,4429.230769,4217.435897,4222.051282,4502.051282,4245.128205,4643.589743,3982.051283,4047.179487
172,4373.846153,4529.743589,4529.743589,4253.333333,4499.487179,4186.153846,4425.128205,4215.897435,4216.410256,4495.384615,4247.179487,4646.666666,3986.666667,4048.717948
173,4374.358974,4520.000000,4526.666666,4244.615384,4490.256410,4184.102564,4423.076923,4215.384615,4215.384615,4495.384615,4244.102564,4643.076923,3989.743590,4051.794871
174,4376.410256,4520.512820,4525.128205,4243.076923,4485.128205,4173.846153,4426.666666,4215.897435,4213.846153,4493.846153,4246.153846,4637.435897,3986.666667,4052.307692
175,4376.923076,4524.102564,4526.153846,4244.615384,4488.205128,4174.871794,4428.717948,4221.025641,4221.538461,4497.435897,4245.128205,4641.538461,3984.102565,4051.794871
176,4378.461538,4522.564102,4529.230769,4244.102564,4484.615384,4181.025641,4426.153846,4229.743589,4236.923076,4512.307692,4243.076923,4648.717948,3985.128206,4048.717948
177,4378.461538,4523.076923,4532.820512,4246.666666,4481.538461,4176.410256,4427.179487,4235.897435,4242.051282,4517.948717,4253.846153,4648.205128,3990.769231,4048.717948
178,4375.897435,4524.102564,4530.256410,4247.692307,4487.692307,4174.358974,4427.179487,4233.333333,4232.307692,4506.153846,4259.487179,4646.153846,3998.461539,4055.384615
179,4372.307692,4520.000000,4525.128205,4246.666666,4490.256410,4179.487179,4417.948717,4220.000000,4224.102564,4496.923076,4247.692307,4646.666666,3997.435898,4055.384615
180,4366.666666,4514.358974,4523.076923,4251.282051,4486.153846,4175.384615,4412.307692,4210.769230,4217.948717,4494.871794,4232.307692,4642.051282,3981.538462,4043.589743
181,4358.461538,4508.717948,4516.410256,4246.153846,4480.000000,4166.153846,4412.820512,4208.205128,4208.717948,4487.692307,4228.205128,4632.307692,3967.692308,4032.820512
182,4358.461538,4509.230769,4509.743589,4235.384615,4481.025641,4171.282051,4414.871794,4209.230769,4209.230769,4483.589743,4231.794871,4630.769230,3975.384616,4037.435897
183,4364.615384,4517.435897,4511.282051,4238.974358,4487.179487,4180.512820,4418.461538,4212.307692,4216.410256,4487.179487,4234.871794,4632.820512,3983.076924,4044.102564
184,4363.076923,4517.435897,4513.333333,4243.589743,4486.153846,4175.897435,4416.410256,4208.205128,4212.820512,4482.051282,4236.923076,4630.769230,3975.384616,4039.487179
185,4361.025641,4514.358974,4514.358974,4242.051282,4480.000000,4171.794871,4412.820512,4206.153846,4211.794871,4478.974358,4237.435897,4631.282051,3976.923077,4038.461538
186,4365.641025,4516.410256,4515.384615,4240.000000,4478.974358,4173.333333,4418.461538,4213.846153,4222.564102,4491.794871,4237.435897,4633.846153,3985.641026,4042.564102
187,4367.179487,4516.410256,4513.333333,4236.923076,4485.641025,4175.384615,4426.153846,4218.461538,4224.615384,4498.974358,4237.435897,4632.307692,3982.051283,4043.589743
188,4371.794871,4524.102564,4520.512820,4241.025641,4489.230769,4179.487179,4433.846153,4220.512820,4225.641025,4498.461538,4245.128205,4639.487179,3984.102565,4051.794871
189,4380.000000,4529.743589,4528.205128,4252.820512,4492.307692,4185.641025,4441.025641,4226.153846,4234.871794,4498.461538,4253.333333,4647.692307,3991.794872,4060.000000
190,4370.769230,4518.974358,4520.512820,4253.846153,4491.794871,4184.102564,4436.410256,4220.512820,4225.641025,4489.743589,4247.692307,4636.923076,3985.128206,4047.692307
191,4361.538461,4511.282051,4519.487179,4245.641025,4486.153846,4178.974358,4427.692307,4210.769230,4208.205128,4479.487179,4242.051282,4628.717948,3977.435898,4038.974358
192,4373.333333,4523.589743,4532.820512,4248.717948,4489.743589,4180.000000,4429.743589,4217.435897,4213.333333,4482.051282,4242.564102,4642.564102,3982.051283,4053.333333
193,4379.487179,4524.615384,4535.897435,4251.794871,4492.307692,4180.000000,4430.256410,4225.641025,4228.717948,4485.128205,4244.102564,4651.282051,3986.666667,4060.512820
194,4372.820512,4515.384615,4531.282051,4253.846153,4484.615384,4176.410256,4425.128205,4229.230769,4233.333333,4486.153846,4251.794871,4645.128205,3988.717949,4052.820512
195,4373.846153,4523.589743,4534.871794,4263.589743,4483.589743,4176.410256,4426.153846,4233.846153,4233.846153,4494.871794,4259.487179,4647.179487,3996.923077,4054.871794
196,4372.307692,4526.666666,4534.358974,4262.564102,4485.641025,4175.897435,4424.615384,4230.256410,4230.256410,4497.435897,4257.435897,4648.717948,3995.897436,4052.307692
197,4364.102564,4513.846153,4526.153846,4249.743589,4477.948717,4171.282051,4415.384615,4218.974358,4224.102564,4488.205128,4248.717948,4637.948717,3984.615385,4041.025641
198,4365.641025,4510.256410,4523.076923,4244.102564,4477.948717,4171.794871,4412.820512,4212.307692,4217.948717,4483.076923,4241.538461,4630.256410,3980.000000,4041.025641
199,4370.256410,4521.538461,4527.179487,4249.743589,4487.179487,4178.461538,4422.051282,4213.846153,4213.846153,4484.102564,4235.384615,4633.333333,3985.641026,4045.128205
200,4368.717948,4526.153846,4526.666666,4253.333333,4485.641025,4178.461538,4427.692307,4215.897435,4216.923076,4486.153846,4241.025641,4636.923076,3988.717949,4045.128205
201,4366.153846,4520.512820,4522.564102,4250.256410,4481.025641,4174.871794,4424.102564,4212.307692,4217.948717,4482.051282,4246.666666,4634.358974,3981.538462,4048.205128
202,4367.692307,4518.974358,4525.641025,4247.692307,4487.692307,4181.538461,4426.153846,4212.307692,4213.846153,4478.974358,4240.000000,4634.358974,3978.974359,4050.769230
203,4371.282051,4525.641025,4531.282051,4250.256410,4493.333333,4187.692307,4431.794871,4220.000000,4216.410256,4480.000000,4237.435897,4641.538461,3989.230770,4048.205128
204,4377.435897,4531.282051,4533.333333,4254.358974,4490.769230,4183.589743,4433.333333,4224.102564,4223.076923,4486.153846,4244.615384,4649.230769,3996.410257,4052.307692
205,4380.512820,4528.717948,4534.358974,4252.307692,4488.717948,4182.051282,4430.769230,4222.564102,4223.589743,4495.384615,4252.820512,4651.794871,3993.333334,4058.461538
206,4374.358974,4523.589743,4533.846153,4245.128205,4487.692307,4184.102564,4429.743589,4226.153846,4225.128205,4496.923076,4252.307692,4650.769230,3992.820513,4054.358974
207,4368.717948,4519.487179,4532.307692,4243.589743,4486.153846,4179.487179,4429.230769,4229.230769,4232.307692,4493.333333,4246.666666,4648.205128,3994.871795,4047.692307
208,4370.769230,4514.358974,4528.205128,4248.205128,4484.102564,4177.435897,4419.487179,4220.512820,4226.666666,4492.820512,4238.974358,4641.025641,3984.102565,4041.538461
209,4374.871794,4516.410256,4530.769230,4256.923076,4484.615384,4179.487179,4410.769230,4213.333333,4212.820512,4488.717948,4240.512820,4640.000000,3980.512821,4040.512820
210,4373.333333,4525.641025,4532.820512,4256.410256,4490.256410,4176.923076,4414.358974,4218.461538,4214.871794,4484.615384,4251.282051,4644.102564,3993.333334,4045.641025
211,4368.205128,4526.153846,4528.205128,4252.820512,4490.769230,4174.358974,4413.846153,4220.000000,4223.076923,4485.128205,4248.717948,4643.589743,3994.871795,4044.102564
212,4369.743589,4522.564102,4530.256410,4254.358974,4484.102564,4178.461538,4414.358974,4213.846153,4215.897435,4487.692307,4243.589743,4642.051282,3988.717949,4043.076923
213,4377.435897,4526.666666,4534.871794,4254.358974,4483.076923,4181.025641,4425.128205,4220.512820,4218.974358,4493.333333,4253.846153,4648.717948,3996.410257,4051.282051
214,4379.487179,4528.205128,4531.282051,4256.923076,4487.692307,4178.974358,4429.230769,4228.717948,4231.282051,4499.487179,4264.102564,4652.307692,4000.000000,4051.282051
215,4377.948717,4526.666666,4529.230769,4261.538461,4493.333333,4183.589743,4425.641025,4223.076923,4227.179487,4494.358974,4255.897435,4643.589743,3992.307693,4045.641025
216,4374.871794,4527.692307,4529.743589,4258.974358,4494.358974,4187.692307,4430.256410,4217.948717,4218.974358,4481.538461,4241.538461,4637.948717,3992.307693,4047.692307
217,4363.076923,4518.974358,4517.948717,4246.666666,4485.641025,4179.487179,4428.717948,4213.846153,4211.282051,4474.871794,4234.871794,4631.282051,3985.128206,4040.000000
218,4352.307692,4507.179487,4506.153846,4237.435897,4479.487179,4175.897435,4418.974358,4204.102564,4202.051282,4474.358974,4233.846153,4617.435897,3966.666667,4021.538461
219,4357.948717,4509.230769,4510.769230,4237.948717,4484.615384,4182.051282,4423.076923,4204.615384,4207.692307,4473.846153,4234.358974,4616.923076,3965.641026,4018.974358
220,4364.615384,4513.333333,4516.410256,4243.589743,4486.153846,4181.538461,4424.102564,4210.769230,4216.923076,4475.384615,4229.743589,4626.153846,3977.948718,4027.692307
221,4357.948717,4507.692307,4515.384615,4247.179487,4477.435897,4171.282051,4411.282051,4203.076923,4206.666666,4475.897435,4222.564102,4622.564102,3976.923077,4027.179487
222,4352.307692,4505.128205,4513.846153,4242.051282,4469.230769,4162.564102,4402.051282,4193.333333,4192.820512,4470.256410,4222.564102,4614.871794,3964.615385,4020.000000
223,4356.410256,4509.230769,4515.384615,4241.025641,4467.179487,4160.512820,4407.179487,4198.974358,4194.871794,4466.153846,4233.846153,4617.435897,3962.564103,4017.435897
224,4356.923076,4506.666666,4516.410256,4243.076923,4466.666666,4160.000000,4409.743589,4204.615384,4203.076923,4469.230769,4238.461538,4618.974358,3965.128206,4021.538461
225,4355.897435,4505.641025,4517.948717,4238.974358,4464.615384,4157.948717,4404.615384,4205.641025,4209.230769,4473.333333,4235.897435,4622.564102,3972.820513,4026.153846
226,4362.564102,4514.871794,4518.974358,4240.512820,4464.102564,4158.461538,4406.153846,4208.717948,4206.666666,4476.923076,4242.564102,4631.282051,3986.666667,4028.205128
227,4365.641025,4518.461538,4518.974358,4245.128205,4470.256410,4164.615384,4409.230769,4205.641025,4198.974358,4476.923076,4241.025641,4628.717948,3980.000000,4025.641025
228,4358.974358,4511.282051,4517.948717,4247.179487,4476.410256,4167.179487,4406.153846,4199.487179,4198.461538,4466.666666,4221.025641,4617.948717,3957.435898,4021.538461
229,4357.948717,4507.692307,4516.923076,4245.128205,4474.871794,4165.641025,4406.153846,4201.538461,4203.589743,4463.589743,4218.974358,4615.384615,3958.461539,4022.564102
230,4364.102564,4507.692307,4516.923076,4240.000000,4471.282051,4167.179487,4411.282051,4203.589743,4204.102564,4475.897435,4240.000000,4620.512820,3977.948718,4029.230769
231,4364.615384,4501.538461,4515.384615,4235.384615,4470.256410,4166.153846,4412.820512,4203.589743,4203.589743,4481.025641,4246.666666,4622.051282,3985.128206,4033.846153
232,4363.589743,4501.025641,4514.358974,4233.333333,4472.307692,4164.615384,4412.307692,4209.230769,4206.666666,4474.358974,4230.256410,4623.589743,3984.615385,4034.871794
233,4361.538461,4507.692307,4514.871794,4234.358974,4474.358974,4169.230769,4415.897435,4209.743589,4208.205128,4471.794871,4217.435897,4625.128205,3977.435898,4029.230769
234,4360.000000,4506.666666,4516.923076,4238.461538,4474.358974,4170.769230,4413.846153,4201.538461,4200.000000,4471.794871,4222.564102,4624.102564,3965.641026,4023.589743
235,4364.102564,4505.641025,4518.974358,4246.153846,4473.333333,4168.205128,4407.692307,4200.512820,4194.871794,4471.282051,4239.487179,4625.641025,3970.256411,4033.333333
236,4365.641025,4510.256410,4516.410256,4242.564102,4472.307692,4164.615384,4404.615384,4203.589743,4204.102564,4475.384615,4243.589743,4628.205128,3985.641026,4035.384615
237,4359.487179,4509.230769,4513.333333,4233.333333,4472.307692,4165.641025,4407.692307,4200.512820,4210.256410,4476.923076,4231.282051,4623.076923,3985.641026,4023.076923
238,4358.974358,4504.102564,4511.282051,4232.820512,4475.384615,4171.282051,4411.794871,4197.435897,4203.076923,4474.358974,4229.230769,4614.358974,3970.256411,4024.102564
239,4365.128205,4510.769230,4513.846153,4231.282051,4477.435897,4171.794871,4413.333333,4203.589743,4201.538461,4479.487179,4241.025641,4617.435897,3963.076924,4033.333333
240,4364.615384,4517.948717,4519.487179,4228.205128,4476.410256,4169.230769,4414.358974,4209.230769,4213.333333,4484.615384,4246.153846,4625.641025,3969.230770,4032.307692
241,4361.538461,4516.923076,4517.435897,4232.820512,4476.923076,4172.307692,4412.307692,4214.871794,4221.538461,4481.538461,4241.025641,4624.615384,3975.384616,4029.743589
242,4359.487179,4517.948717,4510.256410,4236.410256,4475.897435,4168.717948,4402.564102,4213.846153,4214.358974,4480.000000,4229.743589,4617.435897,3974.871795,4031.282051
243,4360.000000,4521.025641,4509.743589,4233.846153,4471.794871,4158.974358,4400.000000,4204.102564,4204.615384,4478.974358,4223.589743,4614.871794,3969.743590,4031.794871
244,4362.051282,4523.076923,4514.358974,4232.820512,4471.282051,4162.051282,4410.769230,4203.589743,4205.641025,4477.435897,4228.205128,4618.974358,3962.564103,4031.794871
245,4357.948717,4518.974358,4515.384615,4232.820512,4472.307692,4168.205128,4416.410256,4211.282051,4211.282051,4480.000000,4230.769230,4618.974358,3960.000000,4028.205128
246,4348.717948,4512.307692,4511.794871,4228.717948,4472.820512,4164.615384,4413.846153,4207.179487,4214.871794,4480.512820,4223.076923,4615.384615,3961.538462,4022.051282
247,4346.153846,4513.333333,4509.230769,4227.179487,4472.307692,4165.128205,4413.846153,4198.461538,4213.846153,4477.435897,4212.307692,4613.846153,3956.923077,4021.025641
248,4349.743589,4518.461538,4510.769230,4236.410256,4475.897435,4169.743589,4412.307692,4201.538461,4206.153846,4474.871794,4213.846153,4615.384615,3954.871795,4019.487179
249,4353.333333,4522.564102,4512.307692,4248.205128,4485.641025,4174.358974,4408.205128,4201.025641,4200.512820,4472.307692,4226.666666,4614.871794,3960.512821,4017.435897
250,4360.000000,4527.692307,4513.333333,4250.256410,4490.769230,4177.948717,4409.230769,4200.000000,4206.666666,4478.461538,4229.230769,4614.358974,3962.564103,4021.025641
251,4365.641025,4531.282051,4515.384615,4247.692307,4491.282051,4181.025641,4414.871794,4213.333333,4218.461538,4492.307692,4223.589743,4620.000000,3966.666667,4032.820512
252,4361.538461,4523.589743,4518.461538,4243.589743,4490.769230,4181.025641,4416.410256,4219.487179,4223.076923,4494.358974,4225.641025,4624.615384,3975.384616,4038.974358
253,4360.000000,4515.384615,4516.410256,4240.512820,4487.179487,4176.923076,4416.923076,4215.897435,4220.512820,4487.692307,4232.307692,4623.589743,3977.435898,4034.871794
254,4370.769230,4525.641025,4520.000000,4248.205128,4486.666666,4177.948717,4424.102564,4224.102564,4223.076923,4494.358974,4241.025641,4629.743589,3982.564103,4036.923076
255,4374.358974,4530.256410,4529.743589,4257.948717,4490.769230,4181.025641,4430.769230,4234.871794,4230.769230,4506.666666,4251.794871,4639.487179,3992.820513,4044.102564
256,4362.564102,4517.435897,4526.153846,4251.282051,4486.666666,4177.435897,4422.564102,4229.743589,4229.743589,4502.564102,4244.615384,4636.923076,3986.666667,4041.025641
257,4358.461538,4516.410256,4513.846153,4243.076923,4480.512820,4170.256410,4410.256410,4216.410256,4220.512820,4490.256410,4233.846153,4629.743589,3972.820513,4036.923076
258,4367.179487,4531.282051,4512.307692,4245.641025,4486.153846,4169.230769,4410.256410,4206.666666,4212.307692,4488.205128,4241.538461,4631.794871,3975.384616,4038.461538
259,4368.717948,4531.794871,4516.410256,4248.717948,4491.282051,4174.871794,4415.384615,4206.666666,4211.794871,4493.333333,4241.025641,4633.846153,3983.076924,4038.461538
