,AF3,F7,F3,FC5,T7,P7,O1,O2,P8,T8,FC6,F4,F8,AF4
0,4401.025641,4537.435897,4544.615384,4263.076923,4477.948717,4197.435897,4456.923076,4215.897435,4243.589743,4511.282051,4232.307692,4666.666666,4008.717948,4081.538461
1,4401.025641,4542.051282,4540.512820,4269.743589,4484.615384,4204.102564,4459.487179,4215.897435,4253.333333,4509.230769,4234.871794,4667.692307,4004.102564,4082.051282
2,4408.205128,4545.128205,4546.666666,4272.820512,4486.666666,4208.717948,4458.974358,4224.102564,4257.435897,4516.410256,4226.666666,4673.846153,4007.179487,4086.666666
3,4409.743589,4550.256410,4550.769230,4269.230769,4483.589743,4203.076923,4449.743589,4222.564102,4255.384615,4522.564102,4227.179487,4673.333333,4011.794871,4084.615384
4,4405.641025,4547.692307,4544.102564,4260.512820,4480.000000,4196.410256,4445.641025,4217.435897,4256.410256,4517.948717,4235.897435,4668.205128,4006.666666,4079.487179
5,4404.102564,4540.512820,4543.076923,4262.051282,4477.948717,4195.897435,4453.333333,4222.564102,4260.512820,4514.358974,4240.512820,4667.692307,4002.564102,4079.487179
6,4404.102564,4542.051282,4547.692307,4273.333333,4475.897435,4197.435897,4461.025641,4224.102564,4259.487179,4517.435897,4235.384615,4670.769230,4008.205128,4081.025641
7,4402.051282,4546.666666,4543.076923,4272.307692,4477.435897,4196.923076,4457.948717,4212.820512,4248.717948,4514.871794,4229.230769,4666.666666,4011.282051,4080.000000
8,4399.487179,4545.128205,4537.435897,4258.974358,4481.025641,4197.948717,4449.743589,4207.692307,4244.102564,4510.256410,4227.692307,4660.512820,4007.692307,4080.000000
9,4398.974358,4541.025641,4541.025641,4253.846153,4476.410256,4200.000000,4451.794871,4213.333333,4253.333333,4512.820512,4232.820512,4661.025641,4003.589743,4079.487179
10,4400.000000,4541.538461,4541.538461,4258.974358,4473.846153,4195.897435,4454.358974,4212.307692,4255.384615,4516.410256,4229.743589,4662.051282,3999.487180,4075.384615
11,4403.589743,4546.666666,4539.487179,4263.589743,4479.487179,4192.820512,4451.794871,4206.666666,4251.794871,4514.358974,4216.410256,4660.512820,3997.948718,4072.820512
12,4407.692307,4554.871794,4545.128205,4270.769230,4487.692307,4200.512820,4453.846153,4213.846153,4259.487179,4511.794871,4215.384615,4664.102564,4005.128205,4079.487179
13,4409.230769,4560.512820,4549.743589,4275.384615,4492.307692,4209.230769,4461.538461,4222.564102,4266.666666,4512.820512,4229.743589,4671.282051,4011.282051,4086.153846
14,4406.153846,4553.846153,4546.666666,4276.410256,4489.743589,4205.641025,4460.000000,4217.948717,4258.974358,4517.435897,4234.871794,4668.717948,4005.128205,4078.974358
15,4404.615384,4549.743589,4545.128205,4276.410256,4486.666666,4201.538461,4457.435897,4216.410256,4251.794871,4521.538461,4231.794871,4664.615384,4000.512820,4073.333333
16,4405.641025,4557.948717,4548.205128,4273.333333,4488.717948,4208.717948,4462.564102,4220.000000,4257.435897,4520.512820,4233.846153,4664.615384,4011.282051,4081.025641
17,4398.461538,4552.307692,4541.538461,4262.051282,4487.179487,4208.717948,4461.538461,4215.384615,4260.512820,4515.897435,4229.743589,4658.974358,4010.256410,4081.538461
18,4388.205128,4528.205128,4532.820512,4252.307692,4478.974358,4201.538461,4458.461538,4215.897435,4255.897435,4514.871794,4216.923076,4652.307692,3992.820513,4066.153846
19,4386.666666,4524.615384,4538.461538,4254.871794,4474.358974,4200.512820,4461.025641,4219.487179,4250.256410,4514.358974,4216.410256,4651.282051,3989.230770,4060.512820
20,4393.333333,4540.512820,4539.487179,4258.461538,4473.846153,4195.897435,4454.871794,4207.179487,4246.666666,4508.205128,4223.076923,4653.333333,3997.435898,4067.692307
21,4396.923076,4546.666666,4535.897435,4256.923076,4476.410256,4189.230769,4446.666666,4201.538461,4248.205128,4502.051282,4229.743589,4656.923076,3999.487180,4071.794871
22,4396.923076,4547.179487,4539.487179,4261.538461,4480.512820,4195.384615,4452.820512,4212.307692,4246.666666,4503.076923,4230.769230,4662.051282,3998.461539,4074.358974
23,4395.897435,4547.179487,4541.025641,4270.769230,4479.487179,4201.538461,4454.358974,4209.743589,4238.974358,4503.589743,4221.025641,4661.025641,3998.461539,4074.871794
24,4392.307692,4544.615384,4536.923076,4267.692307,4478.461538,4193.846153,4448.205128,4203.076923,4243.589743,4505.641025,4219.487179,4652.307692,3999.487180,4068.205128
25,4391.794871,4547.692307,4538.974358,4260.000000,4482.051282,4192.307692,4449.743589,4209.743589,4259.487179,4514.358974,4229.743589,4656.410256,4003.076923,4068.205128
26,4396.923076,4552.820512,4546.153846,4264.615384,4481.538461,4197.435897,4451.794871,4213.333333,4261.538461,4518.461538,4229.230769,4665.128205,4003.589743,4074.358974
27,4398.974358,4550.769230,4545.128205,4268.205128,4477.948717,4196.410256,4448.717948,4208.717948,4251.794871,4511.282051,4219.487179,4662.051282,3999.487180,4073.846153
28,4394.871794,4546.666666,4538.974358,4264.615384,4477.435897,4196.923076,4450.256410,4204.102564,4245.641025,4500.000000,4214.358974,4652.307692,3995.384616,4067.179487
29,4392.820512,4545.128205,4536.923076,4260.000000,4484.102564,4202.564102,4454.871794,4205.128205,4241.025641,4493.846153,4218.974358,4648.717948,3997.435898,4066.153846
30,4393.333333,4543.589743,4541.538461,4256.410256,4485.641025,4206.153846,4456.923076,4208.717948,4241.025641,4499.487179,4223.589743,4655.384615,4000.512820,4066.666666
31,4393.846153,4546.666666,4546.666666,4257.948717,4483.076923,4205.128205,4461.025641,4209.230769,4250.769230,4512.820512,4228.205128,4663.589743,3998.974359,4069.230769
32,4394.358974,4547.179487,4544.615384,4262.564102,4485.128205,4204.615384,4461.025641,4205.641025,4255.897435,4517.435897,4233.333333,4661.025641,3996.923077,4071.794871
33,4390.256410,4541.025641,4537.435897,4255.897435,4482.051282,4200.512820,4454.358974,4198.974358,4247.692307,4507.179487,4226.666666,4650.256410,3997.948718,4066.666666
34,4387.179487,4539.487179,4533.846153,4245.641025,4477.435897,4193.333333,4450.256410,4195.384615,4241.538461,4503.589743,4211.282051,4647.692307,3997.435898,4060.000000
35,4392.820512,4545.641025,4543.589743,4250.256410,4478.974358,4194.871794,4454.358974,4200.000000,4251.282051,4510.769230,4209.743589,4656.923076,3996.410257,4061.538461
36,4398.974358,4548.717948,4552.307692,4258.461538,4482.564102,4203.589743,4462.564102,4205.128205,4261.538461,4509.230769,4221.538461,4661.025641,3994.871795,4066.666666
37,4395.897435,4546.153846,4545.128205,4258.461538,4482.564102,4204.102564,4461.538461,4200.512820,4249.743589,4499.487179,4224.102564,4656.410256,3990.769231,4067.179487
38,4391.282051,4547.179487,4541.538461,4253.846153,4482.564102,4200.000000,4457.948717,4195.897435,4236.923076,4494.871794,4218.974358,4656.410256,3992.820513,4066.153846
39,4394.871794,4550.769230,4548.205128,4249.743589,4486.666666,4203.589743,4457.948717,4202.051282,4246.666666,4502.051282,4217.435897,4663.589743,3997.435898,4068.205128
40,4397.435897,4548.205128,4548.205128,4250.256410,4486.666666,4203.589743,4460.512820,4208.205128,4258.974358,4509.230769,4218.461538,4666.153846,3995.897436,4070.256410
41,4392.820512,4540.512820,4543.076923,4252.820512,4479.487179,4194.871794,4461.025641,4207.692307,4254.358974,4506.666666,4220.512820,4660.512820,3993.846154,4068.205128
42,4386.666666,4538.461538,4541.538461,4248.717948,4476.410256,4192.307692,4458.461538,4204.615384,4249.230769,4499.487179,4217.435897,4653.846153,3989.230770,4060.000000
43,4387.179487,4544.615384,4538.974358,4244.102564,4481.538461,4197.948717,4458.461538,4202.051282,4250.769230,4493.846153,4212.820512,4649.743589,3980.000000,4053.333333
44,4389.743589,4549.230769,4535.384615,4246.666666,4483.589743,4204.102564,4462.564102,4206.666666,4250.769230,4498.461538,4211.794871,4651.282051,3983.589744,4055.384615
45,4391.282051,4547.179487,4538.461538,4253.333333,4482.051282,4207.179487,4465.128205,4212.820512,4252.820512,4509.743589,4218.974358,4653.846153,3994.871795,4062.051282
46,4394.871794,4547.179487,4542.564102,4262.051282,4483.589743,4206.153846,4461.538461,4211.282051,4256.923076,4515.897435,4230.769230,4657.948717,3997.948718,4068.717948
47,4398.461538,4552.820512,4544.615384,4264.615384,4477.435897,4201.025641,4457.948717,4208.205128,4256.923076,4515.384615,4235.897435,4664.102564,4000.512820,4070.769230
48,4398.974358,4559.487179,4544.102564,4260.000000,4473.333333,4198.461538,4460.512820,4209.230769,4251.794871,4512.307692,4230.769230,4664.615384,4005.128205,4069.743589
49,4395.384615,4557.435897,4536.410256,4254.871794,4478.974358,4204.102564,4461.538461,4207.692307,4250.256410,4508.717948,4222.051282,4660.000000,3998.974359,4065.641025
50,4386.666666,4546.153846,4528.205128,4247.692307,4474.871794,4197.948717,4450.769230,4198.461538,4243.589743,4496.410256,4213.846153,4653.333333,3986.666667,4057.435897
51,4385.641025,4546.153846,4531.282051,4245.641025,4466.153846,4185.641025,4442.051282,4196.923076,4233.846153,4493.333333,4214.871794,4652.820512,3989.230770,4056.410256
52,4398.461538,4558.974358,4541.538461,4253.846153,4468.717948,4190.256410,4450.256410,4210.769230,4243.589743,4508.205128,4227.179487,4664.102564,4006.153846,4066.666666
53,4406.153846,4562.564102,4548.205128,4262.564102,4474.358974,4198.974358,4460.000000,4220.000000,4262.564102,4519.487179,4237.948717,4672.307692,4010.256410,4073.846153
54,4398.974358,4556.923076,4547.692307,4264.102564,4476.923076,4200.000000,4457.948717,4217.435897,4264.102564,4517.948717,4236.923076,4666.153846,4000.000000,4069.230769
55,4393.333333,4557.435897,4543.589743,4264.102564,4480.000000,4204.102564,4459.487179,4218.461538,4258.974358,4512.307692,4229.743589,4658.461538,3999.487180,4066.153846
56,4398.461538,4559.487179,4545.128205,4265.128205,4482.051282,4208.717948,4468.205128,4223.076923,4266.153846,4513.846153,4232.820512,4661.538461,4007.179487,4067.179487
57,4397.435897,4557.435897,4545.128205,4259.487179,4477.435897,4207.692307,4471.794871,4224.615384,4272.820512,4516.410256,4237.948717,4664.615384,4004.102564,4066.666666
58,4393.333333,4559.487179,4543.076923,4255.384615,4475.384615,4208.717948,4471.794871,4229.230769,4271.794871,4516.410256,4230.256410,4662.051282,4003.589743,4067.179487
59,4397.435897,4563.076923,4544.102564,4262.564102,4478.974358,4210.769230,4474.871794,4231.282051,4273.333333,4518.974358,4223.076923,4658.974358,4012.820512,4070.256410
60,4392.820512,4555.384615,4538.974358,4262.564102,4477.948717,4208.205128,4473.333333,4223.589743,4269.743589,4518.461538,4223.589743,4655.897435,4007.692307,4064.615384
61,4380.000000,4541.025641,4529.230769,4243.589743,4471.794871,4202.051282,4461.538461,4214.871794,4257.948717,4515.897435,4219.487179,4647.692307,3990.256411,4052.307692
62,4382.564102,4538.974358,4531.282051,4235.897435,4469.230769,4195.897435,4457.435897,4216.923076,4252.307692,4509.743589,4220.512820,4645.128205,3990.256411,4055.384615
63,4393.333333,4543.589743,4536.410256,4248.717948,4472.307692,4195.897435,4469.230769,4224.615384,4257.948717,4508.717948,4228.205128,4653.333333,4005.128205,4067.692307
64,4387.692307,4538.974358,4533.333333,4252.307692,4474.358974,4200.512820,4472.307692,4225.128205,4260.000000,4512.820512,4226.153846,4654.871794,4003.589743,4065.641025
65,4380.000000,4531.282051,4534.358974,4246.153846,4476.410256,4204.615384,4466.666666,4221.025641,4254.358974,4507.692307,4214.871794,4651.282051,3984.615385,4059.487179
66,4390.769230,4533.333333,4541.025641,4245.128205,4478.974358,4207.692307,4467.179487,4221.025641,4252.820512,4501.538461,4210.256410,4654.871794,3981.538462,4064.102564
67,4400.512820,4539.487179,4544.615384,4252.307692,4480.000000,4208.717948,4473.333333,4225.128205,4257.948717,4508.205128,4218.461538,4660.000000,3996.410257,4074.358974
68,4397.948717,4537.435897,4544.615384,4258.461538,4481.025641,4205.641025,4473.333333,4227.692307,4260.512820,4515.897435,4227.179487,4660.512820,4001.025641,4080.512820
69,4396.923076,4531.794871,4542.564102,4261.538461,4481.025641,4205.641025,4467.179487,4225.128205,4255.384615,4505.128205,4223.076923,4658.461538,3990.256411,4078.461538
70,4399.487179,4531.282051,4541.025641,4260.512820,4484.102564,4207.692307,4466.666666,4222.564102,4254.871794,4491.794871,4213.846153,4654.871794,3981.025642,4074.871794
71,4397.435897,4533.333333,4543.076923,4253.846153,4486.666666,4206.666666,4469.230769,4225.641025,4257.435897,4495.897435,4211.794871,4654.358974,3981.538462,4076.923076
72,4395.897435,4530.769230,4544.615384,4248.717948,4480.000000,4202.051282,4464.102564,4228.717948,4255.384615,4504.615384,4212.307692,4657.435897,3988.205129,4080.000000
73,4402.051282,4524.102564,4545.128205,4255.897435,4471.282051,4199.487179,4460.512820,4228.717948,4252.820512,4503.076923,4212.307692,4663.076923,3992.820513,4084.102564
74,4408.205128,4525.641025,4546.153846,4265.641025,4473.846153,4204.102564,4468.717948,4232.307692,4255.384615,4498.974358,4217.435897,4667.692307,3987.692308,4087.179487
75,4408.205128,4532.820512,4547.179487,4262.564102,4478.461538,4204.615384,4471.282051,4233.333333,4253.846153,4500.512820,4220.000000,4667.179487,3980.512821,4084.615384
76,4401.538461,4531.794871,4541.538461,4257.435897,4475.384615,4200.512820,4464.615384,4225.641025,4246.153846,4498.974358,4214.358974,4660.512820,3981.538462,4081.025641
77,4397.948717,4526.153846,4534.871794,4257.948717,4476.923076,4200.512820,4461.538461,4218.461538,4246.153846,4494.358974,4211.794871,4655.897435,3984.615385,4078.974358
78,4400.512820,4529.743589,4538.974358,4255.897435,4481.025641,4201.025641,4457.948717,4219.487179,4253.333333,4495.384615,4217.435897,4658.461538,3985.128206,4078.461538
79,4401.025641,4535.384615,4541.025641,4253.846153,4480.512820,4201.538461,4457.948717,4222.051282,4254.871794,4498.461538,4220.000000,4659.487179,3986.153847,4082.564102
80,4397.948717,4531.282051,4534.358974,4251.282051,4478.974358,4203.589743,4461.025641,4220.512820,4252.307692,4501.025641,4224.615384,4656.410256,3991.794872,4082.051282
81,4394.871794,4526.153846,4532.307692,4250.256410,4477.435897,4204.615384,4457.948717,4218.461538,4251.794871,4497.435897,4224.615384,4653.846153,3996.923077,4074.871794
82,4395.384615,4532.307692,4535.384615,4257.435897,4476.923076,4203.076923,4455.897435,4220.512820,4253.333333,4493.333333,4215.897435,4651.282051,3994.358975,4076.410256
83,4403.076923,4541.538461,4537.948717,4266.666666,4481.538461,4205.128205,4463.076923,4222.564102,4261.025641,4504.102564,4225.128205,4657.435897,3994.358975,4085.641025
84,4409.230769,4544.102564,4543.589743,4264.102564,4483.589743,4207.179487,4467.692307,4224.102564,4267.692307,4518.974358,4244.615384,4670.769230,4004.615384,4091.794871
85,4408.717948,4544.615384,4549.743589,4256.410256,4484.102564,4209.230769,4467.179487,4223.076923,4263.076923,4513.846153,4241.538461,4671.794871,4011.282051,4090.256410
86,4402.051282,4544.615384,4541.538461,4257.948717,4483.076923,4208.717948,4466.153846,4213.846153,4254.871794,4500.512820,4229.230769,4661.025641,4002.564102,4082.564102
87,4397.435897,4542.564102,4531.794871,4264.102564,4479.487179,4204.615384,4462.564102,4205.128205,4254.871794,4501.538461,4232.307692,4657.435897,3994.871795,4077.435897
88,4402.564102,4542.564102,4536.923076,4265.641025,4480.512820,4206.153846,4458.461538,4208.717948,4257.948717,4504.615384,4235.384615,4661.538461,3999.487180,4082.051282
89,4405.128205,4544.102564,4541.538461,4262.051282,4482.564102,4205.128205,4459.487179,4210.256410,4256.923076,4502.564102,4227.179487,4662.051282,4004.102564,4084.615384
90,4394.871794,4541.538461,4532.307692,4258.461538,4478.974358,4196.923076,4457.435897,4198.461538,4249.743589,4497.435897,4221.025641,4658.461538,3998.461539,4075.384615
91,4387.179487,4537.948717,4527.692307,4257.435897,4476.410256,4198.461538,4453.846153,4188.717948,4239.487179,4489.230769,4221.025641,4652.820512,3989.230770,4068.717948
92,4393.846153,4541.538461,4536.923076,4264.615384,4481.025641,4209.230769,4458.461538,4196.923076,4245.128205,4494.358974,4225.128205,4656.923076,3989.230770,4074.871794
93,4405.128205,4547.692307,4543.076923,4274.871794,4485.128205,4213.333333,4468.717948,4210.256410,4261.025641,4512.307692,4232.820512,4669.230769,4001.538461,4083.589743
94,4411.282051,4556.410256,4545.641025,4271.794871,4489.230769,4210.769230,4472.307692,4214.358974,4268.717948,4518.461538,4236.410256,4674.358974,4010.769230,4087.692307
95,4409.743589,4561.025641,4549.743589,4267.692307,4494.358974,4211.794871,4471.794871,4212.820512,4269.743589,4511.282051,4235.897435,4672.307692,4006.666666,4090.256410
96,4399.487179,4549.743589,4547.179487,4270.769230,4488.205128,4212.307692,4471.794871,4213.333333,4266.153846,4506.153846,4238.461538,4671.282051,3998.461539,4084.102564
97,4389.743589,4535.384615,4537.435897,4267.692307,4478.461538,4205.641025,4465.128205,4205.128205,4253.333333,4498.461538,4233.333333,4662.564102,3989.743590,4068.717948
98,4383.076923,4533.333333,4527.179487,4254.358974,4475.897435,4195.897435,4454.871794,4190.769230,4240.000000,4490.769230,4215.897435,4649.230769,3980.000000,4056.923076
99,4379.487179,4533.846153,4522.051282,4244.102564,4475.384615,4193.333333,4453.846153,4187.179487,4237.435897,4490.769230,4206.153846,4644.615384,3977.435898,4055.384615
100,4386.153846,4536.923076,4527.692307,4249.743589,4474.871794,4200.000000,4459.487179,4192.307692,4245.128205,4496.410256,4217.435897,4649.230769,3982.564103,4060.000000
101,4400.512820,4550.769230,4540.512820,4267.692307,4481.538461,4204.615384,4458.461538,4196.410256,4254.871794,4508.717948,4234.871794,4657.435897,3992.820513,4072.307692
102,4407.692307,4558.461538,4546.153846,4277.435897,4492.820512,4205.128205,4459.487179,4203.076923,4259.487179,4521.538461,4244.102564,4666.153846,4007.179487,4086.153846
103,4400.000000,4550.256410,4539.487179,4269.743589,4491.794871,4207.692307,4462.051282,4205.641025,4260.000000,4518.461538,4236.923076,4664.615384,4012.307692,4084.102564
104,4392.820512,4544.615384,4532.307692,4256.410256,4485.128205,4208.205128,4458.461538,4194.871794,4253.846153,4502.051282,4230.769230,4655.384615,4002.051282,4069.743589
105,4391.794871,4545.641025,4528.717948,4250.769230,4485.641025,4206.153846,4456.923076,4184.102564,4242.564102,4494.358974,4226.153846,4649.230769,3990.769231,4063.589743
106,4391.794871,4545.641025,4525.128205,4255.897435,4490.769230,4204.102564,4459.487179,4185.641025,4240.512820,4500.512820,4215.897435,4647.692307,3984.102565,4067.179487
107,4391.794871,4545.641025,4526.153846,4265.128205,4486.153846,4206.153846,4456.923076,4190.769230,4247.179487,4507.179487,4221.538461,4650.256410,3983.076924,4066.666666
108,4393.333333,4544.615384,4532.307692,4265.641025,4481.538461,4202.564102,4451.794871,4187.692307,4246.153846,4505.128205,4230.256410,4655.384615,3990.256411,4065.128205
109,4395.384615,4545.128205,4536.923076,4262.564102,4483.076923,4196.923076,4453.333333,4182.051282,4239.487179,4500.512820,4217.948717,4655.897435,3994.871795,4067.692307
110,4395.897435,4547.179487,4536.923076,4260.512820,4483.076923,4202.051282,4460.000000,4186.666666,4241.025641,4507.179487,4212.307692,4654.358974,3992.820513,4068.717948
111,4390.769230,4541.025641,4532.820512,4257.435897,4484.615384,4204.615384,4460.000000,4187.692307,4241.025641,4510.256410,4217.948717,4650.769230,3986.153847,4061.538461
112,4385.641025,4535.384615,4529.230769,4259.487179,4483.589743,4198.974358,4456.410256,4178.974358,4231.794871,4499.487179,4214.358974,4645.128205,3982.051283,4055.897435
113,4387.692307,4541.025641,4531.282051,4266.153846,4480.000000,4200.000000,4457.435897,4174.358974,4229.230769,4491.282051,4215.384615,4647.179487,3986.666667,4061.025641
114,4393.846153,4544.615384,4535.384615,4265.128205,4483.076923,4207.179487,4459.487179,4181.025641,4242.051282,4499.487179,4222.051282,4658.461538,3995.897436,4066.666666
115,4393.333333,4540.000000,4534.358974,4260.000000,4487.179487,4206.666666,4456.923076,4186.666666,4251.794871,4510.256410,4218.974358,4661.025641,4000.512820,4064.615384
116,4391.794871,4543.589743,4536.410256,4266.666666,4484.102564,4204.615384,4457.435897,4187.179487,4246.153846,4511.794871,4229.230769,4658.461538,3994.871795,4065.128205
117,4392.307692,4551.794871,4540.512820,4276.410256,4487.179487,4209.230769,4460.000000,4188.717948,4242.051282,4509.743589,4240.000000,4660.000000,3988.205129,4068.205128
118,4388.717948,4548.205128,4534.358974,4271.282051,4492.820512,4210.256410,4461.538461,4189.230769,4247.179487,4508.205128,4225.128205,4655.384615,3987.179488,4063.076923
119,4385.641025,4541.025641,4527.179487,4261.538461,4489.743589,4208.205128,4459.487179,4185.641025,4249.230769,4509.230769,4216.410256,4648.717948,3991.282052,4055.897435
120,4385.641025,4537.948717,4530.256410,4259.487179,4483.589743,4203.076923,4455.384615,4175.384615,4238.974358,4507.692307,4222.051282,4650.256410,3994.871795,4053.846153
121,4386.666666,4540.512820,4535.384615,4263.076923,4480.512820,4200.000000,4454.871794,4175.897435,4236.923076,4507.179487,4224.102564,4655.384615,3993.333334,4055.897435
122,4391.794871,4546.153846,4533.846153,4263.076923,4486.153846,4203.589743,4458.974358,4189.743589,4254.358974,4518.461538,4228.717948,4657.435897,3991.282052,4061.025641
123,4397.948717,4547.179487,4533.846153,4257.948717,4493.846153,4207.692307,4460.512820,4195.384615,4263.076923,4531.282051,4227.179487,4657.435897,3994.871795,4064.102564
124,4397.948717,4547.692307,4540.000000,4262.051282,4491.282051,4208.205128,4460.512820,4193.846153,4257.948717,4526.153846,4220.512820,4661.538461,4004.102564,4066.153846
125,4398.974358,4551.282051,4542.051282,4272.307692,4486.666666,4206.666666,4462.051282,4193.846153,4255.384615,4515.384615,4231.282051,4667.179487,4008.717948,4070.256410
126,4399.487179,4550.769230,4537.948717,4270.769230,4487.179487,4203.589743,4457.948717,4189.230769,4251.282051,4520.512820,4235.384615,4663.589743,4002.051282,4067.692307
127,4387.692307,4541.025641,4532.820512,4258.461538,4482.564102,4195.897435,4446.666666,4177.948717,4238.974358,4518.461538,4216.923076,4649.743589,3989.743590,4055.897435
128,4381.538461,4538.974358,4532.307692,4254.358974,4477.435897,4190.769230,4441.538461,4177.435897,4234.358974,4498.974358,4212.307692,4643.076923,3980.512821,4051.794871
129,4386.153846,4547.179487,4533.333333,4260.512820,4478.461538,4191.794871,4445.641025,4183.076923,4235.384615,4494.358974,4217.435897,4646.666666,3983.589744,4056.410256
130,4385.641025,4547.692307,4531.282051,4262.051282,4477.435897,4193.333333,4445.641025,4183.076923,4234.358974,4498.461538,4212.307692,4648.717948,3985.641026,4054.358974
131,4375.384615,4536.923076,4525.128205,4256.410256,4476.410256,4192.307692,4444.102564,4181.025641,4233.333333,4488.205128,4204.615384,4642.564102,3970.256411,4042.564102
132,4367.692307,4531.794871,4521.538461,4254.358974,4477.948717,4193.333333,4452.307692,4178.974358,4228.205128,4480.000000,4197.435897,4637.435897,3957.435898,4034.871794
133,4375.897435,4536.410256,4529.743589,4262.564102,4478.461538,4198.461538,4462.051282,4184.615384,4230.256410,4494.871794,4207.179487,4648.205128,3977.435898,4049.230769
134,4392.820512,4541.538461,4541.538461,4267.179487,4476.923076,4200.512820,4465.128205,4190.256410,4240.512820,4509.743589,4229.230769,4660.512820,4003.589743,4069.743589
135,4391.794871,4544.615384,4542.564102,4267.692307,4476.923076,4193.846153,4458.461538,4179.487179,4236.410256,4503.589743,4226.153846,4655.384615,3997.948718,4068.717948
136,4380.512820,4546.666666,4535.384615,4268.717948,4478.461538,4189.743589,4448.205128,4162.564102,4223.076923,4493.333333,4211.282051,4647.692307,3982.564103,4054.358974
137,4379.487179,4541.538461,4531.282051,4265.128205,4476.923076,4190.769230,4445.128205,4161.025641,4221.025641,4491.794871,4216.410256,4650.256410,3983.589744,4051.794871
138,4376.923076,4537.435897,4532.307692,4261.538461,4474.871794,4190.769230,4445.128205,4168.205128,4224.102564,4493.846153,4215.897435,4649.743589,3986.153847,4053.333333
139,4370.256410,4539.487179,4534.358974,4263.589743,4480.512820,4192.307692,4443.589743,4171.794871,4225.641025,4494.871794,4202.564102,4646.666666,3984.102565,4049.230769
140,4374.871794,4545.128205,4533.846153,4269.743589,4485.641025,4198.974358,4444.615384,4173.846153,4233.846153,4501.538461,4206.153846,4647.179487,3986.153847,4048.717948
141,4382.051282,4550.769230,4533.846153,4271.794871,4486.153846,4202.564102,4447.692307,4174.358974,4238.461538,4510.256410,4217.948717,4649.230769,3993.846154,4054.358974
142,4380.512820,4552.307692,4538.461538,4269.743589,4488.205128,4200.512820,4446.666666,4174.358974,4237.948717,4507.692307,4215.897435,4650.769230,4002.051282,4056.410256
143,4380.512820,4550.256410,4540.512820,4268.205128,4489.230769,4201.538461,4446.153846,4176.410256,4241.025641,4502.051282,4216.410256,4651.282051,4005.128205,4056.410256
144,4383.589743,4552.307692,4535.897435,4265.128205,4489.743589,4200.512820,4444.102564,4171.794871,4235.384615,4501.538461,4221.025641,4648.205128,3997.948718,4057.435897
145,4379.487179,4551.794871,4528.717948,4262.051282,4487.692307,4193.333333,4440.000000,4166.666666,4225.128205,4497.948717,4216.923076,4646.666666,3989.230770,4054.871794
146,4376.410256,4545.641025,4526.153846,4265.128205,4482.564102,4194.358974,4443.076923,4171.282051,4229.743589,4496.923076,4217.435897,4646.666666,3993.846154,4054.358974
147,4377.435897,4546.666666,4527.692307,4269.743589,4484.102564,4199.487179,4446.153846,4172.820512,4240.512820,4505.128205,4220.512820,4644.102564,4000.512820,4054.358974
148,4375.384615,4551.794871,4524.615384,4260.512820,4486.666666,4195.897435,4441.538461,4167.179487,4235.897435,4504.102564,4206.666666,4643.076923,3996.410257,4049.230769
149,4369.743589,4544.102564,4520.000000,4251.282051,4481.538461,4193.333333,4443.076923,4171.794871,4229.230769,4492.820512,4200.512820,4644.615384,3990.256411,4047.179487
150,4371.282051,4533.846153,4525.641025,4257.948717,4480.000000,4195.897435,4451.282051,4180.512820,4236.410256,4500.512820,4221.025641,4647.692307,3991.794872,4053.333333
151,4376.923076,4536.410256,4531.794871,4268.205128,4487.692307,4193.333333,4448.205128,4176.410256,4241.538461,4508.717948,4227.179487,4649.230769,3991.794872,4055.384615
152,4379.487179,4541.025641,4528.717948,4268.205128,4488.205128,4192.307692,4445.641025,4173.333333,4236.923076,4498.974358,4213.333333,4649.743589,3988.717949,4055.897435
153,4384.615384,4535.897435,4538.461538,4267.179487,4488.717948,4201.025641,4457.435897,4186.153846,4244.102564,4500.512820,4214.871794,4657.435897,3994.871795,4068.717948
154,4390.769230,4530.256410,4552.820512,4267.692307,4493.846153,4207.179487,4465.128205,4198.461538,4255.897435,4513.846153,4226.666666,4665.641025,4000.512820,4080.512820
155,4388.717948,4531.282051,4548.717948,4262.051282,4491.282051,4204.615384,4460.512820,4196.410256,4248.205128,4512.307692,4228.205128,4665.641025,3992.820513,4076.923076
156,4384.102564,4528.717948,4542.564102,4262.564102,4487.692307,4202.564102,4457.435897,4188.205128,4236.923076,4504.102564,4225.128205,4665.128205,3983.589744,4071.282051
157,4386.666666,4524.615384,4545.641025,4273.333333,4488.205128,4207.179487,4463.589743,4188.717948,4242.051282,4501.025641,4220.000000,4668.205128,3983.076924,4077.435897
158,4387.692307,4527.692307,4544.102564,4275.897435,4488.717948,4210.256410,4467.692307,4192.820512,4241.538461,4496.410256,4213.333333,4666.153846,3983.589744,4082.564102
159,4387.179487,4531.794871,4544.615384,4270.769230,4491.794871,4210.769230,4465.641025,4193.846153,4237.435897,4498.461538,4217.435897,4665.128205,3986.666667,4080.000000
160,4395.384615,4534.871794,4555.384615,4273.333333,4497.435897,4211.794871,4465.128205,4198.974358,4248.717948,4512.820512,4232.307692,4674.358974,3995.384616,4083.589743
161,4402.564102,4537.948717,4560.000000,4277.435897,4498.974358,4211.794871,4465.641025,4208.205128,4258.461538,4515.384615,4240.512820,4680.512820,3997.948718,4095.384615
162,4397.435897,4535.897435,4551.794871,4274.871794,4494.358974,4203.589743,4458.974358,4202.564102,4253.333333,4509.743589,4231.282051,4674.358974,3995.897436,4095.897435
163,4390.769230,4534.871794,4544.102564,4275.897435,4493.333333,4198.461538,4452.820512,4193.846153,4251.282051,4510.769230,4225.128205,4667.692307,3997.948718,4087.692307
164,4392.307692,4541.025641,4544.102564,4275.384615,4494.358974,4203.076923,4457.948717,4200.512820,4256.410256,4518.974358,4234.871794,4669.230769,4002.564102,4089.230769
165,4390.769230,4540.000000,4543.589743,4267.179487,4489.743589,4203.076923,4461.538461,4204.615384,4258.974358,4523.589743,4238.461538,4669.743589,4003.589743,4092.820512
166,4385.128205,4530.769230,4537.435897,4263.076923,4487.179487,4195.897435,4454.871794,4195.384615,4252.820512,4515.384615,4224.615384,4663.589743,4001.025641,4087.692307
167,4382.564102,4531.794871,4533.846153,4269.743589,4489.743589,4197.948717,4452.820512,4185.641025,4242.564102,4501.025641,4216.923076,4658.974358,3994.871795,4083.589743
168,4381.538461,4537.435897,4536.923076,4270.769230,4490.769230,4205.128205,4456.923076,4183.076923,4240.000000,4500.000000,4221.025641,4660.512820,3989.230770,4082.564102
169,4376.410256,4528.205128,4534.871794,4265.128205,4490.769230,4205.641025,4458.461538,4185.641025,4243.076923,4510.256410,4221.538461,4659.487179,3986.153847,4076.410256
170,4370.256410,4518.974358,4529.230769,4262.051282,4489.743589,4201.538461,4457.435897,4185.641025,4242.051282,4507.692307,4215.384615,4653.333333,3981.025642,4067.692307
171,4374.871794,4527.179487,4531.794871,4262.564102,4489.743589,4202.051282,4456.410256,4185.128205,4241.025641,4500.000000,4206.153846,4653.333333,3982.051283,4069.230769
172,4384.102564,4537.948717,4535.897435,4266.153846,4492.307692,4204.615384,4456.923076,4185.128205,4243.589743,4502.051282,4206.666666,4660.000000,3995.384616,4077.435897
173,4382.564102,4536.923076,4534.358974,4270.256410,4492.307692,4207.179487,4456.923076,4182.564102,4243.589743,4505.641025,4217.435897,4658.974358,4001.025641,4075.384615
174,4375.384615,4532.307692,4531.794871,4266.666666,4489.230769,4205.128205,4452.820512,4176.923076,4241.538461,4505.128205,4221.538461,4652.820512,3992.820513,4068.205128
175,4377.435897,4533.333333,4536.410256,4256.410256,4488.717948,4201.025641,4452.820512,4176.923076,4239.487179,4504.102564,4218.974358,4656.923076,3990.769231,4071.794871
176,4381.025641,4532.307692,4542.051282,4257.948717,4491.282051,4200.512820,4452.820512,4183.589743,4240.512820,4503.589743,4218.974358,4664.615384,3997.948718,4076.410256
177,4377.948717,4531.282051,4537.948717,4266.666666,4490.256410,4199.487179,4448.717948,4186.153846,4243.589743,4503.589743,4221.025641,4661.025641,3999.487180,4075.897435
178,4375.897435,4530.256410,4530.256410,4264.102564,4489.230769,4197.948717,4452.307692,4185.128205,4242.564102,4499.487179,4214.358974,4654.871794,3990.769231,4070.769230
179,4373.333333,4528.717948,4529.230769,4260.000000,4491.282051,4201.538461,4455.897435,4183.589743,4235.897435,4492.820512,4205.641025,4653.333333,3982.051283,4064.615384
180,4370.769230,4529.743589,4531.282051,4264.102564,4491.282051,4202.564102,4445.641025,4180.512820,4233.333333,4497.435897,4207.692307,4651.794871,3981.538462,4061.538461
181,4376.410256,4534.358974,4530.769230,4263.589743,4487.692307,4198.461538,4444.102564,4179.487179,4237.948717,4508.717948,4212.820512,4654.358974,3991.282052,4064.615384
182,4384.102564,4540.000000,4534.358974,4262.051282,4493.846153,4201.025641,4457.948717,4189.743589,4247.692307,4518.461538,4217.948717,4665.128205,4001.538461,4072.820512
183,4381.538461,4538.461538,4541.025641,4266.153846,4501.538461,4206.153846,4459.487179,4200.000000,4254.358974,4527.692307,4226.153846,4670.256410,4000.000000,4075.384615
184,4376.410256,4533.846153,4540.000000,4264.615384,4495.384615,4205.128205,4454.871794,4194.871794,4252.307692,4526.666666,4226.153846,4661.538461,3991.794872,4069.230769
185,4378.974358,4533.333333,4533.846153,4261.025641,4494.871794,4206.666666,4459.487179,4192.820512,4248.205128,4516.923076,4217.948717,4658.974358,3991.282052,4068.205128
186,4380.512820,4532.307692,4531.794871,4260.000000,4502.051282,4209.743589,4458.974358,4196.410256,4243.589743,4513.846153,4221.538461,4664.615384,3998.461539,4072.307692
187,4382.051282,4532.820512,4534.871794,4258.974358,4499.487179,4204.615384,4453.333333,4194.358974,4242.564102,4514.358974,4228.205128,4663.076923,3998.974359,4069.743589
188,4385.128205,4537.948717,4541.538461,4261.025641,4495.384615,4202.564102,4454.871794,4193.846153,4248.205128,4508.717948,4226.666666,4660.512820,3990.256411,4067.692307
189,4383.076923,4538.974358,4542.051282,4261.025641,4495.897435,4207.692307,4454.871794,4193.333333,4247.692307,4506.153846,4223.076923,4659.487179,3983.589744,4070.256410
190,4378.974358,4533.846153,4535.897435,4261.025641,4494.358974,4205.128205,4451.794871,4187.692307,4240.512820,4507.692307,4210.256410,4652.820512,3982.051283,4065.128205
191,4376.923076,4531.794871,4530.769230,4258.974358,4491.282051,4199.487179,4451.282051,4185.128205,4236.923076,4503.076923,4198.461538,4646.666666,3980.512821,4055.897435
192,4374.871794,4529.743589,4531.794871,4252.307692,4491.794871,4201.025641,4447.179487,4188.717948,4239.487179,4497.948717,4207.179487,4649.743589,3976.923077,4052.307692
193,4375.384615,4528.717948,4536.923076,4253.846153,4489.230769,4202.564102,4446.666666,4191.794871,4241.538461,4497.948717,4217.435897,4655.897435,3979.487180,4057.435897
194,4380.000000,4530.769230,4540.512820,4258.974358,4489.743589,4197.948717,4449.230769,4195.897435,4240.512820,4506.153846,4218.974358,4654.871794,3990.769231,4065.128205
195,4380.000000,4532.820512,4535.384615,4255.897435,4494.358974,4196.923076,4450.256410,4198.974358,4241.025641,4511.794871,4218.461538,4651.282051,3996.923077,4062.564102
196,4375.384615,4534.871794,4528.717948,4249.743589,4494.871794,4201.538461,4453.846153,4196.410256,4242.051282,4502.564102,4212.820512,4651.282051,3986.666667,4055.384615
197,4374.358974,4535.897435,4532.820512,4250.769230,4492.820512,4204.615384,4456.410256,4191.794871,4240.000000,4491.794871,4209.743589,4653.846153,3976.923077,4057.948717
198,4371.282051,4525.641025,4533.846153,4255.384615,4490.256410,4202.564102,4449.230769,4187.692307,4231.794871,4492.307692,4214.358974,4652.820512,3981.025642,4058.974358
199,4364.102564,4517.435897,4528.205128,4256.923076,4487.692307,4195.897435,4443.589743,4184.615384,4224.102564,4492.820512,4211.282051,4648.717948,3980.512821,4051.794871
200,4368.205128,4525.641025,4529.230769,4255.897435,4486.666666,4193.333333,4445.641025,4185.641025,4227.179487,4491.282051,4205.128205,4648.205128,3978.461539,4052.307692
201,4376.410256,4532.307692,4530.769230,4249.230769,4489.230769,4193.846153,4443.076923,4188.205128,4228.717948,4494.358974,4210.256410,4649.230769,3987.179488,4058.461538
202,4369.743589,4525.641025,4522.051282,4235.897435,4489.230769,4189.743589,4441.025641,4190.256410,4224.102564,4499.487179,4216.410256,4646.153846,3988.717949,4056.410256
203,4366.153846,4523.589743,4519.487179,4238.461538,4486.666666,4189.230769,4446.153846,4194.871794,4230.256410,4505.128205,4215.897435,4644.615384,3986.153847,4053.333333
204,4375.897435,4530.256410,4525.128205,4254.358974,4489.230769,4196.410256,4447.692307,4199.487179,4240.512820,4505.641025,4218.461538,4646.666666,3995.384616,4056.410256
205,4376.923076,4533.846153,4522.051282,4257.948717,4493.846153,4198.461538,4443.589743,4196.410256,4235.897435,4499.487179,4220.000000,4645.128205,3996.410257,4055.897435
206,4373.846153,4538.974358,4521.538461,4254.358974,4495.384615,4197.435897,4446.666666,4193.333333,4233.333333,4504.102564,4220.000000,4645.641025,3988.717949,4054.871794
207,4383.589743,4546.666666,4532.307692,4255.897435,4495.897435,4204.102564,4454.358974,4202.564102,4238.461538,4508.717948,4223.076923,4651.282051,3993.846154,4063.589743
208,4387.179487,4542.051282,4532.820512,4253.846153,4493.333333,4205.641025,4456.410256,4204.615384,4232.307692,4503.076923,4219.487179,4651.282051,4000.000000,4065.641025
209,4380.000000,4533.846153,4527.179487,4253.333333,4490.256410,4198.461538,4450.769230,4195.384615,4223.589743,4498.974358,4212.307692,4645.641025,3994.358975,4056.410256
210,4377.948717,4534.871794,4530.769230,4259.487179,4492.307692,4199.487179,4447.692307,4198.974358,4229.743589,4500.512820,4215.897435,4647.692307,3988.205129,4054.871794
211,4377.435897,4535.897435,4530.256410,4261.538461,4491.282051,4201.025641,4451.794871,4204.102564,4231.282051,4501.538461,4222.564102,4650.769230,3981.538462,4058.461538
212,4378.461538,4535.897435,4528.717948,4257.948717,4489.230769,4196.923076,4452.307692,4201.025641,4222.051282,4501.538461,4221.025641,4649.230769,3982.051283,4054.871794
213,4383.589743,4543.589743,4533.333333,4255.384615,4491.794871,4197.948717,4452.820512,4198.974358,4223.076923,4496.923076,4224.102564,4650.256410,3995.384616,4055.384615
214,4381.025641,4545.128205,4531.794871,4254.871794,4490.256410,4198.461538,4454.358974,4198.974358,4228.205128,4494.358974,4225.641025,4649.230769,3997.948718,4056.923076
215,4375.897435,4535.897435,4526.666666,4253.846153,4487.692307,4192.307692,4450.769230,4200.512820,4224.615384,4500.000000,4221.025641,4645.641025,3986.666667,4052.307692
216,4378.461538,4532.820512,4528.717948,4253.846153,4491.794871,4192.820512,4446.153846,4205.128205,4223.076923,4503.589743,4221.538461,4647.692307,3985.128206,4053.333333
217,4377.435897,4532.820512,4533.333333,4253.333333,4487.179487,4194.358974,4446.153846,4203.589743,4227.179487,4500.000000,4223.589743,4650.769230,3988.717949,4055.384615
218,4374.871794,4527.179487,4532.820512,4249.230769,4477.948717,4189.230769,4446.666666,4200.000000,4229.743589,4498.461538,4224.615384,4651.282051,3982.564103,4051.282051
219,4380.512820,4529.743589,4531.282051,4244.102564,4480.512820,4189.230769,4444.615384,4205.641025,4233.333333,4502.564102,4229.743589,4652.307692,3977.948718,4053.846153
220,4381.538461,4540.000000,4526.153846,4250.256410,4488.205128,4193.333333,4446.666666,4206.153846,4233.846153,4502.564102,4225.641025,4648.205128,3987.692308,4057.435897
221,4376.410256,4542.051282,4524.615384,4255.897435,4491.282051,4194.871794,4449.743589,4203.589743,4229.743589,4500.000000,4216.410256,4643.076923,3997.435898,4055.897435
222,4377.948717,4534.871794,4525.641025,4252.307692,4488.717948,4197.948717,4451.794871,4207.179487,4230.256410,4501.025641,4221.025641,4645.641025,3992.820513,4053.846153
223,4375.384615,4527.692307,4521.025641,4247.179487,4480.000000,4192.820512,4448.205128,4205.128205,4229.743589,4498.461538,4225.641025,4645.128205,3982.564103,4046.153846
224,4367.692307,4530.256410,4519.487179,4245.641025,4474.358974,4181.025641,4441.538461,4197.435897,4224.615384,4493.846153,4220.000000,4642.051282,3976.923077,4038.974358
225,4370.769230,4536.410256,4521.538461,4249.743589,4476.923076,4184.102564,4444.102564,4200.512820,4226.153846,4494.871794,4221.025641,4646.666666,3978.974359,4044.102564
226,4378.974358,4529.743589,4523.589743,4248.205128,4478.461538,4189.230769,4447.179487,4205.128205,4230.769230,4496.410256,4226.666666,4651.282051,3985.128206,4051.794871
227,4377.435897,4524.102564,4528.205128,4244.102564,4474.358974,4183.076923,4445.641025,4200.000000,4228.717948,4495.384615,4225.128205,4650.256410,3988.205129,4053.333333
228,4377.948717,4536.923076,4531.282051,4248.205128,4475.384615,4183.076923,4445.128205,4200.000000,4225.641025,4497.435897,4225.641025,4650.769230,3984.615385,4055.897435
229,4383.589743,4547.692307,4531.282051,4256.923076,4480.512820,4188.205128,4444.615384,4205.641025,4225.641025,4497.948717,4229.230769,4650.769230,3987.179488,4056.923076
230,4383.076923,4544.102564,4534.871794,4264.102564,4481.025641,4186.666666,4444.615384,4203.589743,4225.641025,4496.923076,4228.205128,4650.256410,3996.410257,4055.897435
231,4385.128205,4546.666666,4538.461538,4268.205128,4483.589743,4187.179487,4446.153846,4205.128205,4229.230769,4500.512820,4228.717948,4654.358974,4001.025641,4060.000000
232,4387.692307,4551.794871,4534.871794,4263.076923,4486.153846,4189.743589,4446.666666,4212.307692,4227.179487,4497.948717,4229.230769,4651.794871,3994.871795,4059.487179
233,4381.538461,4547.179487,4531.282051,4251.794871,4482.564102,4186.666666,4446.153846,4209.230769,4218.974358,4495.384615,4230.769230,4645.641025,3988.205129,4053.846153
234,4374.871794,4540.000000,4528.205128,4253.333333,4481.538461,4187.692307,4447.692307,4208.717948,4223.076923,4498.461538,4230.769230,4647.692307,3989.230770,4052.307692
235,4378.461538,4536.923076,4526.666666,4261.025641,4483.589743,4190.769230,4448.717948,4214.358974,4230.769230,4494.358974,4228.205128,4649.230769,3988.717949,4051.794871
236,4380.512820,4536.923076,4530.256410,4262.564102,4485.641025,4194.871794,4454.871794,4214.871794,4225.641025,4491.282051,4227.179487,4645.641025,3987.179488,4051.794871
237,4380.512820,4536.923076,4532.307692,4262.051282,4487.692307,4197.948717,4459.487179,4212.820512,4222.564102,4497.435897,4230.769230,4647.692307,3988.205129,4056.410256
238,4382.564102,4533.333333,4529.743589,4256.410256,4485.641025,4193.846153,4449.230769,4210.256410,4228.717948,4498.974358,4233.846153,4650.769230,3990.256411,4060.000000
239,4381.538461,4528.205128,4525.128205,4245.128205,4482.051282,4189.743589,4436.923076,4206.666666,4228.205128,4489.743589,4226.666666,4647.692307,3986.666667,4055.897435
240,4378.974358,4525.641025,4521.538461,4245.641025,4482.051282,4189.743589,4439.487179,4206.153846,4221.025641,4486.666666,4215.897435,4645.128205,3980.000000,4053.846153
241,4380.000000,4528.205128,4525.641025,4261.025641,4485.641025,4193.846153,4446.153846,4211.282051,4223.076923,4490.256410,4218.461538,4647.179487,3978.974359,4059.487179
242,4381.538461,4529.230769,4528.205128,4264.102564,4487.692307,4195.897435,4446.153846,4215.897435,4227.692307,4491.794871,4227.179487,4646.153846,3982.051283,4063.589743
243,4379.487179,4522.564102,4520.000000,4251.794871,4484.102564,4191.282051,4443.076923,4216.410256,4225.128205,4492.820512,4226.666666,4643.589743,3981.538462,4061.025641
244,4377.948717,4514.871794,4518.974358,4250.769230,4480.512820,4189.230769,4443.589743,4217.948717,4222.051282,4490.256410,4218.461538,4644.102564,3976.923077,4060.512820
245,4383.076923,4517.948717,4531.282051,4258.974358,4482.051282,4194.871794,4446.666666,4222.564102,4225.128205,4487.692307,4216.410256,4648.717948,3980.512821,4067.179487
246,4388.717948,4523.589743,4535.897435,4257.435897,4482.051282,4196.923076,4447.179487,4222.051282,4226.153846,4484.102564,4223.589743,4653.333333,3983.589744,4072.820512
247,4388.205128,4520.512820,4530.256410,4252.307692,4483.589743,4195.384615,4450.769230,4220.000000,4222.564102,4481.025641,4227.692307,4652.307692,3979.487180,4072.307692
248,4384.102564,4518.974358,4527.692307,4255.384615,4489.230769,4198.461538,4452.820512,4221.538461,4222.051282,4485.128205,4229.230769,4650.256410,3980.000000,4071.794871
249,4382.564102,4525.128205,4525.641025,4261.025641,4486.666666,4197.435897,4446.666666,4222.051282,4222.564102,4492.820512,4231.282051,4649.743589,3984.615385,4071.794871
250,4385.128205,4531.282051,4524.615384,4262.051282,4486.666666,4195.897435,4450.256410,4226.153846,4229.230769,4496.923076,4230.256410,4651.282051,3984.102565,4072.820512
251,4386.666666,4532.820512,4529.743589,4262.564102,4494.871794,4202.051282,4461.538461,4233.333333,4236.410256,4498.974358,4227.692307,4652.307692,3981.025642,4075.897435
252,4388.717948,4533.846153,4537.948717,4262.051282,4493.846153,4204.615384,4461.025641,4235.897435,4234.358974,4497.948717,4235.897435,4654.871794,3988.205129,4081.025641
253,4392.820512,4536.923076,4540.000000,4264.615384,4491.282051,4204.615384,4456.923076,4235.897435,4234.871794,4494.871794,4250.256410,4663.076923,4001.025641,4085.128205
254,4395.384615,4535.897435,4536.923076,4265.128205,4493.846153,4205.641025,4462.051282,4235.384615,4243.589743,4496.923076,4251.794871,4665.128205,4003.589743,4084.615384
255,4392.820512,4529.743589,4532.307692,4262.051282,4490.769230,4202.564102,4461.538461,4234.871794,4242.564102,4498.461538,4246.153846,4658.461538,3994.871795,4078.461538
256,4387.692307,4526.666666,4532.307692,4261.025641,4483.589743,4196.923076,4450.256410,4235.897435,4226.153846,4488.717948,4238.974358,4653.846153,3988.205129,4074.358974
257,4386.666666,4529.743589,4538.461538,4260.512820,4482.564102,4194.871794,4446.153846,4231.282051,4218.461538,4483.589743,4236.923076,4657.435897,3986.153847,4078.461538
258,4392.820512,4535.384615,4540.512820,4261.025641,4487.692307,4197.435897,4455.384615,4227.692307,4228.717948,4491.282051,4245.641025,4663.076923,3989.230770,4084.102564
259,4399.487179,4542.051282,4537.435897,4264.615384,4494.871794,4205.641025,4461.538461,4238.461538,4237.435897,4500.000000,4251.282051,4665.128205,3997.948718,4086.666666
