,AF3,F7,F3,FC5,T7,P7,O1,O2,P8,T8,FC6,F4,F8,AF4
0,4390.256410,4527.179487,4540.000000,4250.256410,4491.282051,4183.589743,4427.179487,4240.000000,4236.410256,4496.923076,4201.025641,4653.846153,3994.871795,4042.051282
1,4392.820512,4532.820512,4538.974358,4246.666666,4487.692307,4182.564102,4426.153846,4242.051282,4230.256410,4500.512820,4196.410256,4650.769230,3985.128206,4042.564102
2,4391.282051,4533.333333,4536.410256,4247.179487,4494.871794,4184.102564,4429.230769,4240.000000,4231.794871,4498.974358,4200.000000,4648.717948,3991.282052,4043.076923
3,4385.641025,4527.692307,4534.871794,4248.205128,4490.769230,4182.564102,4428.205128,4240.000000,4237.435897,4500.000000,4202.564102,4648.717948,3999.487180,4040.512820
4,4386.153846,4525.641025,4535.384615,4248.205128,4486.666666,4182.051282,4428.717948,4249.230769,4239.487179,4506.666666,4201.538461,4650.256410,3998.974359,4041.025641
5,4392.307692,4529.230769,4538.461538,4248.717948,4501.538461,4187.179487,4430.769230,4251.794871,4241.025641,4503.076923,4200.512820,4652.307692,3993.846154,4043.076923
6,4394.871794,4534.358974,4538.974358,4246.666666,4505.641025,4188.205128,4434.871794,4246.153846,4242.564102,4498.974358,4202.564102,4654.871794,3992.307693,4046.153846
7,4393.333333,4528.717948,4539.487179,4246.153846,4492.307692,4187.179487,4440.512820,4247.179487,4241.025641,4509.230769,4208.205128,4656.923076,3994.358975,4047.179487
8,4391.282051,4522.051282,4541.538461,4254.358974,4495.384615,4192.820512,4440.512820,4250.256410,4238.974358,4511.794871,4208.717948,4655.897435,3992.307693,4043.589743
9,4394.358974,4535.897435,4540.000000,4256.410256,4510.256410,4196.410256,4438.974358,4250.256410,4240.512820,4505.128205,4202.051282,4653.333333,3989.743590,4046.153846
10,4400.000000,4544.615384,4537.435897,4250.769230,4511.282051,4193.846153,4442.051282,4249.230769,4243.076923,4508.205128,4204.615384,4654.871794,3992.307693,4050.769230
11,4401.025641,4536.923076,4542.051282,4255.384615,4501.025641,4193.333333,4442.051282,4249.230769,4242.564102,4509.743589,4210.256410,4656.410256,3995.897436,4048.717948
12,4400.512820,4538.461538,4545.641025,4257.435897,4493.333333,4191.794871,4435.384615,4251.794871,4242.564102,4509.230769,4203.589743,4656.410256,3995.897436,4046.666666
13,4396.923076,4530.256410,4542.051282,4255.897435,4487.179487,4185.128205,4428.717948,4250.769230,4242.564102,4510.256410,4203.076923,4656.410256,3990.769231,4048.205128
14,4392.307692,4515.897435,4545.641025,4258.461538,4486.153846,4183.589743,4426.153846,4246.666666,4241.025641,4506.666666,4212.307692,4656.923076,3979.487180,4045.641025
15,4395.897435,4527.179487,4549.743589,4258.461538,4498.461538,4191.282051,4433.846153,4245.641025,4242.564102,4505.128205,4209.743589,4656.410256,3974.358975,4042.051282
16,4398.461538,4541.538461,4543.076923,4251.282051,4509.743589,4197.435897,4442.051282,4249.230769,4242.564102,4511.282051,4197.435897,4654.358974,3988.205129,4044.102564
17,4391.794871,4539.487179,4537.435897,4250.769230,4507.692307,4201.025641,4442.564102,4245.641025,4236.923076,4506.153846,4192.820512,4649.743589,3992.820513,4042.564102
18,4386.666666,4534.358974,4535.897435,4253.333333,4504.615384,4198.461538,4438.974358,4240.000000,4234.871794,4494.358974,4193.333333,4643.076923,3974.358975,4036.923076
19,4393.846153,4533.333333,4538.461538,4255.897435,4511.282051,4195.897435,4441.025641,4246.666666,4242.564102,4505.128205,4199.487179,4649.230769,3975.897436,4040.512820
20,4412.820512,4548.717948,4554.871794,4275.897435,4519.487179,4209.230769,4456.923076,4267.692307,4262.051282,4534.871794,4223.076923,4671.794871,4012.820512,4064.615384
21,4434.358974,4579.487179,4577.948717,4302.051282,4537.948717,4234.358974,4478.974358,4289.230769,4285.641025,4560.000000,4248.205128,4693.846153,4040.000000,4088.205128
22,4445.128205,4592.820512,4586.666666,4307.692307,4561.538461,4251.282051,4492.307692,4296.923076,4294.871794,4564.615384,4256.410256,4703.589743,4041.025641,4095.384615
23,4445.128205,4593.846153,4585.641025,4307.179487,4570.769230,4250.256410,4493.846153,4297.435897,4290.256410,4562.564102,4257.948717,4702.564102,4043.076923,4097.948717
24,4444.615384,4597.948717,4586.666666,4316.410256,4564.615384,4247.179487,4493.846153,4297.435897,4290.256410,4563.589743,4257.435897,4700.512820,4051.282051,4100.000000
25,4446.153846,4589.230769,4587.179487,4321.538461,4556.410256,4248.717948,4493.333333,4297.948717,4294.871794,4567.179487,4253.333333,4698.974358,4046.153846,4096.923076
26,4446.153846,4585.641025,4585.128205,4311.794871,4555.384615,4250.256410,4491.282051,4302.564102,4296.410256,4573.846153,4255.897435,4698.461538,4035.897435,4097.435897
27,4449.743589,4600.512820,4584.102564,4307.692307,4556.410256,4246.666666,4489.230769,4306.666666,4293.333333,4571.794871,4258.974358,4699.487179,4042.051282,4102.051282
28,4449.743589,4600.000000,4583.076923,4310.769230,4562.564102,4242.564102,4489.743589,4298.974358,4284.102564,4562.564102,4249.230769,4697.435897,4050.769230,4095.897435
29,4443.589743,4585.128205,4584.615384,4312.820512,4567.179487,4241.538461,4486.153846,4291.282051,4280.512820,4561.025641,4243.589743,4693.846153,4042.051282,4088.717948
30,4444.102564,4589.230769,4585.641025,4310.769230,4562.051282,4240.512820,4478.974358,4294.871794,4286.153846,4564.102564,4252.307692,4695.384615,4032.307692,4093.846153
31,4441.025641,4587.179487,4577.948717,4300.512820,4546.153846,4234.871794,4478.974358,4288.717948,4282.051282,4558.461538,4251.282051,4692.820512,4031.794871,4093.333333
32,4430.769230,4570.256410,4567.179487,4290.769230,4531.282051,4224.102564,4470.769230,4272.820512,4268.717948,4550.769230,4235.897435,4680.000000,4025.128205,4081.025641
33,4427.692307,4565.641025,4565.641025,4290.256410,4528.717948,4219.487179,4460.512820,4270.769230,4263.589743,4542.564102,4228.205128,4673.846153,4017.948717,4074.358974
34,4428.717948,4569.230769,4569.230769,4292.307692,4537.435897,4223.076923,4466.666666,4279.487179,4268.717948,4537.948717,4233.846153,4680.512820,4021.025641,4075.897435
35,4427.692307,4567.692307,4570.256410,4293.333333,4542.051282,4224.102564,4475.897435,4286.666666,4278.974358,4552.820512,4245.128205,4688.717948,4024.102564,4078.974358
36,4432.307692,4570.256410,4571.794871,4293.333333,4537.948717,4224.615384,4475.897435,4292.820512,4282.564102,4563.076923,4253.333333,4693.333333,4021.538461,4084.615384
37,4434.358974,4571.794871,4573.846153,4289.230769,4538.974358,4223.589743,4471.794871,4290.769230,4274.871794,4552.820512,4245.641025,4693.333333,4024.615384,4086.153846
38,4424.615384,4563.076923,4570.769230,4281.538461,4528.717948,4214.871794,4465.128205,4278.461538,4267.692307,4545.641025,4230.256410,4686.666666,4028.717948,4077.435897
39,4411.794871,4547.692307,4561.025641,4278.461538,4503.589743,4200.000000,4457.435897,4267.179487,4258.974358,4535.384615,4224.102564,4674.871794,4008.205128,4064.615384
40,4405.128205,4540.512820,4553.333333,4277.435897,4505.128205,4198.974358,4458.461538,4264.615384,4251.282051,4524.102564,4221.538461,4667.179487,3984.615385,4057.435897
41,4407.179487,4549.743589,4555.384615,4275.384615,4530.769230,4210.256410,4469.230769,4272.820512,4256.410256,4533.333333,4221.025641,4670.769230,3996.923077,4061.538461
42,4412.307692,4552.820512,4557.948717,4275.897435,4536.410256,4213.846153,4471.794871,4275.384615,4261.538461,4539.487179,4223.589743,4671.282051,4013.333333,4065.641025
43,4413.333333,4545.128205,4556.923076,4282.051282,4525.128205,4207.692307,4464.102564,4268.717948,4255.384615,4530.256410,4226.153846,4666.666666,4002.564102,4064.615384
44,4411.282051,4548.205128,4556.410256,4282.564102,4519.487179,4199.487179,4453.846153,4261.025641,4245.641025,4526.153846,4224.102564,4668.717948,3997.948718,4065.641025
45,4411.794871,4556.923076,4556.410256,4277.435897,4521.025641,4194.358974,4448.205128,4254.358974,4240.000000,4524.102564,4221.025641,4674.358974,4008.717948,4067.179487
46,4415.384615,4554.871794,4557.948717,4278.461538,4524.102564,4194.871794,4447.179487,4256.923076,4244.102564,4526.666666,4222.564102,4678.974358,4007.692307,4067.179487
47,4414.358974,4548.205128,4558.461538,4282.564102,4514.871794,4194.358974,4447.179487,4261.538461,4248.205128,4534.358974,4227.179487,4679.487179,4000.512820,4068.205128
48,4407.179487,4541.538461,4553.333333,4278.461538,4507.692307,4190.769230,4444.615384,4255.897435,4242.051282,4530.769230,4226.153846,4672.307692,3997.435898,4065.128205
49,4404.615384,4537.435897,4551.794871,4270.256410,4518.461538,4192.307692,4442.564102,4253.333333,4237.435897,4521.025641,4216.410256,4667.179487,3995.897436,4059.487179
50,4402.564102,4534.871794,4550.256410,4264.615384,4512.307692,4191.282051,4444.102564,4253.846153,4235.897435,4511.794871,4209.743589,4666.153846,3988.205129,4053.333333
51,4393.846153,4528.717948,4541.025641,4262.051282,4494.871794,4189.743589,4446.666666,4248.717948,4228.205128,4500.512820,4204.102564,4656.410256,3975.897436,4043.076923
52,4388.717948,4524.102564,4535.897435,4260.000000,4501.538461,4194.871794,4454.358974,4249.743589,4226.153846,4505.641025,4198.461538,4648.205128,3970.256411,4035.897435
53,4390.769230,4525.641025,4541.025641,4257.435897,4510.256410,4194.871794,4460.512820,4257.435897,4235.897435,4521.538461,4201.538461,4654.871794,3974.358975,4038.974358
54,4392.820512,4527.179487,4542.051282,4261.025641,4505.641025,4190.769230,4459.487179,4257.948717,4245.128205,4523.076923,4210.769230,4661.538461,3984.102565,4044.615384
55,4389.230769,4521.538461,4538.461538,4264.615384,4504.615384,4195.897435,4456.923076,4253.333333,4240.512820,4516.923076,4208.205128,4654.871794,3982.051283,4043.076923
56,4385.641025,4514.358974,4534.358974,4262.564102,4500.512820,4194.358974,4449.743589,4249.743589,4226.666666,4512.820512,4191.794871,4644.102564,3968.205129,4033.333333
57,4383.589743,4518.461538,4529.743589,4259.487179,4492.820512,4186.666666,4443.589743,4245.641025,4223.076923,4505.128205,4185.641025,4641.025641,3968.717949,4027.692307
58,4379.487179,4521.025641,4523.589743,4254.871794,4492.820512,4186.153846,4444.615384,4240.512820,4224.615384,4497.948717,4189.230769,4638.974358,3975.897436,4027.179487
59,4381.025641,4518.974358,4521.025641,4253.333333,4497.435897,4186.666666,4443.076923,4237.435897,4221.538461,4499.487179,4192.307692,4637.435897,3965.641026,4026.666666
60,4390.256410,4526.153846,4530.769230,4260.512820,4506.666666,4187.692307,4442.564102,4242.564102,4222.564102,4507.179487,4196.410256,4643.589743,3961.025642,4032.820512
61,4394.871794,4533.846153,4538.461538,4268.717948,4511.794871,4192.820512,4446.666666,4248.717948,4227.692307,4509.230769,4192.820512,4645.128205,3974.871795,4041.025641
62,4388.717948,4528.717948,4530.256410,4268.717948,4508.717948,4192.307692,4447.692307,4245.128205,4225.128205,4505.128205,4185.128205,4639.487179,3979.487180,4040.000000
63,4382.051282,4520.512820,4522.564102,4262.564102,4505.641025,4186.666666,4445.128205,4241.025641,4224.102564,4506.666666,4183.076923,4637.948717,3972.307693,4034.358974
64,4380.512820,4517.948717,4523.589743,4255.897435,4495.384615,4180.512820,4441.538461,4236.923076,4223.076923,4507.179487,4179.487179,4637.435897,3963.076924,4026.666666
65,4377.948717,4515.384615,4522.564102,4255.897435,4480.512820,4174.871794,4439.487179,4230.769230,4213.846153,4503.589743,4163.589743,4630.256410,3956.410257,4023.076923
66,4377.948717,4518.461538,4520.000000,4261.538461,4487.179487,4175.897435,4442.564102,4231.794871,4214.358974,4506.153846,4155.897435,4630.256410,3964.102565,4027.179487
67,4380.000000,4521.538461,4522.051282,4262.564102,4505.128205,4180.000000,4443.589743,4240.512820,4225.128205,4509.743589,4164.102564,4635.384615,3974.871795,4030.769230
68,4382.051282,4515.384615,4522.564102,4260.000000,4508.717948,4184.102564,4442.564102,4243.589743,4226.666666,4509.230769,4168.205128,4635.384615,3973.846154,4032.307692
69,4381.538461,4513.333333,4522.564102,4260.512820,4507.692307,4187.179487,4443.589743,4243.076923,4223.076923,4508.205128,4163.076923,4636.923076,3973.846154,4035.384615
70,4381.025641,4518.461538,4524.102564,4260.512820,4508.205128,4186.153846,4445.128205,4246.666666,4228.717948,4509.230769,4162.051282,4642.564102,3980.000000,4037.948717
71,4381.538461,4515.897435,4523.589743,4254.871794,4493.333333,4181.538461,4444.102564,4246.153846,4228.717948,4508.205128,4163.076923,4643.589743,3982.051283,4033.333333
72,4379.487179,4510.769230,4522.051282,4247.692307,4484.102564,4176.410256,4441.025641,4236.923076,4217.435897,4506.153846,4156.923076,4637.948717,3975.384616,4026.666666
73,4375.897435,4515.384615,4522.564102,4248.205128,4499.487179,4174.358974,4441.025641,4232.307692,4216.410256,4504.615384,4150.769230,4635.384615,3968.205129,4027.179487
74,4376.410256,4517.948717,4521.538461,4249.230769,4503.076923,4173.846153,4444.102564,4234.358974,4212.820512,4497.948717,4146.666666,4634.871794,3960.512821,4025.128205
75,4374.358974,4512.820512,4519.487179,4246.153846,4487.179487,4174.871794,4442.564102,4229.230769,4199.487179,4483.589743,4143.589743,4627.179487,3951.794872,4016.410256
76,4370.769230,4513.846153,4521.538461,4246.153846,4491.282051,4175.384615,4434.358974,4223.076923,4201.538461,4475.897435,4145.128205,4622.564102,3957.435898,4016.923076
77,4368.717948,4511.282051,4520.000000,4242.051282,4496.410256,4170.256410,4428.717948,4223.589743,4206.153846,4481.025641,4140.512820,4622.564102,3969.230770,4021.538461
78,4363.076923,4494.871794,4510.256410,4233.333333,4482.051282,4164.615384,4427.692307,4221.538461,4200.512820,4483.589743,4132.307692,4618.461538,3962.051283,4013.846153
79,4360.512820,4494.358974,4508.205128,4231.282051,4488.205128,4168.205128,4427.692307,4217.435897,4198.974358,4480.000000,4136.410256,4613.846153,3945.128206,4007.179487
80,4363.076923,4510.769230,4509.743589,4232.820512,4507.179487,4175.897435,4426.666666,4218.461538,4200.512820,4468.205128,4138.974358,4613.846153,3944.102565,4006.666666
81,4365.128205,4515.384615,4510.769230,4228.717948,4499.487179,4174.871794,4426.666666,4222.564102,4198.461538,4460.000000,4126.666666,4613.846153,3950.769231,4006.666666
82,4369.230769,4514.358974,4517.948717,4235.384615,4490.769230,4175.897435,4433.333333,4227.179487,4205.128205,4474.358974,4126.666666,4618.461538,3960.512821,4012.307692
83,4375.384615,4514.871794,4524.102564,4246.153846,4496.923076,4178.461538,4436.410256,4231.282051,4213.333333,4488.717948,4144.615384,4626.666666,3967.692308,4017.948717
84,4378.974358,4514.871794,4521.538461,4242.051282,4501.025641,4180.000000,4433.846153,4234.871794,4214.358974,4492.820512,4161.025641,4629.743589,3965.128206,4022.564102
85,4383.076923,4521.538461,4522.564102,4235.897435,4503.589743,4181.538461,4438.974358,4239.487179,4221.538461,4498.974358,4167.179487,4631.794871,3966.666667,4028.717948
86,4384.102564,4530.256410,4525.641025,4236.410256,4505.128205,4178.461538,4442.051282,4242.051282,4225.641025,4499.487179,4155.897435,4635.384615,3971.282052,4028.205128
87,4379.487179,4525.641025,4523.076923,4233.846153,4506.666666,4176.923076,4434.871794,4236.923076,4218.974358,4490.769230,4144.102564,4634.358974,3972.307693,4024.615384
88,4378.974358,4522.051282,4523.076923,4232.307692,4507.692307,4177.435897,4429.230769,4230.769230,4213.333333,4486.666666,4147.692307,4631.794871,3968.205129,4025.641025
89,4377.435897,4520.512820,4517.948717,4235.384615,4487.179487,4169.743589,4423.589743,4225.128205,4207.179487,4482.564102,4147.179487,4625.128205,3955.384616,4021.025641
90,4373.333333,4514.871794,4510.769230,4234.871794,4469.230769,4161.025641,4418.974358,4215.897435,4198.461538,4473.333333,4142.564102,4620.000000,3947.692308,4014.871794
91,4378.974358,4518.974358,4516.923076,4233.333333,4493.333333,4165.641025,4424.102564,4213.846153,4195.897435,4472.307692,4144.615384,4626.666666,3960.512821,4020.512820
92,4386.666666,4525.641025,4526.153846,4236.410256,4516.410256,4175.384615,4431.282051,4223.589743,4200.512820,4479.487179,4148.717948,4633.846153,3973.333334,4029.230769
93,4383.589743,4522.051282,4524.615384,4234.358974,4504.615384,4177.435897,4431.282051,4231.282051,4203.589743,4489.743589,4154.871794,4632.820512,3964.615385,4029.743589
94,4382.051282,4521.538461,4521.025641,4232.307692,4498.974358,4175.384615,4431.794871,4234.358974,4206.153846,4493.846153,4165.128205,4631.794871,3961.538462,4026.153846
95,4389.230769,4529.230769,4523.589743,4237.948717,4510.256410,4176.923076,4436.410256,4234.358974,4207.692307,4492.820512,4163.076923,4632.307692,3976.923077,4026.666666
96,4389.230769,4532.307692,4524.615384,4241.025641,4508.205128,4183.076923,4437.435897,4230.769230,4204.615384,4488.717948,4155.384615,4628.717948,3982.051283,4030.256410
97,4382.051282,4524.615384,4521.025641,4236.410256,4494.358974,4177.435897,4429.743589,4227.692307,4201.025641,4480.512820,4155.897435,4624.615384,3967.692308,4027.179487
98,4380.512820,4519.487179,4519.487179,4233.333333,4487.692307,4167.179487,4424.102564,4226.666666,4198.461538,4479.487179,4155.384615,4625.128205,3952.307693,4022.051282
99,4381.538461,4525.641025,4521.025641,4233.846153,4491.282051,4169.230769,4426.666666,4221.538461,4191.794871,4481.025641,4153.846153,4622.564102,3952.820513,4023.076923
100,4377.435897,4523.076923,4518.974358,4231.794871,4497.948717,4174.358974,4428.205128,4218.974358,4189.230769,4477.435897,4150.769230,4618.461538,3957.435898,4022.051282
101,4376.923076,4515.897435,4515.384615,4230.256410,4505.641025,4176.410256,4427.692307,4226.153846,4197.948717,4478.974358,4148.205128,4622.564102,3956.410257,4020.000000
102,4385.128205,4524.615384,4521.025641,4233.846153,4507.179487,4177.435897,4431.794871,4234.871794,4204.102564,4487.179487,4160.000000,4633.333333,3958.974359,4026.153846
103,4386.666666,4526.666666,4524.615384,4233.846153,4490.256410,4170.769230,4428.205128,4229.743589,4197.948717,4487.179487,4165.641025,4631.282051,3962.051283,4029.230769
104,4380.512820,4512.820512,4518.974358,4232.307692,4482.564102,4164.102564,4420.512820,4221.538461,4197.435897,4485.641025,4155.897435,4626.153846,3958.461539,4024.102564
105,4384.615384,4514.871794,4519.487179,4240.000000,4504.102564,4171.794871,4422.564102,4227.179487,4205.128205,4494.871794,4156.410256,4635.384615,3957.948718,4025.128205
106,4391.794871,4528.717948,4527.179487,4245.128205,4509.743589,4181.025641,4428.717948,4234.358974,4204.615384,4498.974358,4169.230769,4639.487179,3963.589744,4030.769230
107,4385.641025,4529.230769,4526.666666,4244.102564,4494.871794,4177.435897,4429.743589,4234.358974,4201.025641,4493.846153,4168.717948,4634.358974,3967.179488,4032.307692
108,4380.512820,4520.512820,4521.538461,4244.102564,4494.358974,4170.256410,4429.743589,4232.307692,4204.615384,4495.384615,4166.666666,4635.384615,3962.564103,4029.743589
109,4380.000000,4508.205128,4520.512820,4238.974358,4496.410256,4168.205128,4428.717948,4227.692307,4202.051282,4500.000000,4166.666666,4636.923076,3949.743590,4024.615384
110,4378.974358,4502.564102,4522.564102,4237.948717,4494.871794,4167.179487,4426.666666,4222.564102,4192.820512,4492.820512,4160.512820,4631.282051,3940.512821,4023.589743
111,4384.102564,4512.307692,4523.076923,4245.128205,4500.000000,4168.205128,4428.717948,4227.692307,4194.358974,4487.179487,4159.487179,4632.820512,3952.307693,4029.743589
112,4388.205128,4520.000000,4523.076923,4243.589743,4502.564102,4173.333333,4431.282051,4235.897435,4203.589743,4491.794871,4162.564102,4637.948717,3966.666667,4032.307692
113,4378.461538,4509.743589,4520.512820,4234.358974,4497.948717,4171.794871,4428.205128,4230.769230,4202.564102,4491.794871,4157.435897,4632.307692,3955.897436,4024.102564
114,4372.307692,4496.410256,4518.974358,4233.333333,4488.205128,4162.051282,4426.153846,4219.487179,4193.333333,4483.076923,4153.333333,4626.153846,3939.487180,4015.897435
115,4377.948717,4497.948717,4521.538461,4240.512820,4481.538461,4161.025641,4427.179487,4221.025641,4193.333333,4481.025641,4156.923076,4631.282051,3940.000000,4021.538461
116,4379.487179,4498.461538,4523.076923,4244.102564,4485.641025,4165.641025,4428.205128,4228.205128,4197.948717,4484.615384,4158.461538,4635.384615,3951.794872,4029.230769
117,4378.461538,4494.871794,4523.076923,4238.974358,4493.846153,4165.128205,4428.205128,4225.641025,4197.948717,4484.615384,4157.948717,4633.846153,3955.384616,4027.179487
118,4380.512820,4500.000000,4522.051282,4232.307692,4497.435897,4164.102564,4427.179487,4222.051282,4197.435897,4483.076923,4160.512820,4632.820512,3947.179488,4024.102564
119,4382.564102,4504.615384,4521.538461,4237.435897,4502.564102,4165.641025,4427.179487,4225.128205,4198.461538,4483.589743,4165.128205,4633.846153,3947.692308,4026.153846
120,4384.615384,4498.461538,4523.589743,4245.128205,4500.512820,4167.179487,4426.666666,4227.179487,4198.461538,4483.589743,4170.769230,4634.871794,3959.487180,4028.205128
121,4382.564102,4494.358974,4525.641025,4240.000000,4491.794871,4164.615384,4426.666666,4228.205128,4196.410256,4485.641025,4166.153846,4633.333333,3961.025642,4028.205128
122,4375.897435,4496.410256,4522.564102,4233.846153,4489.230769,4158.974358,4425.128205,4231.282051,4197.948717,4492.820512,4159.487179,4631.282051,3947.179488,4024.102564
123,4375.384615,4498.461538,4521.025641,4238.461538,4491.282051,4160.000000,4428.717948,4231.794871,4203.589743,4491.794871,4166.153846,4633.333333,3941.025642,4023.589743
124,4384.102564,4501.025641,4525.641025,4248.205128,4500.512820,4171.282051,4436.923076,4233.846153,4207.179487,4490.769230,4177.435897,4638.974358,3950.256411,4030.256410
125,4387.179487,4502.564102,4527.179487,4249.743589,4513.333333,4175.384615,4439.487179,4236.923076,4204.102564,4495.384615,4176.410256,4638.974358,3956.923077,4032.820512
126,4379.487179,4502.051282,4523.076923,4244.615384,4509.230769,4168.205128,4433.846153,4233.846153,4199.487179,4491.794871,4166.666666,4632.307692,3953.846154,4028.717948
127,4377.435897,4502.051282,4522.051282,4246.666666,4494.871794,4168.717948,4429.230769,4230.256410,4197.435897,4488.717948,4162.564102,4632.820512,3950.769231,4026.666666
128,4383.589743,4499.487179,4523.076923,4248.717948,4484.102564,4169.230769,4428.717948,4227.179487,4195.897435,4492.307692,4169.743589,4634.358974,3948.717949,4026.153846
129,4384.615384,4500.512820,4523.076923,4247.692307,4483.589743,4165.128205,4426.153846,4228.717948,4196.923076,4493.846153,4178.461538,4630.769230,3946.666667,4026.666666
130,4383.076923,4508.205128,4522.564102,4247.179487,4500.000000,4168.717948,4431.794871,4232.307692,4202.564102,4491.794871,4177.948717,4634.358974,3956.410257,4031.282051
131,4385.128205,4509.230769,4523.076923,4250.256410,4515.897435,4174.871794,4441.025641,4233.333333,4207.692307,4494.871794,4171.794871,4642.564102,3967.179488,4032.820512
132,4384.615384,4503.076923,4524.102564,4252.820512,4517.435897,4173.846153,4437.435897,4231.282051,4206.153846,4498.974358,4171.282051,4641.025641,3957.948718,4029.743589
133,4380.000000,4500.000000,4522.051282,4249.743589,4507.179487,4168.717948,4427.692307,4224.102564,4197.435897,4494.871794,4172.820512,4632.307692,3945.641026,4025.641025
134,4378.461538,4500.000000,4520.512820,4245.641025,4492.820512,4166.666666,4424.102564,4214.871794,4192.820512,4488.205128,4173.333333,4629.743589,3945.641026,4021.025641
135,4381.538461,4498.461538,4522.051282,4247.179487,4491.794871,4167.179487,4426.666666,4215.384615,4196.410256,4487.692307,4177.435897,4631.794871,3948.717949,4023.589743
136,4388.717948,4500.000000,4524.102564,4254.871794,4505.641025,4175.384615,4434.358974,4228.717948,4205.641025,4495.384615,4185.128205,4640.000000,3959.487180,4034.871794
137,4394.358974,4506.153846,4524.615384,4255.897435,4508.717948,4182.564102,4442.051282,4238.461538,4212.820512,4501.538461,4185.128205,4647.692307,3968.205129,4042.051282
138,4392.307692,4508.205128,4525.128205,4255.897435,4501.025641,4175.897435,4438.974358,4235.384615,4212.820512,4501.538461,4180.000000,4642.564102,3966.153847,4038.461538
139,4387.179487,4501.538461,4523.589743,4258.461538,4497.948717,4168.717948,4431.794871,4230.769230,4210.256410,4503.076923,4179.487179,4634.358974,3966.666667,4032.307692
140,4383.589743,4495.384615,4519.487179,4252.307692,4488.717948,4169.230769,4428.205128,4229.230769,4208.205128,4507.692307,4176.410256,4633.333333,3971.282052,4027.179487
141,4384.102564,4497.435897,4518.461538,4249.230769,4490.256410,4172.820512,4429.743589,4233.846153,4208.717948,4510.769230,4177.435897,4637.435897,3968.205129,4027.179487
142,4387.692307,4506.153846,4522.564102,4257.948717,4514.871794,4182.051282,4437.948717,4241.538461,4214.871794,4511.282051,4190.769230,4643.076923,3962.564103,4036.923076
143,4391.794871,4509.230769,4526.666666,4262.564102,4525.128205,4189.743589,4443.589743,4241.538461,4221.025641,4509.743589,4198.974358,4647.692307,3968.717949,4042.051282
144,4393.846153,4508.717948,4527.692307,4261.025641,4518.974358,4186.666666,4443.076923,4237.435897,4219.487179,4507.692307,4193.846153,4645.128205,3981.538462,4040.000000
145,4391.794871,4503.589743,4526.666666,4260.000000,4512.307692,4185.128205,4442.564102,4236.923076,4212.820512,4505.641025,4192.307692,4638.974358,3980.000000,4038.461538
146,4386.153846,4494.358974,4524.615384,4256.923076,4494.871794,4185.641025,4437.948717,4234.871794,4208.205128,4502.564102,4188.205128,4635.897435,3956.410257,4029.230769
147,4382.051282,4495.384615,4522.051282,4253.846153,4485.128205,4183.076923,4433.333333,4232.307692,4211.794871,4500.512820,4177.948717,4637.435897,3947.179488,4023.589743
148,4384.615384,4502.051282,4523.076923,4255.897435,4507.692307,4183.589743,4436.923076,4237.948717,4219.487179,4507.692307,4185.128205,4642.564102,3966.153847,4034.358974
149,4385.128205,4496.410256,4525.128205,4255.897435,4525.128205,4185.128205,4441.538461,4240.512820,4221.538461,4513.333333,4197.435897,4644.615384,3977.948718,4041.538461
150,4384.615384,4490.769230,4524.102564,4260.000000,4510.769230,4181.025641,4436.923076,4236.923076,4217.435897,4510.769230,4193.846153,4644.615384,3974.358975,4035.897435
151,4388.717948,4501.538461,4525.128205,4264.615384,4491.282051,4175.897435,4429.743589,4234.358974,4213.846153,4510.769230,4186.666666,4643.589743,3967.179488,4032.820512
152,4385.641025,4505.128205,4525.128205,4256.923076,4487.692307,4171.794871,4428.205128,4230.769230,4211.282051,4508.717948,4185.128205,4640.000000,3959.487180,4030.256410
153,4378.461538,4494.871794,4521.538461,4247.692307,4493.846153,4167.179487,4428.717948,4230.769230,4209.230769,4498.461538,4184.102564,4636.923076,3963.076924,4028.717948
154,4383.589743,4495.384615,4522.051282,4251.794871,4500.000000,4173.333333,4427.179487,4232.820512,4211.282051,4494.871794,4189.743589,4639.487179,3974.358975,4034.871794
155,4391.282051,4501.538461,4526.153846,4266.666666,4508.205128,4180.512820,4427.692307,4232.820512,4213.333333,4501.025641,4197.948717,4646.153846,3971.282052,4038.461538
156,4389.230769,4502.051282,4527.179487,4268.717948,4510.769230,4174.871794,4431.794871,4232.820512,4209.230769,4507.179487,4194.358974,4648.717948,3958.974359,4035.384615
157,4381.538461,4495.384615,4523.589743,4250.256410,4496.410256,4165.128205,4424.615384,4229.743589,4199.487179,4498.974358,4178.461538,4640.000000,3952.820513,4028.717948
158,4377.435897,4484.615384,4521.538461,4248.205128,4487.692307,4165.128205,4413.846153,4220.000000,4196.923076,4485.641025,4170.256410,4633.333333,3952.307693,4023.589743
159,4378.974358,4481.025641,4522.564102,4263.076923,4500.000000,4168.717948,4419.487179,4220.512820,4204.615384,4490.769230,4180.000000,4638.461538,3953.846154,4027.692307
160,4381.538461,4489.743589,4523.076923,4258.974358,4502.564102,4169.230769,4430.769230,4228.205128,4206.153846,4501.025641,4192.307692,4642.051282,3951.282052,4031.282051
161,4380.000000,4494.871794,4522.051282,4251.282051,4491.794871,4171.794871,4430.256410,4228.205128,4204.102564,4497.948717,4186.666666,4639.487179,3952.820513,4027.692307
162,4380.512820,4494.871794,4523.589743,4257.948717,4492.820512,4172.307692,4425.128205,4228.205128,4205.128205,4495.384615,4179.487179,4640.512820,3960.512821,4025.641025
163,4378.461538,4497.435897,4520.000000,4258.974358,4497.435897,4169.230769,4425.641025,4228.717948,4204.615384,4497.435897,4185.641025,4639.487179,3960.512821,4026.666666
164,4374.358974,4493.333333,4514.358974,4253.846153,4496.923076,4172.307692,4427.179487,4228.205128,4205.641025,4489.230769,4189.230769,4635.897435,3955.384616,4023.589743
165,4373.846153,4488.205128,4516.410256,4255.897435,4502.051282,4178.461538,4427.692307,4230.769230,4212.820512,4484.615384,4183.076923,4635.384615,3956.410257,4022.564102
166,4377.948717,4496.410256,4520.512820,4258.974358,4508.205128,4174.358974,4427.179487,4236.410256,4221.538461,4499.487179,4183.076923,4637.948717,3961.025642,4026.666666
167,4381.538461,4504.615384,4519.487179,4260.512820,4506.666666,4168.205128,4426.153846,4238.974358,4225.128205,4512.307692,4190.769230,4638.974358,3965.128206,4028.205128
168,4386.666666,4506.153846,4522.564102,4266.153846,4498.974358,4171.794871,4428.205128,4239.487179,4224.102564,4513.333333,4194.871794,4642.051282,3971.282052,4028.717948
169,4387.692307,4509.230769,4526.153846,4265.641025,4492.307692,4174.358974,4428.205128,4236.410256,4217.948717,4508.205128,4193.333333,4645.641025,3975.897436,4030.256410
170,4381.025641,4507.179487,4522.564102,4257.948717,4496.410256,4169.230769,4424.102564,4231.794871,4214.871794,4500.512820,4195.897435,4642.051282,3969.743590,4028.717948
171,4379.487179,4499.487179,4520.000000,4255.384615,4508.205128,4170.256410,4423.076923,4232.820512,4216.410256,4501.538461,4199.487179,4635.384615,3965.641026,4026.666666
172,4385.128205,4504.102564,4524.102564,4258.974358,4509.230769,4176.923076,4427.692307,4235.897435,4216.923076,4503.076923,4199.487179,4636.410256,3976.410257,4030.256410
173,4383.589743,4513.846153,4520.512820,4258.461538,4502.051282,4176.410256,4428.205128,4233.846153,4213.846153,4498.461538,4200.512820,4640.000000,3981.538462,4031.794871
174,4375.897435,4510.769230,4510.256410,4247.179487,4493.846153,4169.743589,4422.051282,4225.641025,4211.794871,4494.358974,4195.384615,4633.333333,3973.333334,4025.641025
175,4373.846153,4499.487179,4511.794871,4244.615384,4487.692307,4165.641025,4416.410256,4223.076923,4207.692307,4488.205128,4183.076923,4627.179487,3964.615385,4020.000000
176,4379.487179,4498.974358,4520.512820,4251.794871,4492.820512,4170.256410,4420.512820,4230.256410,4205.128205,4481.025641,4181.538461,4633.333333,3964.615385,4023.076923
177,4382.051282,4506.153846,4521.538461,4251.282051,4503.076923,4177.948717,4425.641025,4231.794871,4207.692307,4483.076923,4189.230769,4636.923076,3969.743590,4025.128205
178,4382.564102,4512.307692,4520.000000,4247.692307,4507.179487,4177.948717,4425.128205,4228.717948,4209.743589,4492.307692,4189.743589,4635.384615,3970.769231,4024.615384
179,4386.666666,4520.512820,4523.076923,4247.179487,4508.717948,4177.948717,4423.589743,4232.307692,4209.743589,4493.846153,4188.205128,4638.461538,3968.717949,4031.282051
180,4385.128205,4513.846153,4524.102564,4248.717948,4504.615384,4178.461538,4425.641025,4232.307692,4210.769230,4488.717948,4190.256410,4636.923076,3966.666667,4031.282051
181,4374.358974,4496.923076,4516.410256,4250.769230,4494.358974,4174.871794,4429.230769,4226.153846,4210.256410,4486.666666,4189.743589,4629.230769,3968.205129,4018.974358
182,4370.256410,4496.410256,4509.743589,4248.205128,4489.743589,4173.333333,4428.717948,4226.153846,4208.205128,4486.666666,4184.102564,4626.666666,3966.153847,4011.794871
183,4375.897435,4505.641025,4512.820512,4242.564102,4490.256410,4172.820512,4426.666666,4231.794871,4211.282051,4485.128205,4182.564102,4631.282051,3966.153847,4014.871794
184,4381.538461,4509.743589,4521.025641,4245.128205,4496.410256,4175.897435,4429.230769,4235.897435,4220.000000,4487.179487,4193.333333,4636.923076,3970.256411,4023.076923
185,4381.538461,4514.358974,4522.564102,4248.717948,4505.641025,4182.051282,4431.794871,4235.897435,4217.948717,4493.846153,4201.538461,4640.000000,3971.794872,4025.128205
186,4380.512820,4513.846153,4519.487179,4241.025641,4504.102564,4179.487179,4429.743589,4231.794871,4209.230769,4494.871794,4190.769230,4635.897435,3968.205129,4016.923076
187,4376.410256,4496.410256,4514.871794,4240.512820,4489.230769,4167.692307,4426.666666,4229.230769,4206.666666,4488.717948,4178.461538,4630.256410,3957.948718,4009.743589
188,4369.230769,4485.128205,4508.205128,4244.615384,4483.076923,4165.128205,4424.615384,4226.666666,4209.743589,4483.589743,4182.051282,4628.205128,3952.820513,4009.743589
189,4368.717948,4495.897435,4509.230769,4239.487179,4494.358974,4171.794871,4424.102564,4224.615384,4208.717948,4480.000000,4180.000000,4624.615384,3959.487180,4010.256410
190,4373.333333,4505.128205,4517.435897,4237.435897,4500.000000,4169.743589,4425.128205,4224.102564,4200.000000,4476.923076,4163.589743,4621.538461,3962.564103,4008.717948
191,4372.307692,4499.487179,4520.000000,4241.025641,4494.871794,4168.717948,4422.564102,4222.564102,4196.923076,4476.410256,4163.076923,4622.564102,3949.230770,4009.230769
192,4371.282051,4496.410256,4520.000000,4243.589743,4493.333333,4172.820512,4423.589743,4221.538461,4202.051282,4477.435897,4182.051282,4626.666666,3938.461539,4008.205128
193,4374.358974,4496.410256,4521.538461,4243.589743,4487.179487,4169.743589,4423.589743,4217.948717,4201.025641,4474.871794,4186.153846,4628.205128,3944.615385,4007.692307
194,4372.307692,4490.256410,4520.512820,4244.615384,4475.384615,4162.051282,4413.333333,4210.769230,4187.179487,4463.076923,4167.692307,4622.051282,3949.230770,4006.666666
195,4371.282051,4496.923076,4520.512820,4245.641025,4489.743589,4166.666666,4416.410256,4209.230769,4185.641025,4461.538461,4161.025641,4621.538461,3950.769231,4007.692307
196,4380.512820,4510.256410,4525.128205,4248.717948,4509.230769,4177.435897,4430.256410,4216.410256,4202.051282,4478.974358,4177.948717,4631.282051,3954.358975,4015.897435
197,4381.538461,4503.589743,4524.102564,4248.717948,4491.794871,4173.333333,4423.589743,4223.076923,4206.666666,4480.000000,4188.717948,4632.820512,3948.717949,4015.384615
198,4376.410256,4498.461538,4521.025641,4247.179487,4477.948717,4166.666666,4416.923076,4226.153846,4200.000000,4468.717948,4185.128205,4631.282051,3945.128206,4013.333333
199,4376.923076,4508.717948,4523.589743,4249.743589,4494.871794,4171.282051,4427.179487,4227.179487,4203.076923,4479.487179,4184.615384,4636.410256,3965.641026,4021.538461
200,4377.435897,4506.666666,4523.076923,4248.717948,4505.641025,4171.794871,4423.589743,4226.666666,4211.794871,4492.307692,4183.589743,4634.358974,3978.461539,4021.538461
201,4375.897435,4498.974358,4520.000000,4245.641025,4503.589743,4167.179487,4410.256410,4227.179487,4211.282051,4488.205128,4183.589743,4633.846153,3963.589744,4015.897435
202,4378.974358,4502.564102,4520.512820,4248.205128,4505.641025,4172.307692,4416.923076,4228.717948,4210.769230,4495.384615,4197.435897,4644.102564,3960.000000,4023.076923
203,4385.128205,4507.692307,4523.589743,4253.333333,4509.230769,4181.025641,4428.717948,4235.384615,4221.025641,4507.692307,4209.230769,4647.179487,3980.512821,4032.307692
204,4389.230769,4510.256410,4525.128205,4254.358974,4505.641025,4178.974358,4425.641025,4240.512820,4227.179487,4504.615384,4205.641025,4644.102564,3988.205129,4029.743589
205,4387.179487,4508.717948,4524.102564,4249.230769,4491.282051,4169.230769,4417.435897,4233.333333,4219.487179,4500.000000,4198.974358,4643.076923,3971.794872,4025.641025
206,4383.589743,4505.641025,4521.025641,4246.666666,4478.974358,4164.615384,4418.461538,4227.179487,4211.794871,4500.000000,4195.897435,4638.461538,3966.153847,4025.641025
207,4389.743589,4510.769230,4523.076923,4255.384615,4494.871794,4171.794871,4425.641025,4235.384615,4220.000000,4503.076923,4195.897435,4638.461538,3980.000000,4028.205128
208,4395.897435,4512.820512,4529.743589,4263.589743,4517.435897,4181.025641,4427.692307,4241.538461,4227.692307,4508.205128,4200.000000,4647.692307,3984.102565,4034.358974
209,4394.871794,4508.717948,4530.256410,4265.128205,4517.435897,4181.538461,4427.179487,4239.487179,4225.641025,4505.128205,4202.051282,4652.820512,3977.948718,4037.948717
210,4393.846153,4517.435897,4527.179487,4263.589743,4508.205128,4180.512820,4428.205128,4240.512820,4225.128205,4500.512820,4198.974358,4649.230769,3983.589744,4037.435897
211,4394.871794,4523.589743,4524.615384,4261.025641,4500.512820,4177.435897,4425.641025,4240.000000,4225.641025,4504.615384,4202.051282,4645.641025,3985.641026,4033.846153
212,4394.871794,4513.333333,4524.615384,4260.000000,4494.358974,4171.794871,4422.564102,4235.384615,4223.589743,4510.256410,4206.666666,4645.641025,3980.512821,4031.794871
213,4394.358974,4511.794871,4528.717948,4263.076923,4496.923076,4176.923076,4425.128205,4238.461538,4224.102564,4509.743589,4205.128205,4647.692307,3984.615385,4035.384615
214,4394.871794,4520.512820,4529.743589,4263.589743,4507.692307,4188.205128,4431.282051,4243.589743,4225.641025,4503.589743,4204.615384,4647.692307,3982.564103,4035.384615
215,4393.846153,4520.512820,4525.128205,4260.512820,4512.307692,4188.717948,4430.769230,4235.384615,4221.025641,4497.948717,4206.153846,4644.102564,3971.794872,4029.743589
216,4391.794871,4517.435897,4522.051282,4258.461538,4504.615384,4183.589743,4429.230769,4229.743589,4216.923076,4501.025641,4198.974358,4643.076923,3978.974359,4028.717948
217,4387.692307,4513.333333,4524.102564,4255.897435,4493.333333,4183.076923,4429.230769,4232.820512,4219.487179,4500.000000,4192.820512,4641.025641,3987.179488,4028.205128
218,4382.564102,4504.615384,4523.589743,4256.923076,4495.384615,4182.051282,4427.179487,4230.256410,4214.871794,4489.230769,4196.923076,4636.410256,3972.820513,4023.589743
219,4384.615384,4505.641025,4523.589743,4262.564102,4507.692307,4180.000000,4426.153846,4228.717948,4205.641025,4487.692307,4192.307692,4634.358974,3960.000000,4022.051282
220,4389.743589,4511.282051,4526.153846,4263.076923,4499.487179,4179.487179,4427.692307,4230.256410,4207.179487,4492.307692,4188.205128,4636.410256,3964.102565,4024.102564
221,4387.179487,4508.717948,4524.102564,4260.000000,4484.102564,4177.948717,4427.692307,4230.256410,4214.358974,4494.358974,4195.897435,4638.461538,3970.769231,4023.076923
222,4384.102564,4505.641025,4522.564102,4257.948717,4486.666666,4172.820512,4426.153846,4231.794871,4211.794871,4496.410256,4194.358974,4637.435897,3969.230770,4022.564102
223,4385.641025,4506.666666,4521.025641,4252.307692,4494.871794,4172.820512,4426.666666,4230.769230,4206.153846,4494.358974,4189.230769,4634.358974,3962.051283,4022.564102
224,4385.641025,4505.128205,4521.025641,4255.384615,4500.000000,4176.410256,4427.179487,4228.205128,4211.794871,4490.256410,4198.974358,4636.923076,3963.076924,4024.615384
225,4390.769230,4507.179487,4523.589743,4265.128205,4509.230769,4181.025641,4431.794871,4233.333333,4222.051282,4493.846153,4202.564102,4644.615384,3976.923077,4033.846153
226,4397.435897,4515.384615,4527.179487,4265.641025,4513.333333,4181.538461,4435.897435,4237.948717,4223.076923,4501.538461,4193.846153,4646.666666,3986.153847,4036.923076
227,4394.358974,4518.461538,4526.666666,4263.589743,4511.794871,4179.487179,4432.820512,4235.897435,4221.025641,4509.230769,4199.487179,4644.615384,3983.076924,4032.820512
228,4392.307692,4515.897435,4523.076923,4265.128205,4504.102564,4175.897435,4431.282051,4238.974358,4223.589743,4511.794871,4211.282051,4644.102564,3974.871795,4034.358974
229,4392.820512,4505.128205,4522.051282,4262.051282,4487.179487,4169.743589,4429.230769,4239.487179,4224.102564,4503.589743,4205.128205,4646.666666,3970.256411,4038.461538
230,4390.769230,4495.897435,4523.076923,4259.487179,4486.666666,4170.769230,4429.743589,4236.923076,4224.102564,4504.102564,4202.564102,4649.230769,3976.923077,4035.897435
231,4391.794871,4503.589743,4524.615384,4261.025641,4504.615384,4179.487179,4436.923076,4243.076923,4228.717948,4514.358974,4210.256410,4650.769230,3989.230770,4035.897435
232,4396.410256,4516.410256,4525.128205,4262.564102,4508.205128,4185.641025,4441.025641,4248.205128,4232.820512,4515.384615,4211.282051,4650.256410,3987.692308,4040.000000
233,4394.358974,4519.487179,4525.128205,4267.692307,4505.128205,4185.128205,4440.000000,4244.615384,4232.820512,4515.384615,4210.769230,4650.769230,3980.000000,4039.487179
234,4391.794871,4513.333333,4525.128205,4271.282051,4507.179487,4181.538461,4434.358974,4236.923076,4229.743589,4518.461538,4212.307692,4649.743589,3979.487180,4033.333333
235,4391.282051,4508.717948,4522.564102,4264.615384,4498.461538,4176.410256,4428.717948,4233.333333,4225.128205,4512.307692,4206.666666,4645.128205,3982.564103,4029.743589
236,4390.256410,4511.794871,4521.538461,4260.000000,4495.384615,4177.948717,4433.333333,4238.461538,4225.641025,4507.179487,4201.538461,4646.153846,3989.230770,4033.333333
237,4391.282051,4517.435897,4525.128205,4264.102564,4509.743589,4187.179487,4444.102564,4242.051282,4229.230769,4510.769230,4209.230769,4651.794871,3989.743590,4037.435897
238,4393.333333,4511.282051,4524.615384,4263.076923,4514.358974,4188.717948,4443.076923,4241.025641,4228.717948,4512.820512,4214.871794,4650.256410,3981.538462,4035.897435
239,4391.794871,4504.615384,4521.025641,4260.000000,4504.615384,4180.512820,4433.846153,4240.000000,4229.230769,4511.282051,4207.692307,4645.641025,3978.974359,4031.794871
240,4387.179487,4506.666666,4522.051282,4261.538461,4498.974358,4175.384615,4431.794871,4240.000000,4231.282051,4512.307692,4205.641025,4648.205128,3983.589744,4032.307692
241,4387.179487,4506.153846,4525.128205,4261.538461,4497.948717,4176.923076,4428.717948,4236.923076,4230.769230,4515.384615,4209.743589,4652.820512,3982.051283,4035.897435
242,4391.794871,4506.153846,4525.128205,4263.589743,4494.358974,4175.897435,4427.692307,4237.435897,4228.717948,4515.897435,4206.666666,4651.794871,3978.461539,4035.384615
243,4394.358974,4512.820512,4523.589743,4271.282051,4494.358974,4174.358974,4436.923076,4241.025641,4230.769230,4512.820512,4204.102564,4649.230769,3982.051283,4036.923076
244,4392.820512,4516.410256,4522.564102,4270.256410,4503.589743,4181.025641,4441.025641,4243.076923,4230.256410,4512.307692,4205.641025,4645.641025,3986.153847,4038.974358
245,4389.230769,4513.846153,4522.051282,4262.564102,4509.230769,4185.641025,4433.846153,4242.051282,4225.641025,4512.820512,4204.102564,4642.051282,3980.000000,4033.333333
246,4386.666666,4509.230769,4522.564102,4261.538461,4494.358974,4179.487179,4426.666666,4233.846153,4221.025641,4505.128205,4200.512820,4641.025641,3972.307693,4028.717948
247,4391.282051,4505.128205,4522.564102,4264.102564,4482.564102,4179.487179,4426.153846,4229.230769,4221.025641,4503.076923,4204.615384,4646.153846,3983.589744,4034.871794
248,4396.923076,4508.205128,4527.692307,4265.641025,4502.564102,4186.666666,4432.820512,4240.512820,4227.179487,4512.820512,4214.871794,4653.333333,3997.435898,4045.641025
249,4394.871794,4511.282051,4538.461538,4268.205128,4519.487179,4186.153846,4440.000000,4249.743589,4233.846153,4520.000000,4224.102564,4658.461538,3996.410257,4051.282051
250,4396.410256,4510.256410,4536.410256,4269.743589,4506.666666,4184.615384,4436.923076,4244.615384,4235.897435,4524.102564,4225.128205,4657.435897,3998.974359,4049.230769
251,4400.512820,4516.410256,4526.153846,4271.794871,4492.820512,4183.589743,4431.794871,4238.974358,4231.794871,4523.589743,4214.358974,4651.282051,4006.153846,4045.128205
252,4398.974358,4518.974358,4531.794871,4277.435897,4501.538461,4183.589743,4440.000000,4246.153846,4230.769230,4518.974358,4214.358974,4651.794871,3999.487180,4045.641025
253,4398.974358,4514.871794,4540.000000,4280.000000,4512.307692,4187.692307,4449.230769,4252.820512,4236.923076,4521.025641,4222.051282,4659.487179,3991.794872,4049.743589
254,4398.461538,4514.871794,4530.256410,4276.410256,4508.717948,4188.717948,4445.128205,4248.717948,4233.846153,4522.564102,4217.435897,4656.923076,3995.384616,4048.205128
255,4390.769230,4510.769230,4519.487179,4270.769230,4498.461538,4183.589743,4434.871794,4239.487179,4221.025641,4513.333333,4211.282051,4643.076923,3993.846154,4040.000000
256,4385.128205,4507.692307,4521.538461,4266.666666,4500.512820,4180.000000,4431.794871,4234.358974,4219.487179,4508.717948,4214.358974,4638.461538,3986.153847,4031.282051
257,4391.282051,4516.923076,4523.589743,4264.102564,4509.743589,4183.076923,4436.923076,4235.897435,4226.153846,4518.461538,4213.846153,4645.128205,3990.256411,4032.307692
258,4392.820512,4517.948717,4520.512820,4265.128205,4501.538461,4184.102564,4431.794871,4224.615384,4220.512820,4518.461538,4207.692307,4647.692307,3998.461539,4037.948717
259,4387.179487,4509.230769,4520.000000,4269.230769,4488.205128,4182.051282,4424.102564,4205.641025,4214.871794,4504.102564,4209.743589,4645.641025,3994.358975,4037.435897
