,AF3,F7,F3,FC5,T7,P7,O1,O2,P8,T8,FC6,F4,F8,AF4
0,4423.589743,4575.384615,4544.102564,4283.076923,4509.743589,4141.025641,4467.179487,4250.256410,4268.717948,4546.666666,4263.076923,4681.538461,4024.102564,4076.410256
1,4415.897435,4566.666666,4543.076923,4282.564102,4507.692307,4140.512820,4465.128205,4248.717948,4267.692307,4541.538461,4268.205128,4681.025641,4008.205128,4076.410256
2,4422.564102,4567.179487,4547.692307,4295.384615,4508.205128,4151.282051,4473.333333,4252.307692,4274.358974,4548.717948,4286.153846,4686.153846,4005.128205,4087.179487
3,4432.820512,4571.794871,4550.256410,4296.410256,4510.769230,4151.794871,4474.871794,4252.307692,4275.384615,4555.897435,4284.102564,4685.641025,4026.666666,4085.641025
4,4422.051282,4573.333333,4544.615384,4282.564102,4507.692307,4138.974358,4465.128205,4247.692307,4264.615384,4544.615384,4265.128205,4673.846153,4027.692307,4071.794871
5,4407.692307,4565.641025,4538.461538,4278.461538,4502.564102,4134.358974,4459.487179,4242.564102,4256.923076,4530.769230,4258.974358,4665.641025,4006.666666,4067.179487
6,4409.743589,4560.512820,4536.923076,4277.948717,4504.102564,4138.974358,4463.589743,4242.564102,4260.512820,4532.307692,4262.051282,4669.743589,4001.025641,4068.205128
7,4416.923076,4567.179487,4537.435897,4278.461538,4508.205128,4139.487179,4466.666666,4246.666666,4263.589743,4539.487179,4268.205128,4675.384615,4009.743589,4070.769230
8,4421.025641,4570.769230,4543.589743,4286.666666,4508.205128,4140.000000,4469.230769,4249.743589,4263.589743,4548.717948,4278.974358,4679.487179,4015.897435,4078.461538
9,4422.051282,4564.615384,4545.128205,4297.435897,4507.179487,4142.564102,4472.820512,4248.717948,4264.615384,4551.282051,4275.897435,4678.974358,4014.871794,4078.974358
10,4420.512820,4567.692307,4541.025641,4297.435897,4507.692307,4145.641025,4471.282051,4245.128205,4262.051282,4539.487179,4263.076923,4676.410256,4007.692307,4070.769230
11,4420.512820,4573.333333,4542.564102,4285.641025,4506.153846,4149.743589,4468.205128,4245.641025,4261.538461,4534.871794,4261.025641,4675.384615,4006.666666,4069.230769
12,4422.051282,4569.743589,4549.743589,4283.589743,4505.641025,4152.307692,4469.230769,4248.205128,4263.589743,4539.487179,4269.743589,4677.435897,4016.923076,4075.384615
13,4422.564102,4569.743589,4551.282051,4289.230769,4507.692307,4151.794871,4472.307692,4249.743589,4264.102564,4538.974358,4272.307692,4679.487179,4017.948717,4079.487179
14,4422.051282,4571.794871,4546.666666,4284.615384,4509.230769,4151.794871,4471.794871,4249.743589,4263.076923,4540.000000,4269.230769,4680.512820,4013.846153,4081.025641
15,4424.615384,4570.769230,4555.384615,4284.615384,4508.717948,4152.307692,4468.205128,4248.205128,4264.615384,4541.025641,4275.384615,4681.538461,4012.820512,4082.051282
16,4428.717948,4567.179487,4567.692307,4293.333333,4507.179487,4151.282051,4466.666666,4246.666666,4265.128205,4537.435897,4277.435897,4682.051282,4007.179487,4083.589743
17,4432.307692,4564.615384,4564.615384,4288.717948,4508.717948,4151.282051,4470.256410,4249.743589,4265.128205,4538.461538,4271.794871,4683.076923,4009.230769,4084.615384
18,4428.717948,4566.666666,4559.487179,4278.974358,4508.717948,4152.307692,4469.230769,4251.794871,4266.153846,4542.051282,4274.358974,4683.076923,4017.948717,4083.076923
19,4423.076923,4570.256410,4557.435897,4280.512820,4506.153846,4151.282051,4461.538461,4247.692307,4259.487179,4539.487179,4276.410256,4681.025641,4013.333333,4083.076923
20,4429.230769,4574.871794,4552.307692,4284.102564,4511.794871,4150.769230,4461.538461,4247.179487,4257.435897,4537.435897,4266.666666,4681.538461,4006.666666,4084.102564
21,4437.435897,4573.333333,4547.692307,4290.769230,4523.589743,4153.333333,4461.538461,4246.666666,4261.025641,4533.846153,4263.076923,4683.076923,4003.076923,4082.051282
22,4431.794871,4566.666666,4538.974358,4291.794871,4520.512820,4154.358974,4454.358974,4237.435897,4256.923076,4531.282051,4265.128205,4675.384615,3995.384616,4077.435897
23,4424.615384,4567.692307,4533.846153,4279.487179,4508.717948,4153.333333,4452.307692,4230.256410,4251.794871,4539.487179,4260.000000,4669.230769,3996.410257,4075.897435
24,4425.641025,4570.256410,4537.435897,4275.897435,4507.692307,4149.230769,4454.358974,4231.794871,4250.769230,4538.461538,4260.512820,4668.205128,4004.102564,4073.846153
25,4424.102564,4569.743589,4539.487179,4281.025641,4512.307692,4145.641025,4452.820512,4232.307692,4253.333333,4528.717948,4262.564102,4668.717948,4001.538461,4071.794871
26,4423.076923,4566.666666,4541.538461,4280.512820,4510.256410,4150.769230,4453.846153,4238.461538,4261.025641,4534.871794,4261.538461,4673.333333,4003.076923,4078.974358
27,4424.615384,4555.384615,4545.128205,4282.564102,4504.102564,4155.384615,4456.410256,4246.153846,4267.179487,4544.615384,4266.666666,4674.871794,4003.589743,4084.102564
28,4422.564102,4551.282051,4544.615384,4290.256410,4510.256410,4153.333333,4456.410256,4241.538461,4262.564102,4538.974358,4268.205128,4671.282051,3996.923077,4077.435897
29,4419.487179,4568.205128,4540.512820,4290.256410,4518.974358,4152.820512,4456.923076,4233.333333,4255.384615,4533.846153,4262.051282,4667.179487,3998.974359,4070.769230
30,4418.974358,4577.435897,4537.948717,4285.128205,4513.333333,4154.358974,4451.794871,4232.307692,4252.307692,4538.461538,4261.538461,4664.615384,4004.102564,4073.846153
31,4412.307692,4570.769230,4537.948717,4281.025641,4506.666666,4151.282051,4443.076923,4230.769230,4250.769230,4536.923076,4262.564102,4659.487179,4003.589743,4074.871794
32,4405.641025,4563.589743,4533.846153,4278.974358,4508.205128,4150.256410,4442.564102,4228.205128,4252.307692,4527.179487,4255.384615,4654.358974,4000.000000,4067.692307
33,4410.769230,4557.435897,4533.333333,4280.000000,4509.743589,4154.871794,4448.717948,4229.743589,4255.897435,4525.128205,4257.435897,4656.410256,3995.384616,4068.205128
34,4412.307692,4552.820512,4540.512820,4280.512820,4506.666666,4157.948717,4450.769230,4233.333333,4264.615384,4536.923076,4268.717948,4664.615384,3994.358975,4075.384615
35,4408.205128,4556.410256,4546.153846,4275.897435,4505.128205,4156.923076,4450.769230,4235.384615,4269.743589,4545.128205,4269.743589,4671.282051,3996.410257,4076.923076
36,4414.871794,4565.641025,4547.692307,4273.333333,4505.128205,4156.923076,4452.307692,4233.333333,4264.102564,4541.538461,4264.615384,4669.230769,3998.461539,4075.384615
37,4423.589743,4566.666666,4549.230769,4278.974358,4507.692307,4155.384615,4449.743589,4231.794871,4261.538461,4534.871794,4259.487179,4669.230769,4003.076923,4080.512820
38,4423.589743,4552.307692,4550.256410,4285.641025,4506.153846,4153.333333,4447.692307,4233.846153,4262.564102,4530.769230,4256.923076,4676.410256,4005.641025,4085.128205
39,4422.051282,4547.179487,4549.230769,4284.102564,4502.564102,4153.846153,4449.743589,4234.358974,4262.051282,4528.717948,4263.076923,4678.461538,3998.461539,4085.128205
40,4424.615384,4565.128205,4547.179487,4281.025641,4505.128205,4155.384615,4451.282051,4233.333333,4263.076923,4531.794871,4270.769230,4675.384615,3999.487180,4086.666666
41,4426.153846,4575.384615,4549.230769,4281.538461,4509.743589,4161.025641,4451.282051,4234.358974,4264.102564,4537.948717,4267.179487,4678.461538,4006.153846,4088.717948
42,4425.641025,4567.692307,4549.743589,4283.589743,4510.769230,4169.230769,4452.820512,4233.846153,4261.538461,4539.487179,4267.692307,4681.025641,4003.589743,4088.717948
43,4423.589743,4564.102564,4546.666666,4282.051282,4509.230769,4169.230769,4452.820512,4232.307692,4262.051282,4534.358974,4268.717948,4674.358974,4001.538461,4087.179487
44,4424.102564,4560.000000,4545.128205,4278.974358,4508.205128,4163.589743,4452.820512,4235.897435,4267.692307,4535.384615,4262.051282,4670.256410,4007.692307,4084.615384
45,4426.666666,4558.461538,4545.641025,4280.512820,4508.717948,4168.205128,4453.846153,4238.461538,4272.307692,4544.615384,4270.256410,4675.384615,4013.333333,4083.589743
46,4423.589743,4567.692307,4545.641025,4282.564102,4505.128205,4166.666666,4450.769230,4233.333333,4265.128205,4541.538461,4281.025641,4677.435897,4005.641025,4081.538461
47,4418.974358,4572.820512,4543.589743,4280.512820,4502.051282,4155.897435,4448.717948,4228.717948,4253.333333,4526.666666,4269.743589,4673.846153,3995.384616,4077.948717
48,4420.512820,4568.205128,4544.102564,4280.000000,4503.076923,4158.461538,4452.307692,4233.333333,4255.384615,4528.205128,4261.025641,4672.820512,4003.589743,4078.461538
49,4422.564102,4563.589743,4545.128205,4283.589743,4499.487179,4164.102564,4451.282051,4231.794871,4257.435897,4534.358974,4264.615384,4671.794871,4014.358974,4079.487179
50,4418.974358,4563.076923,4540.512820,4281.538461,4496.410256,4154.871794,4443.589743,4220.512820,4247.179487,4525.128205,4258.461538,4665.128205,4007.692307,4072.820512
51,4416.410256,4565.128205,4538.461538,4276.410256,4501.538461,4151.282051,4444.102564,4223.076923,4247.692307,4524.102564,4256.410256,4661.538461,4002.564102,4068.717948
52,4421.025641,4571.282051,4543.076923,4282.051282,4505.128205,4165.128205,4453.333333,4236.410256,4262.564102,4535.897435,4270.256410,4666.666666,4003.589743,4073.846153
53,4421.025641,4568.205128,4542.564102,4286.153846,4505.641025,4170.769230,4455.384615,4236.923076,4266.666666,4533.333333,4272.820512,4666.666666,3995.897436,4073.333333
54,4415.897435,4557.948717,4538.461538,4273.846153,4503.589743,4165.641025,4452.820512,4234.871794,4259.487179,4521.538461,4259.487179,4658.974358,3994.358975,4064.102564
55,4413.846153,4554.358974,4537.948717,4262.564102,4497.435897,4166.153846,4455.897435,4242.051282,4263.076923,4522.051282,4256.923076,4655.384615,4007.179487,4065.641025
56,4415.384615,4554.871794,4540.512820,4264.102564,4497.435897,4168.205128,4458.461538,4246.153846,4267.179487,4529.230769,4263.589743,4661.538461,4010.256410,4074.871794
57,4421.538461,4561.538461,4542.051282,4269.743589,4505.128205,4169.230769,4456.410256,4245.128205,4264.102564,4535.384615,4267.179487,4668.205128,4010.256410,4078.974358
58,4425.641025,4567.692307,4544.615384,4273.333333,4507.692307,4172.307692,4454.871794,4242.051282,4266.666666,4534.358974,4265.128205,4668.205128,4011.794871,4081.538461
59,4421.025641,4558.974358,4549.230769,4274.871794,4505.128205,4170.769230,4450.769230,4235.384615,4263.076923,4524.615384,4264.615384,4666.666666,3997.948718,4081.538461
60,4416.923076,4551.282051,4550.256410,4277.948717,4496.410256,4161.025641,4442.564102,4228.717948,4249.743589,4516.923076,4263.589743,4662.564102,3988.717949,4075.384615
61,4421.538461,4553.846153,4549.230769,4279.487179,4490.769230,4158.974358,4439.487179,4223.589743,4247.692307,4513.846153,4255.384615,4657.435897,3997.948718,4070.769230
62,4423.589743,4554.871794,4549.230769,4273.333333,4501.025641,4163.589743,4438.461538,4215.897435,4247.179487,4505.641025,4247.692307,4655.384615,3996.410257,4071.794871
63,4421.025641,4561.538461,4548.717948,4271.794871,4510.769230,4163.589743,4435.384615,4213.333333,4238.461538,4506.666666,4250.256410,4653.846153,3989.743590,4070.769230
64,4422.051282,4570.769230,4550.256410,4277.948717,4507.692307,4166.153846,4440.512820,4216.410256,4245.128205,4517.948717,4254.871794,4654.871794,3997.435898,4071.794871
65,4420.512820,4561.025641,4548.717948,4274.871794,4506.666666,4172.820512,4444.615384,4218.461538,4255.897435,4513.333333,4252.307692,4655.384615,3995.384616,4074.358974
66,4416.923076,4548.717948,4545.128205,4271.282051,4505.641025,4172.307692,4442.564102,4218.461538,4248.205128,4502.051282,4252.820512,4655.897435,3985.641026,4072.307692
67,4421.538461,4553.333333,4549.230769,4277.435897,4504.102564,4169.230769,4442.564102,4217.435897,4242.564102,4510.769230,4261.025641,4658.461538,3996.410257,4072.820512
68,4425.128205,4557.948717,4551.282051,4280.000000,4504.615384,4170.256410,4443.076923,4217.435897,4250.256410,4526.153846,4263.589743,4658.974358,4003.589743,4075.384615
69,4417.435897,4555.384615,4548.717948,4274.871794,4496.410256,4168.205128,4438.461538,4216.410256,4249.743589,4520.512820,4261.025641,4655.384615,3995.897436,4073.846153
70,4414.871794,4562.564102,4547.179487,4273.846153,4493.333333,4166.666666,4438.461538,4216.923076,4246.666666,4508.717948,4261.538461,4655.384615,4000.512820,4071.794871
71,4419.487179,4568.205128,4546.666666,4277.948717,4504.102564,4169.743589,4441.025641,4218.461538,4254.358974,4515.384615,4265.128205,4656.410256,4013.846153,4072.307692
72,4421.025641,4556.923076,4546.153846,4281.025641,4504.615384,4170.769230,4438.974358,4217.948717,4262.051282,4522.564102,4262.051282,4653.333333,4013.333333,4072.307692
73,4419.487179,4553.333333,4545.641025,4278.461538,4492.820512,4171.282051,4435.897435,4220.000000,4264.615384,4520.000000,4261.025641,4653.846153,4008.205128,4072.820512
74,4416.923076,4564.615384,4546.153846,4277.435897,4490.256410,4170.769230,4433.846153,4219.487179,4262.564102,4512.307692,4268.717948,4655.897435,4004.102564,4072.820512
75,4414.871794,4562.564102,4548.205128,4278.974358,4496.923076,4169.743589,4435.384615,4214.358974,4256.923076,4509.743589,4268.717948,4651.282051,3996.923077,4072.307692
76,4415.897435,4552.307692,4548.717948,4273.333333,4503.076923,4170.769230,4438.974358,4214.358974,4252.307692,4517.435897,4254.358974,4648.717948,3996.923077,4069.743589
77,4414.358974,4553.846153,4547.179487,4267.179487,4505.641025,4171.282051,4440.000000,4216.410256,4250.256410,4516.410256,4244.615384,4649.743589,3997.948718,4063.589743
78,4412.820512,4557.435897,4546.153846,4271.794871,4501.538461,4169.743589,4438.461538,4212.307692,4248.717948,4505.641025,4245.641025,4647.179487,3988.205129,4062.564102
79,4414.871794,4555.384615,4550.769230,4276.923076,4500.512820,4169.743589,4438.974358,4212.820512,4246.153846,4501.025641,4247.692307,4645.641025,3982.051283,4068.205128
80,4412.820512,4554.358974,4553.333333,4276.410256,4500.512820,4169.743589,4438.974358,4215.384615,4246.153846,4500.512820,4248.717948,4646.153846,3985.128206,4070.769230
81,4408.717948,4545.128205,4549.230769,4281.025641,4495.897435,4168.205128,4436.923076,4207.692307,4248.205128,4493.846153,4251.282051,4645.128205,3985.641026,4067.179487
82,4408.717948,4536.923076,4547.179487,4281.025641,4491.794871,4166.153846,4435.897435,4205.641025,4246.666666,4496.410256,4245.641025,4644.102564,3982.564103,4063.589743
83,4411.282051,4549.743589,4548.205128,4270.256410,4491.282051,4166.153846,4437.948717,4213.846153,4246.666666,4511.794871,4242.051282,4645.128205,3988.205129,4071.794871
84,4421.025641,4568.205128,4552.307692,4268.205128,4497.948717,4173.846153,4444.102564,4219.487179,4256.923076,4521.025641,4256.410256,4648.717948,4003.589743,4086.153846
85,4430.256410,4569.743589,4556.410256,4276.923076,4506.666666,4181.025641,4447.692307,4224.615384,4269.743589,4526.666666,4272.820512,4657.948717,4012.820512,4091.282051
86,4422.564102,4552.307692,4550.769230,4280.512820,4503.589743,4176.410256,4443.076923,4224.615384,4265.128205,4520.000000,4269.743589,4656.410256,4001.025641,4082.051282
87,4408.205128,4539.487179,4543.589743,4275.897435,4496.410256,4166.666666,4435.897435,4212.820512,4248.205128,4502.051282,4254.358974,4637.948717,3981.025642,4069.230769
88,4409.230769,4551.794871,4545.128205,4273.846153,4502.051282,4167.179487,4435.897435,4208.717948,4245.641025,4503.589743,4246.666666,4630.769230,3986.153847,4064.615384
89,4420.512820,4577.948717,4549.230769,4275.384615,4511.282051,4180.000000,4445.128205,4217.435897,4258.461538,4527.179487,4248.717948,4642.564102,4010.256410,4071.282051
90,4420.000000,4577.948717,4548.717948,4277.948717,4507.692307,4183.589743,4445.128205,4218.974358,4266.153846,4538.974358,4252.307692,4649.230769,4014.871794,4078.461538
91,4410.256410,4545.641025,4544.102564,4276.410256,4501.538461,4173.333333,4440.512820,4216.923076,4266.153846,4530.769230,4254.358974,4643.076923,3995.897436,4072.307692
92,4407.179487,4533.846153,4544.615384,4268.205128,4504.102564,4173.846153,4446.153846,4218.461538,4263.589743,4523.076923,4250.256410,4637.435897,3988.717949,4063.076923
93,4411.282051,4561.538461,4546.153846,4264.102564,4509.743589,4181.538461,4447.692307,4213.333333,4255.384615,4523.589743,4242.051282,4632.307692,3999.487180,4063.589743
94,4414.871794,4581.025641,4545.128205,4267.179487,4508.205128,4180.512820,4441.538461,4208.717948,4251.794871,4522.564102,4241.025641,4630.769230,4005.128205,4068.717948
95,4416.923076,4571.794871,4548.205128,4271.794871,4505.128205,4182.564102,4444.102564,4213.846153,4261.025641,4522.051282,4248.717948,4634.871794,4005.641025,4071.282051
96,4416.923076,4563.589743,4550.256410,4268.205128,4506.666666,4184.615384,4450.256410,4218.461538,4266.153846,4524.102564,4255.897435,4635.384615,4006.666666,4072.307692
97,4411.794871,4556.923076,4548.717948,4261.025641,4509.743589,4175.897435,4446.153846,4215.897435,4260.000000,4522.564102,4252.307692,4630.256410,3998.974359,4070.769230
98,4405.128205,4545.641025,4546.666666,4262.051282,4503.589743,4169.743589,4438.461538,4214.358974,4259.487179,4522.051282,4236.923076,4624.615384,3988.205129,4066.666666
99,4409.230769,4556.410256,4548.717948,4265.128205,4495.384615,4171.282051,4437.948717,4216.923076,4264.615384,4527.179487,4233.846153,4624.102564,3990.256411,4069.230769
100,4419.487179,4575.384615,4553.333333,4264.615384,4502.564102,4171.282051,4441.538461,4214.871794,4260.000000,4522.564102,4249.743589,4623.076923,3996.410257,4074.871794
101,4415.897435,4562.564102,4550.256410,4265.641025,4507.692307,4170.256410,4439.487179,4206.666666,4248.205128,4503.589743,4250.769230,4616.923076,3996.923077,4069.743589
102,4401.538461,4542.564102,4542.051282,4266.666666,4494.871794,4166.666666,4431.282051,4201.025641,4244.102564,4501.025641,4231.794871,4611.794871,3988.717949,4058.974358
103,4399.487179,4557.948717,4541.025641,4258.974358,4486.153846,4164.102564,4433.333333,4202.051282,4248.205128,4520.000000,4229.743589,4611.794871,3984.615385,4058.974358
104,4406.153846,4573.333333,4541.025641,4249.230769,4492.820512,4168.717948,4437.948717,4204.102564,4250.256410,4520.512820,4237.948717,4610.256410,3990.769231,4064.102564
105,4402.051282,4555.897435,4537.435897,4244.615384,4496.410256,4169.230769,4432.820512,4200.000000,4246.666666,4500.512820,4230.256410,4606.666666,3987.692308,4058.461538
106,4396.923076,4549.230769,4537.435897,4248.205128,4492.307692,4166.666666,4431.794871,4196.923076,4244.102564,4501.538461,4231.282051,4608.717948,3981.538462,4053.846153
107,4406.666666,4558.461538,4546.666666,4261.538461,4492.307692,4170.769230,4442.051282,4207.179487,4256.410256,4521.538461,4249.743589,4615.897435,3996.923077,4066.153846
108,4414.871794,4548.717948,4552.820512,4266.666666,4496.410256,4174.871794,4448.717948,4215.897435,4267.692307,4523.076923,4256.410256,4620.000000,4009.743589,4076.410256
109,4408.205128,4543.076923,4547.179487,4253.846153,4496.410256,4171.282051,4444.102564,4208.717948,4257.948717,4513.333333,4246.153846,4617.948717,4000.512820,4069.230769
110,4405.641025,4554.358974,4544.615384,4250.256410,4491.794871,4167.179487,4437.435897,4201.025641,4250.769230,4516.410256,4243.076923,4614.358974,3988.717949,4064.102564
111,4410.769230,4558.974358,4545.128205,4260.512820,4491.282051,4168.205128,4433.333333,4202.564102,4258.974358,4523.589743,4250.769230,4614.358974,3989.230770,4070.256410
112,4412.307692,4566.153846,4542.051282,4264.102564,4495.384615,4168.205128,4430.256410,4202.564102,4264.615384,4525.641025,4253.846153,4613.846153,4003.589743,4071.794871
113,4411.794871,4573.333333,4543.589743,4263.589743,4492.820512,4168.205128,4428.717948,4201.538461,4262.051282,4522.051282,4246.666666,4610.769230,4015.384615,4064.102564
114,4407.179487,4554.871794,4544.615384,4265.128205,4490.256410,4169.743589,4424.102564,4197.435897,4254.871794,4512.820512,4235.897435,4606.666666,4001.538461,4057.435897
115,4402.564102,4547.692307,4540.512820,4263.076923,4500.000000,4169.230769,4416.923076,4193.846153,4247.179487,4506.666666,4231.794871,4606.153846,3977.948718,4056.410256
116,4404.102564,4570.769230,4537.948717,4263.076923,4507.692307,4170.256410,4419.487179,4195.897435,4247.692307,4512.820512,4232.307692,4606.153846,3973.333334,4055.384615
117,4401.025641,4574.358974,4536.923076,4260.512820,4506.666666,4172.820512,4424.102564,4193.846153,4250.256410,4514.358974,4230.769230,4602.051282,3978.974359,4052.820512
118,4394.358974,4549.230769,4535.897435,4251.794871,4503.076923,4170.769230,4418.974358,4184.102564,4246.153846,4499.487179,4227.692307,4600.512820,3984.615385,4052.307692
119,4395.897435,4535.897435,4534.871794,4246.153846,4493.846153,4165.128205,4414.871794,4184.102564,4245.128205,4492.820512,4227.179487,4601.538461,3987.692308,4054.358974
120,4403.076923,4544.102564,4539.487179,4249.743589,4488.205128,4167.179487,4422.051282,4194.358974,4252.307692,4512.307692,4239.487179,4607.692307,3988.205129,4064.102564
121,4407.179487,4556.923076,4546.153846,4254.358974,4497.435897,4173.846153,4427.692307,4201.025641,4260.000000,4530.256410,4254.358974,4619.487179,3992.820513,4073.846153
122,4407.179487,4561.538461,4548.205128,4253.846153,4500.000000,4171.282051,4424.102564,4202.051282,4259.487179,4525.128205,4252.307692,4620.512820,3998.461539,4074.871794
123,4408.205128,4549.743589,4546.666666,4250.769230,4492.307692,4165.641025,4420.512820,4200.512820,4255.897435,4516.410256,4244.102564,4615.384615,4002.564102,4073.846153
124,4411.282051,4540.000000,4547.179487,4248.717948,4496.410256,4167.692307,4421.025641,4201.538461,4261.538461,4521.538461,4248.717948,4618.974358,4004.615384,4076.923076
125,4415.384615,4552.307692,4549.743589,4253.846153,4506.666666,4173.846153,4421.538461,4205.641025,4270.256410,4531.282051,4260.000000,4622.051282,4006.153846,4077.435897
126,4413.846153,4564.615384,4547.692307,4264.102564,4503.589743,4174.358974,4417.948717,4204.615384,4263.076923,4529.230769,4257.948717,4616.410256,4007.179487,4074.358974
127,4410.769230,4554.871794,4545.641025,4264.102564,4492.820512,4169.743589,4411.794871,4200.512820,4251.282051,4513.846153,4249.743589,4615.384615,3999.487180,4071.282051
128,4410.769230,4537.435897,4548.717948,4250.769230,4489.743589,4166.666666,4407.179487,4201.025641,4249.230769,4504.102564,4247.179487,4620.512820,3988.205129,4069.230769
129,4407.179487,4540.512820,4548.717948,4251.282051,4489.743589,4166.666666,4406.666666,4198.974358,4243.589743,4506.666666,4244.615384,4621.538461,3986.153847,4070.256410
130,4409.743589,4554.358974,4549.743589,4263.589743,4491.282051,4168.717948,4409.230769,4190.769230,4239.487179,4507.179487,4235.384615,4621.025641,3990.256411,4073.333333
131,4411.794871,4558.461538,4550.256410,4256.410256,4498.461538,4170.769230,4408.717948,4188.205128,4244.615384,4505.641025,4229.743589,4615.897435,3984.102565,4068.717948
132,4402.051282,4557.948717,4540.000000,4245.641025,4504.102564,4171.794871,4408.205128,4189.743589,4244.102564,4507.692307,4232.820512,4603.589743,3970.769231,4056.410256
133,4391.794871,4553.333333,4531.794871,4248.717948,4498.461538,4170.256410,4410.769230,4193.333333,4232.820512,4503.589743,4230.256410,4596.410256,3968.717949,4046.153846
134,4390.769230,4542.051282,4533.333333,4250.256410,4492.307692,4168.717948,4408.205128,4192.307692,4230.769230,4492.307692,4223.589743,4598.974358,3980.000000,4044.102564
135,4395.384615,4546.153846,4537.948717,4253.333333,4491.794871,4167.179487,4403.589743,4187.692307,4238.974358,4490.769230,4224.102564,4608.205128,3985.128206,4051.794871
136,4404.615384,4563.076923,4544.102564,4266.153846,4492.307692,4167.179487,4406.153846,4190.769230,4237.435897,4501.538461,4232.820512,4617.435897,3980.000000,4062.051282
137,4409.230769,4564.615384,4545.128205,4265.641025,4492.820512,4167.179487,4408.205128,4195.384615,4232.307692,4506.153846,4244.102564,4618.461538,3974.871795,4060.000000
138,4397.435897,4549.743589,4537.435897,4249.743589,4491.282051,4164.615384,4403.589743,4192.820512,4236.923076,4501.538461,4245.641025,4610.256410,3973.333334,4045.128205
139,4384.102564,4527.692307,4533.333333,4243.076923,4489.743589,4164.615384,4403.589743,4194.358974,4248.205128,4506.666666,4236.923076,4604.615384,3977.948718,4036.410256
140,4382.564102,4517.948717,4532.307692,4244.102564,4485.641025,4166.666666,4408.205128,4202.564102,4250.769230,4512.307692,4231.794871,4605.128205,3985.128206,4040.512820
141,4387.179487,4530.256410,4530.769230,4243.076923,4480.512820,4158.974358,4407.179487,4200.000000,4243.589743,4506.666666,4233.846153,4609.230769,3980.000000,4047.179487
142,4393.846153,4544.102564,4534.358974,4243.589743,4485.128205,4150.769230,4405.641025,4196.923076,4243.076923,4503.589743,4233.333333,4616.923076,3970.769231,4051.794871
143,4400.512820,4552.307692,4541.538461,4247.179487,4492.820512,4158.974358,4412.307692,4200.000000,4247.692307,4508.717948,4233.846153,4622.051282,3980.000000,4055.384615
144,4403.589743,4554.358974,4542.564102,4255.897435,4496.923076,4170.769230,4418.974358,4198.974358,4243.076923,4510.256410,4244.615384,4624.102564,3991.794872,4058.974358
145,4397.435897,4543.589743,4537.948717,4261.538461,4506.153846,4171.282051,4421.025641,4196.410256,4240.512820,4506.666666,4248.717948,4620.000000,3982.564103,4055.384615
146,4391.794871,4540.512820,4537.435897,4254.358974,4507.179487,4168.717948,4418.974358,4198.974358,4244.102564,4507.179487,4238.461538,4611.282051,3969.230770,4045.128205
147,4392.820512,4554.358974,4534.358974,4251.794871,4492.820512,4168.717948,4411.794871,4195.897435,4240.512820,4505.641025,4230.769230,4606.153846,3970.769231,4040.000000
148,4397.948717,4558.974358,4532.820512,4264.102564,4494.871794,4171.794871,4411.282051,4186.153846,4235.897435,4499.487179,4233.846153,4607.179487,3975.384616,4040.512820
149,4397.435897,4549.230769,4537.948717,4267.179487,4507.692307,4174.358974,4420.512820,4188.717948,4236.923076,4491.282051,4232.820512,4606.153846,3969.743590,4040.512820
150,4392.307692,4542.051282,4537.948717,4258.461538,4496.923076,4170.769230,4420.000000,4197.948717,4235.897435,4488.717948,4231.282051,4603.589743,3967.179488,4040.512820
151,4396.923076,4549.230769,4537.948717,4259.487179,4485.641025,4168.205128,4412.307692,4202.051282,4241.025641,4502.564102,4240.512820,4615.384615,3981.025642,4050.256410
152,4409.743589,4563.589743,4544.102564,4266.153846,4494.871794,4172.307692,4416.410256,4207.692307,4254.358974,4520.512820,4250.256410,4628.205128,3991.794872,4062.051282
153,4407.179487,4557.435897,4544.615384,4259.487179,4491.282051,4170.769230,4417.435897,4208.717948,4252.820512,4514.871794,4250.256410,4624.102564,3981.538462,4059.487179
154,4395.384615,4536.410256,4540.512820,4248.717948,4472.820512,4164.615384,4408.717948,4202.051282,4240.000000,4492.820512,4242.051282,4613.846153,3973.333334,4051.794871
155,4395.897435,4532.820512,4539.487179,4249.230769,4477.948717,4165.641025,4408.717948,4200.000000,4237.948717,4486.666666,4238.974358,4614.871794,3984.615385,4052.307692
156,4394.358974,4546.153846,4539.487179,4251.794871,4492.820512,4170.256410,4414.358974,4201.538461,4238.974358,4498.461538,4242.564102,4616.410256,3987.179488,4051.794871
157,4387.692307,4552.307692,4538.974358,4250.256410,4492.307692,4170.769230,4415.897435,4197.948717,4234.871794,4502.051282,4235.897435,4607.692307,3972.820513,4046.666666
158,4389.230769,4544.615384,4541.025641,4255.384615,4489.230769,4171.282051,4415.897435,4199.487179,4232.307692,4497.435897,4230.769230,4607.179487,3967.179488,4049.230769
159,4395.897435,4535.897435,4543.589743,4263.589743,4489.230769,4172.307692,4417.948717,4201.025641,4231.794871,4494.871794,4240.000000,4614.358974,3971.794872,4057.435897
160,4402.564102,4543.589743,4545.641025,4263.589743,4486.666666,4170.769230,4417.435897,4198.461538,4234.871794,4498.461538,4249.230769,4617.435897,3977.948718,4062.051282
161,4409.230769,4556.410256,4554.358974,4262.051282,4488.205128,4168.205128,4417.948717,4206.153846,4243.076923,4506.666666,4247.692307,4623.076923,3984.102565,4064.615384
162,4410.769230,4562.564102,4558.974358,4262.564102,4492.307692,4169.743589,4420.512820,4217.948717,4250.769230,4507.692307,4248.205128,4632.307692,3990.256411,4067.692307
163,4406.153846,4556.410256,4554.871794,4265.128205,4492.820512,4173.846153,4422.051282,4216.923076,4249.743589,4499.487179,4250.256410,4630.769230,3991.282052,4064.615384
164,4400.000000,4540.000000,4550.769230,4263.589743,4491.794871,4173.333333,4423.589743,4204.615384,4244.102564,4495.384615,4242.564102,4621.025641,3978.974359,4054.871794
165,4395.384615,4536.410256,4546.666666,4255.897435,4490.256410,4170.256410,4422.564102,4199.487179,4239.487179,4501.025641,4231.794871,4614.358974,3963.589744,4049.230769
166,4394.358974,4548.717948,4542.564102,4254.358974,4489.743589,4169.743589,4418.974358,4202.564102,4237.948717,4504.102564,4233.846153,4611.794871,3962.564103,4050.769230
167,4399.487179,4561.538461,4542.564102,4262.051282,4491.282051,4172.307692,4419.487179,4201.538461,4239.487179,4503.589743,4247.692307,4616.923076,3982.051283,4057.435897
168,4405.641025,4567.179487,4545.128205,4265.641025,4491.794871,4171.794871,4420.512820,4202.564102,4243.589743,4509.743589,4254.871794,4627.179487,3999.487180,4066.153846
169,4407.179487,4564.615384,4548.205128,4263.589743,4489.743589,4168.717948,4416.923076,4210.769230,4246.153846,4513.333333,4250.256410,4631.282051,3997.435898,4067.692307
170,4400.512820,4549.743589,4546.666666,4263.589743,4487.692307,4168.205128,4413.333333,4216.410256,4248.205128,4511.794871,4247.179487,4625.641025,3988.717949,4061.025641
171,4392.820512,4537.435897,4544.615384,4263.076923,4487.692307,4170.256410,4414.358974,4217.435897,4251.282051,4508.717948,4256.923076,4622.051282,3990.256411,4058.461538
172,4391.282051,4542.564102,4544.102564,4255.384615,4487.692307,4169.230769,4415.384615,4213.333333,4247.179487,4502.051282,4260.512820,4623.076923,3988.717949,4058.461538
173,4389.230769,4549.230769,4543.589743,4248.717948,4487.692307,4167.179487,4413.846153,4204.102564,4237.948717,4498.974358,4241.538461,4621.025641,3980.000000,4057.948717
174,4389.743589,4554.358974,4545.128205,4252.820512,4489.743589,4171.282051,4416.923076,4201.538461,4237.435897,4506.153846,4231.794871,4619.487179,3978.974359,4058.461538
175,4393.846153,4552.307692,4548.717948,4263.589743,4489.230769,4173.333333,4420.000000,4205.128205,4239.487179,4506.153846,4246.666666,4622.564102,3981.538462,4058.461538
176,4393.846153,4544.102564,4550.256410,4265.128205,4486.666666,4169.230769,4416.410256,4203.076923,4233.846153,4495.897435,4254.871794,4627.179487,3977.435898,4058.461538
177,4391.794871,4548.717948,4550.769230,4262.051282,4497.948717,4174.358974,4414.358974,4204.615384,4231.282051,4496.410256,4247.692307,4630.769230,3981.025642,4059.487179
178,4392.307692,4558.461538,4550.769230,4263.589743,4507.692307,4185.641025,4416.410256,4208.205128,4236.410256,4501.025641,4246.666666,4630.256410,3988.717949,4060.000000
179,4395.384615,4560.512820,4550.769230,4264.102564,4498.461538,4184.102564,4417.435897,4203.076923,4234.871794,4494.871794,4250.256410,4630.769230,3991.282052,4062.564102
180,4393.333333,4552.820512,4549.743589,4260.000000,4489.743589,4172.307692,4414.871794,4198.974358,4226.666666,4488.205128,4242.564102,4626.666666,3985.641026,4060.512820
181,4387.179487,4539.487179,4542.564102,4255.384615,4491.794871,4169.230769,4412.820512,4199.487179,4224.102564,4485.128205,4230.256410,4618.974358,3978.974359,4049.230769
182,4386.153846,4534.871794,4536.410256,4254.871794,4495.384615,4176.410256,4413.846153,4198.974358,4226.666666,4483.589743,4233.333333,4615.384615,3978.974359,4047.179487
183,4397.435897,4549.230769,4540.512820,4260.000000,4500.000000,4183.589743,4422.564102,4208.205128,4238.974358,4493.846153,4248.717948,4622.051282,3988.717949,4059.487179
184,4406.666666,4563.589743,4549.743589,4267.179487,4507.179487,4189.230769,4433.846153,4222.051282,4251.282051,4509.743589,4256.410256,4632.820512,3994.871795,4067.179487
185,4395.384615,4556.923076,4548.717948,4266.153846,4507.179487,4183.589743,4429.230769,4216.923076,4245.641025,4507.692307,4246.153846,4628.717948,3987.692308,4061.025641
186,4383.589743,4543.076923,4540.000000,4263.076923,4502.051282,4174.358974,4416.923076,4203.076923,4231.794871,4493.333333,4232.307692,4617.435897,3976.410257,4051.794871
187,4384.615384,4541.025641,4538.461538,4265.641025,4499.487179,4177.948717,4417.435897,4200.512820,4230.769230,4488.717948,4233.846153,4617.435897,3970.256411,4048.717948
188,4386.153846,4550.256410,4541.025641,4265.641025,4501.538461,4185.128205,4422.564102,4201.025641,4235.897435,4494.358974,4243.589743,4623.589743,3977.435898,4051.794871
189,4386.153846,4558.461538,4542.564102,4260.000000,4505.641025,4184.102564,4422.564102,4205.641025,4234.358974,4491.794871,4247.179487,4627.692307,3982.564103,4055.897435
190,4390.769230,4552.820512,4544.102564,4261.538461,4503.076923,4182.564102,4421.538461,4213.846153,4232.820512,4487.692307,4247.692307,4633.333333,3973.846154,4056.410256
191,4392.307692,4544.102564,4548.205128,4267.692307,4497.948717,4185.641025,4424.102564,4211.282051,4233.846153,4497.435897,4250.256410,4636.923076,3976.410257,4057.435897
192,4390.769230,4543.076923,4550.769230,4265.128205,4491.282051,4183.589743,4424.615384,4206.666666,4232.820512,4503.076923,4246.153846,4636.923076,3987.179488,4057.948717
193,4390.256410,4547.179487,4546.666666,4261.538461,4486.153846,4181.538461,4424.102564,4211.282051,4230.769230,4493.846153,4244.102564,4641.538461,3985.128206,4058.461538
194,4395.384615,4556.410256,4548.205128,4265.128205,4494.358974,4185.641025,4426.153846,4218.461538,4236.410256,4500.000000,4255.384615,4647.692307,3988.205129,4064.102564
195,4406.153846,4556.410256,4555.384615,4273.333333,4508.717948,4189.743589,4427.692307,4222.564102,4249.743589,4519.487179,4265.128205,4652.307692,4005.641025,4074.358974
196,4404.102564,4542.051282,4550.769230,4277.435897,4504.615384,4185.641025,4424.102564,4222.051282,4251.794871,4516.923076,4268.717948,4653.846153,4009.230769,4072.307692
197,4394.871794,4541.538461,4543.076923,4278.974358,4489.743589,4179.487179,4416.923076,4215.384615,4241.025641,4498.974358,4265.128205,4648.205128,4001.538461,4062.051282
198,4397.435897,4565.128205,4547.179487,4278.974358,4494.871794,4183.076923,4416.410256,4213.846153,4234.871794,4498.974358,4253.333333,4642.564102,4001.025641,4065.128205
199,4403.076923,4571.282051,4549.230769,4272.820512,4511.282051,4189.230769,4419.487179,4216.410256,4237.948717,4509.743589,4251.282051,4643.589743,3995.384616,4070.769230
200,4398.461538,4549.230769,4544.615384,4267.692307,4505.128205,4186.666666,4414.871794,4213.846153,4237.948717,4511.794871,4263.076923,4643.589743,3986.666667,4063.076923
201,4393.846153,4543.076923,4542.564102,4267.179487,4490.769230,4185.128205,4408.205128,4213.333333,4233.846153,4509.743589,4261.538461,4641.025641,3990.769231,4057.435897
202,4397.435897,4553.846153,4548.205128,4266.153846,4489.743589,4184.615384,4409.230769,4216.410256,4234.871794,4508.717948,4248.205128,4644.615384,3995.897436,4060.000000
203,4401.025641,4555.384615,4548.717948,4266.153846,4492.820512,4183.589743,4414.358974,4215.897435,4237.435897,4507.179487,4244.615384,4646.153846,3989.230770,4058.461538
204,4401.025641,4555.897435,4543.589743,4267.692307,4496.923076,4194.358974,4418.461538,4217.435897,4240.000000,4511.282051,4245.128205,4643.589743,3990.256411,4056.923076
205,4402.564102,4562.564102,4548.205128,4267.179487,4506.666666,4202.564102,4420.000000,4224.615384,4246.666666,4519.487179,4242.564102,4648.205128,4002.051282,4063.589743
206,4403.076923,4561.025641,4549.230769,4264.102564,4506.666666,4192.820512,4415.897435,4223.076923,4251.282051,4516.923076,4247.179487,4653.846153,3997.435898,4065.641025
207,4397.948717,4552.307692,4544.102564,4261.538461,4493.846153,4183.589743,4412.820512,4215.897435,4246.153846,4509.230769,4251.282051,4649.743589,3983.589744,4058.974358
208,4390.256410,4547.179487,4542.564102,4258.974358,4489.230769,4184.102564,4412.307692,4212.820512,4238.461538,4508.717948,4242.051282,4644.102564,3985.641026,4051.794871
209,4389.743589,4547.179487,4541.025641,4261.538461,4492.820512,4183.076923,4406.666666,4209.230769,4231.794871,4512.307692,4233.846153,4645.641025,3995.897436,4049.743589
210,4395.897435,4550.769230,4541.025641,4265.641025,4492.820512,4182.051282,4406.153846,4207.692307,4228.205128,4514.358974,4236.923076,4649.230769,3994.871795,4052.820512
211,4398.461538,4555.384615,4542.564102,4265.641025,4493.333333,4187.179487,4411.794871,4214.871794,4233.333333,4510.256410,4241.025641,4650.769230,3989.230770,4056.410256
212,4396.410256,4556.923076,4538.974358,4262.564102,4492.820512,4186.666666,4410.769230,4217.948717,4233.846153,4507.179487,4242.051282,4649.743589,3989.743590,4054.871794
213,4398.461538,4558.974358,4534.871794,4260.000000,4491.282051,4182.564102,4409.743589,4213.846153,4229.743589,4507.179487,4244.102564,4648.205128,3992.820513,4048.717948
214,4400.000000,4557.948717,4533.333333,4263.589743,4498.461538,4184.102564,4416.410256,4215.384615,4236.923076,4508.205128,4245.128205,4647.179487,3999.487180,4046.153846
215,4397.948717,4549.743589,4533.846153,4267.692307,4504.102564,4187.179487,4420.512820,4219.487179,4247.179487,4509.230769,4244.102564,4649.743589,4003.076923,4050.769230
216,4398.974358,4551.794871,4535.897435,4266.153846,4494.871794,4184.102564,4420.512820,4218.461538,4246.153846,4512.307692,4248.205128,4652.307692,3997.948718,4056.410256
217,4402.051282,4560.000000,4538.461538,4263.076923,4489.230769,4183.589743,4423.076923,4217.948717,4243.589743,4517.435897,4249.230769,4651.794871,3991.794872,4055.384615
218,4403.076923,4563.589743,4541.025641,4262.564102,4495.384615,4190.256410,4424.615384,4226.153846,4247.179487,4521.538461,4247.179487,4655.897435,4000.000000,4054.358974
219,4406.666666,4558.974358,4544.102564,4267.692307,4496.923076,4192.307692,4427.692307,4233.846153,4251.794871,4521.538461,4251.794871,4662.564102,4008.717948,4060.000000
220,4405.128205,4544.615384,4542.051282,4266.153846,4490.769230,4187.179487,4430.256410,4225.641025,4248.717948,4507.179487,4252.820512,4662.051282,3996.410257,4059.487179
221,4393.846153,4540.000000,4535.897435,4255.384615,4489.743589,4185.641025,4426.153846,4213.846153,4237.435897,4492.307692,4241.538461,4655.897435,3980.512821,4049.743589
222,4389.230769,4555.897435,4535.897435,4248.717948,4491.794871,4189.230769,4424.102564,4217.435897,4231.794871,4496.923076,4231.794871,4650.769230,3981.538462,4045.128205
223,4391.282051,4557.948717,4536.410256,4248.717948,4491.794871,4187.179487,4425.128205,4220.000000,4234.358974,4504.102564,4234.358974,4648.205128,3987.692308,4046.153846
224,4390.256410,4537.948717,4531.282051,4252.307692,4488.717948,4183.076923,4423.076923,4214.358974,4232.820512,4499.487179,4244.102564,4650.769230,3984.102565,4050.256410
225,4398.461538,4538.461538,4533.846153,4258.974358,4489.230769,4189.743589,4426.153846,4218.461538,4236.410256,4498.461538,4251.282051,4662.051282,3987.692308,4059.487179
226,4409.743589,4556.410256,4542.051282,4263.589743,4493.846153,4193.846153,4430.769230,4230.256410,4248.717948,4511.282051,4250.769230,4667.179487,4002.564102,4064.615384
227,4406.666666,4556.410256,4543.589743,4263.076923,4495.384615,4188.205128,4426.666666,4232.307692,4249.230769,4515.897435,4251.794871,4661.538461,4005.641025,4065.641025
228,4398.974358,4550.256410,4544.615384,4260.000000,4492.307692,4184.615384,4422.051282,4229.743589,4242.564102,4508.717948,4255.897435,4663.076923,3998.461539,4066.153846
229,4401.538461,4552.307692,4546.153846,4258.461538,4491.282051,4186.153846,4421.025641,4228.205128,4245.641025,4506.666666,4254.358974,4667.692307,3997.435898,4062.564102
230,4402.564102,4553.846153,4545.641025,4261.025641,4491.282051,4185.641025,4419.487179,4226.666666,4248.717948,4505.641025,4250.256410,4662.564102,4000.000000,4057.435897
231,4394.358974,4550.769230,4543.589743,4264.102564,4489.743589,4185.641025,4421.025641,4224.102564,4245.641025,4507.692307,4248.205128,4655.384615,3993.333334,4055.384615
232,4392.307692,4554.358974,4541.025641,4261.538461,4491.794871,4187.179487,4422.564102,4221.538461,4247.179487,4512.307692,4247.692307,4655.384615,3989.743590,4052.820512
233,4397.948717,4554.871794,4541.025641,4262.564102,4494.358974,4185.641025,4421.538461,4218.461538,4248.717948,4511.282051,4247.692307,4656.410256,3996.410257,4054.358974
234,4396.410256,4543.076923,4540.512820,4263.076923,4493.846153,4184.102564,4420.000000,4217.948717,4240.000000,4504.615384,4246.666666,4652.307692,3999.487180,4057.948717
235,4390.256410,4539.487179,4539.487179,4254.358974,4489.230769,4183.589743,4417.948717,4217.435897,4236.410256,4503.076923,4248.205128,4650.256410,3991.282052,4055.897435
236,4394.871794,4553.846153,4541.538461,4246.153846,4487.179487,4182.051282,4417.435897,4221.538461,4244.615384,4513.846153,4257.948717,4654.871794,3985.641026,4056.410256
237,4404.615384,4560.512820,4545.641025,4249.743589,4489.230769,4184.102564,4424.615384,4231.794871,4252.307692,4521.025641,4258.974358,4660.512820,3994.871795,4061.025641
238,4406.153846,4553.846153,4547.179487,4260.512820,4491.794871,4194.871794,4435.384615,4235.384615,4254.358974,4521.538461,4249.743589,4661.538461,4007.692307,4065.641025
239,4406.666666,4555.384615,4546.666666,4266.666666,4499.487179,4201.025641,4436.923076,4232.820512,4256.410256,4522.051282,4250.769230,4658.974358,4007.692307,4066.153846
240,4406.666666,4559.487179,4545.641025,4267.179487,4504.615384,4193.333333,4430.769230,4228.205128,4251.794871,4517.435897,4253.846153,4653.846153,3996.410257,4060.000000
241,4398.461538,4553.846153,4543.076923,4261.538461,4496.923076,4185.128205,4424.102564,4218.974358,4238.974358,4504.615384,4246.153846,4647.692307,3985.128206,4051.282051
242,4389.743589,4548.717948,4536.923076,4251.282051,4489.230769,4183.076923,4418.461538,4211.794871,4230.256410,4498.461538,4243.076923,4644.615384,3977.948718,4046.153846
243,4392.307692,4554.358974,4536.923076,4251.282051,4489.743589,4181.538461,4417.948717,4213.333333,4228.205128,4496.923076,4244.102564,4645.641025,3980.000000,4048.717948
244,4396.410256,4556.923076,4541.538461,4261.025641,4491.282051,4181.025641,4422.564102,4215.384615,4231.282051,4493.846153,4244.102564,4649.230769,3991.794872,4055.897435
245,4395.897435,4543.589743,4542.051282,4263.076923,4488.205128,4184.615384,4423.589743,4209.230769,4233.333333,4503.076923,4247.179487,4651.282051,3992.820513,4058.461538
246,4400.512820,4532.820512,4542.564102,4260.000000,4480.512820,4182.051282,4420.512820,4202.051282,4230.256410,4509.230769,4246.666666,4650.769230,3984.615385,4056.410256
247,4407.179487,4543.076923,4545.641025,4261.538461,4473.846153,4172.820512,4415.897435,4201.025641,4229.230769,4497.435897,4243.589743,4652.820512,3985.641026,4058.974358
248,4404.615384,4555.897435,4547.692307,4261.025641,4481.025641,4169.230769,4413.846153,4203.076923,4238.461538,4493.333333,4245.641025,4657.435897,3992.307693,4063.076923
249,4402.564102,4552.820512,4548.717948,4260.512820,4492.307692,4176.410256,4417.435897,4202.564102,4247.179487,4502.564102,4250.769230,4659.487179,3993.846154,4065.128205
250,4404.102564,4547.179487,4546.666666,4263.589743,4494.358974,4184.615384,4422.051282,4201.025641,4243.076923,4509.230769,4251.282051,4655.897435,3992.307693,4066.666666
251,4401.538461,4551.282051,4543.589743,4263.589743,4492.820512,4185.128205,4421.025641,4200.000000,4235.384615,4506.153846,4249.743589,4651.794871,3988.717949,4062.051282
252,4400.512820,4554.358974,4541.538461,4260.512820,4489.743589,4181.538461,4417.948717,4196.923076,4233.846153,4493.333333,4248.205128,4647.179487,3988.205129,4055.384615
253,4404.615384,4554.358974,4545.641025,4261.538461,4489.230769,4181.025641,4420.512820,4201.025641,4241.025641,4496.923076,4253.846153,4649.743589,3998.461539,4062.051282
254,4406.153846,4555.384615,4548.717948,4264.102564,4490.256410,4184.102564,4424.102564,4209.743589,4250.769230,4516.923076,4263.076923,4655.384615,4008.717948,4070.769230
255,4403.076923,4555.897435,4544.615384,4263.076923,4493.333333,4185.128205,4423.589743,4208.205128,4251.282051,4524.102564,4262.564102,4653.846153,4007.692307,4064.615384
256,4401.538461,4554.358974,4544.102564,4261.538461,4499.487179,4184.615384,4425.128205,4208.205128,4247.179487,4514.871794,4259.487179,4650.769230,3998.461539,4057.435897
257,4406.153846,4555.384615,4547.692307,4263.589743,4499.487179,4185.128205,4426.153846,4211.794871,4250.256410,4507.692307,4262.564102,4653.333333,3994.358975,4063.589743
258,4410.256410,4556.410256,4549.230769,4265.128205,4492.820512,4185.128205,4422.564102,4207.692307,4251.794871,4510.769230,4266.153846,4660.000000,4000.512820,4073.333333
259,4409.230769,4553.333333,4547.179487,4265.128205,4492.820512,4178.974358,4421.025641,4201.025641,4249.230769,4516.923076,4255.897435,4661.025641,4004.102564,4072.820512
