,AF3,F7,F3,FC5,T7,P7,O1,O2,P8,T8,FC6,F4,F8,AF4
0,4424.615384,4559.487179,4574.358974,4276.410256,4503.589743,4211.794871,4428.205128,4222.051282,4225.641025,4611.282051,4246.153846,4648.205128,4022.051282,4105.641025
1,4428.717948,4561.025641,4580.512820,4268.717948,4507.179487,4210.256410,4429.230769,4227.692307,4229.230769,4611.794871,4247.692307,4653.333333,4030.256410,4111.794871
2,4422.051282,4553.846153,4576.410256,4267.179487,4510.256410,4205.641025,4429.230769,4223.589743,4226.153846,4610.256410,4247.692307,4651.794871,4014.358974,4108.717948
3,4412.820512,4538.974358,4567.692307,4275.384615,4508.717948,4204.102564,4427.179487,4218.461538,4223.076923,4611.794871,4244.102564,4644.615384,3998.974359,4101.538461
4,4415.384615,4544.615384,4567.692307,4271.282051,4506.666666,4207.179487,4427.179487,4220.512820,4220.512820,4612.820512,4245.641025,4645.128205,4009.743589,4102.564102
5,4425.128205,4566.153846,4573.333333,4263.589743,4506.666666,4214.358974,4432.820512,4229.230769,4225.128205,4620.000000,4245.128205,4655.384615,4029.743589,4107.179487
6,4423.589743,4564.102564,4577.435897,4273.333333,4509.230769,4217.948717,4433.846153,4236.923076,4235.897435,4622.564102,4237.435897,4654.871794,4022.051282,4105.641025
7,4416.923076,4549.743589,4575.897435,4287.692307,4509.230769,4212.820512,4429.743589,4234.358974,4235.897435,4610.256410,4240.000000,4648.717948,4002.051282,4102.564102
8,4418.461538,4550.769230,4570.256410,4284.615384,4505.641025,4207.692307,4428.205128,4226.666666,4226.666666,4608.205128,4247.692307,4647.692307,4008.717948,4102.564102
9,4412.820512,4551.282051,4564.102564,4270.256410,4503.589743,4203.589743,4424.615384,4219.487179,4220.512820,4617.948717,4237.435897,4641.025641,4022.564102,4098.461538
10,4396.923076,4542.051282,4556.410256,4261.538461,4498.461538,4197.435897,4416.410256,4214.871794,4215.897435,4607.692307,4227.179487,4630.769230,4010.256410,4089.230769
11,4391.282051,4533.846153,4550.256410,4262.051282,4493.333333,4197.948717,4414.358974,4212.307692,4208.717948,4588.717948,4229.743589,4629.230769,3987.179488,4080.000000
12,4400.000000,4536.923076,4552.307692,4266.666666,4491.282051,4199.487179,4418.974358,4207.692307,4204.102564,4593.333333,4228.717948,4630.769230,3985.641026,4080.000000
13,4403.589743,4548.717948,4560.512820,4273.333333,4490.769230,4198.974358,4424.102564,4210.256410,4209.230769,4603.589743,4226.153846,4630.256410,3996.410257,4085.641025
14,4394.871794,4547.692307,4561.025641,4268.205128,4496.923076,4202.564102,4428.717948,4216.923076,4215.897435,4598.461538,4230.769230,4631.282051,3995.384616,4081.538461
15,4388.717948,4535.897435,4555.384615,4257.948717,4507.179487,4205.641025,4428.205128,4216.923076,4218.461538,4600.512820,4230.769230,4630.769230,3992.307693,4077.948717
16,4397.435897,4535.897435,4556.410256,4267.179487,4507.179487,4203.076923,4425.128205,4217.948717,4221.538461,4610.256410,4228.205128,4636.410256,3995.897436,4089.743589
17,4405.128205,4544.615384,4561.538461,4274.358974,4503.589743,4204.615384,4426.153846,4220.512820,4220.000000,4606.666666,4232.307692,4643.076923,3998.974359,4092.820512
18,4403.076923,4548.717948,4561.538461,4265.641025,4504.102564,4210.256410,4428.205128,4216.923076,4213.846153,4603.589743,4237.948717,4642.051282,4004.102564,4085.128205
19,4404.102564,4554.871794,4564.615384,4267.179487,4501.538461,4209.743589,4428.205128,4215.384615,4214.871794,4617.435897,4235.897435,4642.564102,4016.410256,4093.333333
20,4409.230769,4556.410256,4570.256410,4269.230769,4500.512820,4209.743589,4429.230769,4223.076923,4223.076923,4616.410256,4232.820512,4650.256410,4026.153846,4101.025641
21,4411.794871,4548.717948,4570.256410,4266.666666,4505.641025,4210.769230,4431.794871,4230.256410,4232.820512,4612.307692,4243.076923,4651.282051,4018.461538,4097.435897
22,4415.384615,4550.769230,4568.205128,4280.000000,4510.256410,4212.307692,4435.384615,4234.871794,4238.461538,4626.153846,4259.487179,4649.743589,4007.179487,4103.076923
23,4413.333333,4556.923076,4567.179487,4285.128205,4507.179487,4211.282051,4432.307692,4229.230769,4230.256410,4621.538461,4252.307692,4647.692307,4005.641025,4102.564102
24,4404.615384,4546.153846,4561.025641,4269.230769,4496.923076,4205.128205,4425.128205,4217.948717,4217.435897,4605.641025,4234.871794,4641.025641,4009.230769,4089.230769
25,4406.153846,4538.461538,4561.025641,4263.076923,4495.384615,4205.128205,4426.153846,4223.076923,4221.538461,4614.358974,4231.794871,4641.538461,4008.717948,4090.256410
26,4413.333333,4549.743589,4569.743589,4266.153846,4506.666666,4211.282051,4430.769230,4229.743589,4232.307692,4624.615384,4235.897435,4648.717948,4003.076923,4096.923076
27,4409.743589,4552.307692,4568.205128,4265.641025,4508.717948,4209.230769,4429.230769,4222.564102,4230.256410,4612.307692,4242.051282,4647.179487,4003.589743,4087.179487
28,4404.615384,4536.923076,4561.538461,4265.641025,4501.025641,4206.153846,4426.666666,4217.948717,4223.076923,4600.000000,4238.461538,4642.564102,4005.641025,4083.589743
29,4408.205128,4532.307692,4563.076923,4263.076923,4502.564102,4215.384615,4429.743589,4221.538461,4224.102564,4608.717948,4229.743589,4645.128205,4004.615384,4091.282051
30,4411.282051,4544.102564,4565.128205,4268.205128,4508.205128,4216.923076,4436.923076,4226.666666,4230.256410,4624.102564,4236.410256,4649.230769,4005.641025,4091.794871
31,4410.769230,4548.205128,4563.589743,4277.948717,4509.230769,4210.769230,4441.538461,4229.230769,4226.666666,4622.564102,4245.641025,4649.743589,4005.641025,4088.205128
32,4411.282051,4548.717948,4562.051282,4277.948717,4508.205128,4213.333333,4443.589743,4228.717948,4223.076923,4615.897435,4236.410256,4649.230769,3999.487180,4091.282051
33,4414.358974,4549.230769,4563.589743,4277.435897,4506.153846,4217.435897,4445.641025,4232.820512,4233.333333,4622.564102,4227.179487,4650.769230,4002.564102,4095.384615
34,4414.358974,4543.589743,4563.589743,4274.871794,4506.153846,4215.897435,4447.179487,4240.512820,4242.564102,4622.564102,4232.307692,4650.256410,4011.794871,4090.256410
35,4410.769230,4544.615384,4557.948717,4268.717948,4505.128205,4211.794871,4444.102564,4236.410256,4234.358974,4617.435897,4242.051282,4647.179487,3998.974359,4085.128205
36,4408.205128,4550.769230,4556.410256,4269.230769,4505.128205,4212.820512,4442.051282,4230.256410,4228.717948,4627.692307,4236.410256,4646.153846,3979.487180,4083.589743
37,4410.769230,4548.717948,4562.051282,4271.282051,4509.230769,4217.435897,4444.615384,4235.384615,4236.923076,4631.282051,4225.641025,4648.205128,3987.179488,4083.076923
38,4412.307692,4538.974358,4562.564102,4272.307692,4510.256410,4215.897435,4445.128205,4233.846153,4241.025641,4617.948717,4229.743589,4647.179487,4011.794871,4086.153846
39,4408.205128,4535.384615,4557.948717,4270.256410,4507.692307,4214.871794,4443.076923,4229.743589,4240.512820,4621.025641,4237.948717,4645.641025,4017.435897,4089.230769
40,4407.692307,4545.128205,4556.410256,4265.128205,4509.230769,4219.487179,4444.102564,4240.000000,4239.487179,4634.358974,4238.461538,4646.666666,3994.871795,4083.076923
41,4408.205128,4551.282051,4555.897435,4264.615384,4506.153846,4216.410256,4445.128205,4243.076923,4234.358974,4634.871794,4238.461538,4644.102564,3984.102565,4075.384615
42,4396.410256,4535.897435,4547.179487,4258.461538,4494.871794,4202.051282,4434.871794,4226.153846,4223.589743,4620.512820,4229.743589,4632.307692,3991.794872,4071.794871
43,4384.615384,4513.333333,4537.948717,4248.717948,4490.256410,4196.923076,4424.615384,4217.435897,4216.923076,4601.025641,4209.743589,4622.564102,3991.282052,4067.692307
44,4390.256410,4519.487179,4541.025641,4257.435897,4489.743589,4201.538461,4431.794871,4226.666666,4220.512820,4596.923076,4211.282051,4631.794871,3987.692308,4071.282051
45,4400.000000,4537.435897,4549.230769,4266.153846,4490.769230,4204.102564,4445.128205,4231.282051,4221.538461,4611.282051,4227.179487,4641.538461,3985.128206,4075.897435
46,4404.102564,4540.000000,4550.769230,4255.384615,4495.384615,4206.666666,4446.666666,4226.666666,4216.410256,4617.948717,4231.282051,4635.897435,3974.871795,4073.846153
47,4403.076923,4536.923076,4546.153846,4249.230769,4496.923076,4206.666666,4438.974358,4220.000000,4210.769230,4611.794871,4225.128205,4630.769230,3974.358975,4075.384615
48,4396.923076,4538.974358,4544.615384,4252.820512,4501.025641,4203.589743,4435.384615,4214.871794,4208.205128,4600.000000,4215.384615,4632.820512,3985.641026,4075.897435
49,4392.820512,4535.384615,4545.641025,4256.923076,4501.538461,4200.000000,4434.871794,4212.307692,4209.743589,4587.179487,4212.307692,4633.333333,3983.076924,4071.282051
50,4396.923076,4527.179487,4550.769230,4265.641025,4495.897435,4201.538461,4437.948717,4217.435897,4215.897435,4593.846153,4224.615384,4635.384615,3973.846154,4069.743589
51,4403.589743,4531.282051,4556.410256,4266.666666,4493.846153,4205.641025,4441.538461,4224.615384,4222.051282,4614.358974,4231.794871,4643.076923,3977.435898,4071.794871
52,4404.102564,4544.102564,4556.923076,4263.076923,4497.435897,4207.179487,4443.589743,4224.615384,4225.128205,4623.589743,4219.487179,4647.179487,3987.692308,4079.487179
53,4404.615384,4545.128205,4556.923076,4266.153846,4500.000000,4210.256410,4446.666666,4223.589743,4222.051282,4618.974358,4222.051282,4648.717948,3996.410257,4090.769230
54,4403.076923,4534.871794,4553.846153,4264.615384,4497.948717,4210.256410,4444.102564,4224.102564,4214.358974,4606.666666,4242.564102,4647.179487,3984.615385,4089.230769
55,4403.076923,4532.820512,4550.769230,4265.128205,4498.461538,4209.230769,4444.102564,4226.666666,4218.974358,4601.025641,4247.179487,4646.153846,3967.692308,4077.948717
56,4405.128205,4537.948717,4552.307692,4270.769230,4503.589743,4214.358974,4455.384615,4232.820512,4230.256410,4608.717948,4231.282051,4647.179487,3970.256411,4074.358974
57,4404.615384,4539.487179,4552.820512,4266.153846,4505.128205,4217.948717,4458.974358,4236.923076,4227.692307,4615.897435,4220.512820,4644.615384,3977.435898,4076.923076
58,4402.051282,4538.974358,4548.717948,4262.051282,4496.923076,4214.358974,4446.666666,4233.846153,4223.076923,4616.923076,4223.076923,4642.051282,3974.358975,4079.487179
59,4398.974358,4534.871794,4546.666666,4261.538461,4490.256410,4207.692307,4440.512820,4227.692307,4226.666666,4611.794871,4225.128205,4642.051282,3964.102565,4072.307692
60,4397.948717,4530.256410,4546.153846,4256.923076,4493.333333,4204.102564,4443.076923,4229.230769,4223.589743,4600.000000,4224.102564,4640.512820,3959.487180,4062.564102
61,4397.948717,4533.333333,4545.641025,4256.923076,4496.923076,4203.589743,4441.538461,4228.205128,4213.846153,4594.871794,4226.666666,4638.974358,3964.615385,4068.205128
62,4398.974358,4538.461538,4547.179487,4261.538461,4497.948717,4204.615384,4442.051282,4220.000000,4214.871794,4602.564102,4231.282051,4640.512820,3962.564103,4074.871794
63,4398.461538,4540.000000,4545.641025,4266.153846,4496.923076,4209.743589,4445.641025,4221.538461,4217.948717,4605.641025,4226.666666,4641.025641,3963.589744,4070.769230
64,4397.435897,4535.897435,4544.615384,4265.641025,4493.846153,4212.820512,4445.128205,4229.743589,4214.871794,4603.076923,4218.974358,4640.512820,3970.256411,4067.179487
65,4396.923076,4530.256410,4543.076923,4253.333333,4489.743589,4206.666666,4443.076923,4224.102564,4216.410256,4603.076923,4215.384615,4638.974358,3954.871795,4066.153846
66,4397.948717,4534.358974,4544.102564,4249.230769,4491.282051,4203.589743,4444.615384,4220.512820,4218.461538,4601.538461,4222.564102,4640.000000,3945.641026,4065.641025
67,4403.076923,4536.410256,4549.230769,4261.025641,4500.512820,4207.692307,4447.692307,4227.692307,4215.897435,4601.538461,4240.000000,4647.179487,3973.333334,4073.333333
68,4403.589743,4529.230769,4548.205128,4264.615384,4498.974358,4208.205128,4446.153846,4225.641025,4212.307692,4602.051282,4238.461538,4645.641025,3983.076924,4080.000000
69,4397.948717,4529.743589,4543.076923,4255.384615,4491.282051,4204.102564,4443.589743,4218.974358,4211.794871,4604.615384,4226.666666,4635.384615,3964.102565,4073.333333
70,4394.871794,4531.794871,4541.025641,4251.282051,4490.769230,4204.102564,4443.076923,4219.487179,4214.871794,4607.179487,4232.307692,4631.794871,3960.512821,4066.153846
71,4393.333333,4520.000000,4541.025641,4244.615384,4487.692307,4203.589743,4441.538461,4222.051282,4220.512820,4603.076923,4235.897435,4632.307692,3962.564103,4071.282051
72,4392.307692,4513.846153,4541.538461,4239.487179,4485.641025,4205.641025,4446.666666,4225.641025,4221.538461,4598.974358,4220.000000,4633.333333,3965.128206,4083.076923
73,4392.307692,4528.717948,4548.205128,4251.282051,4498.461538,4213.333333,4455.897435,4226.153846,4218.974358,4601.025641,4216.923076,4636.923076,3981.025642,4087.692307
74,4392.820512,4535.897435,4548.205128,4252.307692,4503.076923,4213.846153,4451.794871,4218.974358,4213.846153,4606.153846,4231.794871,4637.435897,3979.487180,4082.051282
75,4384.615384,4522.564102,4540.000000,4233.333333,4492.307692,4204.615384,4437.435897,4211.794871,4208.717948,4598.461538,4224.615384,4628.717948,3959.487180,4077.435897
76,4384.102564,4517.435897,4546.666666,4238.461538,4495.384615,4202.564102,4435.897435,4214.358974,4213.333333,4591.282051,4209.743589,4628.205128,3970.256411,4087.692307
77,4401.025641,4534.358974,4563.076923,4266.666666,4498.461538,4214.871794,4449.743589,4225.641025,4226.666666,4606.153846,4228.717948,4644.102564,4001.025641,4106.666666
78,4414.358974,4545.128205,4569.230769,4266.153846,4496.923076,4220.512820,4455.384615,4235.384615,4233.846153,4619.487179,4254.358974,4657.435897,4008.205128,4113.846153
79,4408.717948,4540.000000,4568.205128,4244.615384,4502.564102,4213.333333,4449.743589,4234.871794,4230.769230,4609.743589,4242.051282,4653.333333,4002.564102,4110.256410
80,4400.512820,4535.384615,4566.153846,4243.589743,4501.025641,4214.358974,4446.153846,4229.743589,4223.076923,4602.051282,4228.717948,4647.179487,4003.589743,4107.692307
81,4406.153846,4532.820512,4562.564102,4250.256410,4495.384615,4217.435897,4446.666666,4227.179487,4220.512820,4610.256410,4241.025641,4649.230769,4004.102564,4111.282051
82,4409.743589,4534.358974,4561.025641,4246.666666,4498.461538,4215.897435,4445.641025,4228.205128,4226.153846,4614.358974,4238.461538,4648.717948,4006.666666,4114.871794
83,4406.153846,4542.051282,4565.128205,4248.717948,4502.051282,4218.974358,4446.153846,4236.410256,4233.333333,4616.923076,4233.846153,4649.230769,4012.820512,4113.846153
84,4397.948717,4537.948717,4562.051282,4246.666666,4494.358974,4217.435897,4444.615384,4234.871794,4231.794871,4616.923076,4247.179487,4649.743589,4006.153846,4105.128205
85,4391.282051,4521.538461,4552.820512,4234.871794,4492.307692,4209.230769,4438.974358,4221.538461,4223.589743,4608.205128,4237.435897,4641.025641,3994.358975,4100.512820
86,4392.820512,4521.538461,4552.820512,4239.487179,4503.076923,4212.820512,4440.512820,4221.025641,4222.051282,4602.564102,4214.871794,4635.897435,3994.871795,4103.589743
87,4395.897435,4534.358974,4559.487179,4248.717948,4504.615384,4217.948717,4443.589743,4227.179487,4225.641025,4603.589743,4225.128205,4642.051282,4002.564102,4108.205128
88,4395.897435,4533.333333,4561.538461,4240.000000,4494.358974,4210.769230,4440.000000,4224.102564,4223.076923,4607.692307,4237.435897,4645.128205,4000.512820,4106.666666
89,4391.282051,4523.589743,4556.923076,4234.358974,4485.641025,4207.179487,4436.410256,4220.512820,4217.948717,4607.179487,4224.615384,4639.487179,3984.615385,4097.948717
90,4392.820512,4525.128205,4557.948717,4238.461538,4488.717948,4214.358974,4438.461538,4227.179487,4224.615384,4604.102564,4223.589743,4640.000000,3984.615385,4098.974358
91,4405.641025,4538.461538,4567.692307,4244.102564,4500.000000,4220.512820,4445.641025,4235.384615,4235.897435,4602.564102,4238.974358,4651.282051,4007.179487,4112.820512
92,4404.615384,4534.871794,4568.205128,4246.153846,4503.076923,4216.410256,4446.666666,4232.307692,4229.743589,4601.538461,4232.307692,4650.256410,4011.282051,4112.307692
93,4390.256410,4524.102564,4556.410256,4238.461538,4497.435897,4209.230769,4437.948717,4225.128205,4218.974358,4600.512820,4216.410256,4636.410256,3990.769231,4097.948717
94,4392.307692,4529.230769,4553.846153,4234.358974,4493.846153,4212.307692,4437.435897,4224.615384,4221.025641,4603.076923,4228.205128,4635.384615,3984.615385,4097.948717
95,4406.666666,4534.871794,4562.564102,4247.179487,4497.435897,4216.923076,4444.615384,4233.333333,4226.153846,4609.230769,4246.666666,4645.641025,3998.461539,4108.205128
96,4402.564102,4521.538461,4560.512820,4244.102564,4492.307692,4210.256410,4438.461538,4234.871794,4221.538461,4607.692307,4237.435897,4643.076923,4000.512820,4103.589743
97,4393.846153,4518.974358,4554.358974,4229.230769,4483.589743,4208.205128,4430.769230,4227.179487,4220.512820,4597.435897,4224.102564,4636.410256,3992.820513,4096.410256
98,4403.589743,4537.948717,4561.538461,4243.589743,4494.871794,4216.923076,4438.461538,4228.717948,4229.743589,4600.512820,4229.743589,4641.025641,3990.256411,4098.974358
99,4413.333333,4543.076923,4568.717948,4257.435897,4506.666666,4218.974358,4445.128205,4234.871794,4237.435897,4617.948717,4244.615384,4648.717948,3994.871795,4103.076923
100,4410.256410,4533.846153,4565.641025,4244.102564,4495.897435,4213.846153,4438.974358,4234.871794,4235.384615,4622.564102,4251.794871,4650.256410,4000.512820,4105.128205
101,4403.076923,4528.717948,4562.051282,4234.358974,4483.589743,4208.205128,4431.282051,4229.743589,4226.153846,4605.641025,4241.025641,4643.076923,4001.538461,4104.102564
102,4394.358974,4524.615384,4556.923076,4233.333333,4484.102564,4200.512820,4427.179487,4225.641025,4219.487179,4593.846153,4226.666666,4633.846153,3994.358975,4094.358974
103,4393.333333,4520.512820,4554.358974,4230.256410,4483.589743,4197.948717,4426.153846,4227.692307,4222.564102,4601.025641,4227.692307,4633.333333,3987.692308,4088.717948
104,4403.076923,4521.025641,4566.153846,4235.897435,4482.051282,4207.179487,4429.230769,4231.794871,4228.717948,4614.358974,4242.564102,4643.076923,3991.282052,4099.487179
105,4412.820512,4530.256410,4575.384615,4245.128205,4488.717948,4212.307692,4432.820512,4233.333333,4231.282051,4618.461538,4251.794871,4653.333333,3997.948718,4106.153846
106,4412.307692,4541.025641,4568.717948,4246.666666,4489.230769,4207.179487,4431.282051,4232.307692,4232.820512,4610.769230,4245.128205,4653.333333,4004.615384,4103.076923
107,4407.179487,4539.487179,4563.589743,4243.076923,4480.000000,4204.615384,4428.205128,4231.282051,4231.794871,4604.102564,4238.974358,4648.205128,4006.153846,4105.641025
108,4402.051282,4528.717948,4561.025641,4237.948717,4478.974358,4206.666666,4427.692307,4228.205128,4227.179487,4604.615384,4244.615384,4644.102564,3998.461539,4106.666666
109,4397.435897,4522.051282,4554.358974,4227.692307,4486.153846,4204.102564,4424.102564,4226.666666,4226.666666,4611.282051,4245.128205,4641.025641,3989.230770,4097.435897
110,4396.410256,4523.589743,4554.358974,4225.641025,4490.256410,4196.923076,4421.538461,4227.179487,4227.692307,4617.435897,4242.564102,4641.025641,3988.205129,4093.846153
111,4400.512820,4534.358974,4560.000000,4239.487179,4489.230769,4201.538461,4425.641025,4230.256410,4231.794871,4618.461538,4247.692307,4644.615384,3996.923077,4103.589743
112,4403.076923,4544.102564,4560.512820,4242.051282,4488.205128,4210.769230,4429.743589,4234.358974,4234.358974,4614.358974,4248.205128,4647.179487,4003.589743,4104.102564
113,4401.025641,4534.871794,4562.051282,4233.333333,4489.743589,4206.666666,4427.692307,4229.743589,4230.769230,4607.179487,4248.205128,4647.179487,3999.487180,4092.307692
114,4400.000000,4522.564102,4568.717948,4233.333333,4490.769230,4205.641025,4427.179487,4226.666666,4230.769230,4602.564102,4251.794871,4647.179487,3991.794872,4093.333333
115,4401.538461,4533.846153,4565.128205,4235.384615,4491.794871,4214.871794,4430.769230,4231.794871,4236.410256,4603.589743,4240.000000,4642.051282,3987.692308,4102.051282
116,4399.487179,4544.615384,4554.358974,4232.307692,4491.794871,4213.333333,4430.769230,4228.717948,4229.743589,4607.179487,4230.256410,4634.871794,3985.641026,4098.974358
117,4396.410256,4532.307692,4554.871794,4231.282051,4490.769230,4205.641025,4426.666666,4217.948717,4214.871794,4604.615384,4237.435897,4631.282051,3989.230770,4087.692307
118,4394.358974,4518.461538,4555.384615,4228.205128,4486.153846,4207.179487,4425.128205,4216.410256,4216.410256,4598.974358,4243.076923,4630.256410,3994.358975,4085.641025
119,4395.897435,4524.102564,4552.307692,4220.512820,4481.025641,4208.717948,4428.205128,4221.025641,4230.256410,4605.128205,4243.589743,4634.871794,3995.897436,4097.948717
120,4403.589743,4533.846153,4555.384615,4225.641025,4487.692307,4204.615384,4429.743589,4222.564102,4230.256410,4612.820512,4247.692307,4641.538461,3998.461539,4106.153846
121,4404.102564,4531.794871,4555.897435,4232.820512,4488.205128,4203.589743,4423.589743,4222.051282,4222.051282,4606.666666,4237.948717,4638.974358,3998.461539,4099.487179
122,4393.846153,4523.589743,4551.794871,4221.025641,4477.435897,4201.538461,4416.923076,4217.435897,4221.025641,4597.435897,4224.102564,4630.769230,3989.743590,4088.205128
123,4390.769230,4520.512820,4554.358974,4210.769230,4474.358974,4199.487179,4420.512820,4213.333333,4221.538461,4595.897435,4230.769230,4631.794871,3989.743590,4087.692307
124,4399.487179,4523.076923,4560.512820,4219.487179,4478.974358,4203.076923,4425.641025,4219.487179,4221.025641,4605.128205,4241.025641,4641.025641,3995.897436,4094.871794
125,4408.717948,4529.230769,4564.615384,4235.384615,4483.589743,4208.717948,4429.743589,4228.717948,4229.230769,4614.871794,4243.076923,4649.230769,3989.743590,4105.641025
126,4413.846153,4538.974358,4566.666666,4234.871794,4489.230769,4212.820512,4435.384615,4232.307692,4233.846153,4615.384615,4245.641025,4650.769230,3984.102565,4105.128205
127,4413.333333,4543.076923,4568.717948,4222.564102,4491.794871,4212.307692,4433.333333,4231.282051,4228.205128,4610.769230,4246.666666,4652.307692,3994.871795,4095.897435
128,4411.794871,4536.410256,4572.307692,4227.692307,4491.282051,4213.333333,4427.179487,4231.282051,4230.769230,4606.666666,4244.615384,4657.435897,4011.282051,4102.564102
129,4414.358974,4535.897435,4571.282051,4235.384615,4491.794871,4216.410256,4429.230769,4234.358974,4244.615384,4610.256410,4248.717948,4657.948717,4012.307692,4113.333333
130,4413.333333,4543.076923,4564.615384,4225.128205,4488.717948,4214.358974,4432.307692,4233.846153,4246.666666,4623.589743,4257.948717,4654.358974,4000.000000,4107.692307
131,4409.230769,4539.487179,4562.564102,4211.282051,4491.794871,4213.846153,4427.179487,4231.282051,4238.461538,4627.179487,4256.410256,4653.846153,3998.461539,4101.025641
132,4412.307692,4538.461538,4567.692307,4209.230769,4500.512820,4218.461538,4427.692307,4235.897435,4239.487179,4622.564102,4252.307692,4653.333333,4008.205128,4106.153846
133,4417.435897,4548.717948,4569.743589,4216.923076,4497.435897,4219.487179,4438.461538,4247.692307,4250.256410,4628.205128,4260.512820,4657.435897,4014.871794,4113.846153
134,4417.948717,4550.256410,4567.692307,4218.461538,4491.282051,4217.435897,4441.538461,4246.153846,4252.820512,4631.282051,4264.615384,4664.102564,4010.769230,4113.846153
135,4418.461538,4546.666666,4569.230769,4206.153846,4493.333333,4218.461538,4441.025641,4234.871794,4247.179487,4621.538461,4250.256410,4660.000000,4004.102564,4110.769230
136,4417.435897,4549.230769,4569.230769,4195.384615,4495.384615,4217.435897,4442.051282,4229.230769,4241.025641,4617.948717,4244.615384,4652.307692,4002.051282,4107.179487
137,4410.256410,4545.641025,4562.564102,4200.000000,4491.794871,4214.871794,4440.000000,4232.307692,4236.923076,4620.000000,4251.282051,4651.794871,4000.512820,4099.487179
138,4403.076923,4530.256410,4553.846153,4200.000000,4489.743589,4214.358974,4435.384615,4230.769230,4227.692307,4611.282051,4249.230769,4647.179487,3987.179488,4090.769230
139,4398.461538,4522.564102,4550.769230,4196.923076,4490.256410,4207.692307,4430.256410,4221.025641,4219.487179,4598.461538,4239.487179,4637.435897,3977.948718,4086.666666
140,4398.974358,4529.743589,4551.794871,4198.974358,4487.692307,4203.076923,4429.230769,4221.538461,4227.179487,4601.025641,4238.974358,4635.897435,3985.641026,4086.666666
141,4400.000000,4538.461538,4551.794871,4190.256410,4486.153846,4206.153846,4436.923076,4232.307692,4238.974358,4615.384615,4245.128205,4640.000000,3985.128206,4085.128205
142,4402.564102,4542.564102,4552.820512,4185.128205,4489.743589,4211.794871,4446.666666,4235.384615,4236.410256,4618.461538,4245.641025,4644.102564,3981.538462,4090.769230
143,4403.589743,4535.897435,4553.846153,4199.487179,4493.333333,4215.897435,4445.128205,4229.230769,4231.282051,4613.333333,4240.000000,4647.179487,3991.794872,4098.461538
144,4400.512820,4526.666666,4552.820512,4208.205128,4490.256410,4213.333333,4443.589743,4231.282051,4237.435897,4617.948717,4244.102564,4645.128205,3997.948718,4096.410256
145,4401.025641,4530.769230,4554.871794,4197.435897,4489.743589,4211.794871,4448.205128,4237.948717,4244.102564,4623.589743,4257.948717,4645.641025,3998.461539,4096.410256
146,4402.564102,4536.923076,4555.384615,4185.641025,4489.743589,4212.307692,4447.179487,4232.307692,4238.461538,4618.974358,4254.871794,4647.179487,3996.410257,4097.948717
147,4400.000000,4533.846153,4552.307692,4182.051282,4483.076923,4209.230769,4442.564102,4226.153846,4231.282051,4615.384615,4242.051282,4642.564102,3986.666667,4090.769230
148,4400.000000,4531.794871,4552.820512,4190.256410,4475.384615,4205.641025,4441.538461,4228.205128,4229.230769,4619.487179,4241.025641,4640.512820,3986.153847,4086.666666
149,4406.666666,4527.179487,4555.897435,4200.000000,4476.410256,4207.692307,4445.641025,4233.333333,4230.769230,4617.435897,4246.153846,4647.179487,3999.487180,4093.333333
150,4408.205128,4525.128205,4553.846153,4193.846153,4484.102564,4210.769230,4448.205128,4234.358974,4240.000000,4611.282051,4253.333333,4649.743589,3993.333334,4097.435897
151,4406.666666,4542.051282,4555.384615,4183.589743,4490.256410,4211.282051,4445.641025,4233.846153,4247.692307,4615.384615,4257.435897,4647.692307,3981.538462,4095.897435
152,4407.692307,4552.820512,4562.051282,4185.128205,4490.769230,4212.307692,4445.128205,4232.307692,4239.487179,4622.051282,4253.333333,4649.743589,3993.333334,4099.487179
153,4408.717948,4538.974358,4561.538461,4194.358974,4489.743589,4213.333333,4447.692307,4232.820512,4231.282051,4621.538461,4253.333333,4649.743589,3998.461539,4101.538461
154,4410.769230,4532.307692,4554.358974,4199.487179,4491.282051,4215.384615,4445.128205,4232.820512,4234.358974,4619.487179,4255.897435,4648.205128,3987.179488,4098.974358
155,4411.282051,4543.076923,4553.846153,4200.000000,4490.769230,4215.897435,4441.538461,4228.717948,4234.358974,4614.871794,4252.820512,4647.179487,3990.769231,4095.897435
156,4410.256410,4549.743589,4557.948717,4201.025641,4487.692307,4215.384615,4450.769230,4235.897435,4238.974358,4615.897435,4249.230769,4647.692307,4004.615384,4098.974358
157,4409.743589,4546.153846,4557.948717,4195.384615,4489.743589,4217.948717,4460.000000,4246.666666,4245.641025,4625.641025,4245.128205,4650.256410,3997.948718,4102.051282
158,4404.102564,4536.410256,4554.871794,4189.230769,4489.743589,4217.435897,4450.769230,4240.000000,4237.948717,4621.025641,4242.051282,4648.205128,3974.871795,4094.871794
159,4397.435897,4532.307692,4554.358974,4192.820512,4483.589743,4212.307692,4442.051282,4227.179487,4227.692307,4606.666666,4238.974358,4640.512820,3966.666667,4090.769230
160,4397.435897,4535.384615,4550.256410,4191.282051,4477.435897,4209.743589,4444.615384,4226.153846,4224.102564,4604.102564,4228.717948,4635.384615,3980.000000,4086.666666
161,4396.410256,4532.307692,4543.076923,4169.743589,4474.871794,4209.743589,4444.615384,4229.230769,4222.564102,4602.051282,4221.025641,4632.307692,3980.512821,4072.820512
162,4391.794871,4527.692307,4544.102564,4164.615384,4474.871794,4206.666666,4443.076923,4223.589743,4221.538461,4598.974358,4231.282051,4633.846153,3967.692308,4073.333333
163,4392.820512,4532.307692,4550.769230,4189.743589,4483.589743,4204.102564,4444.102564,4220.512820,4221.538461,4602.051282,4235.384615,4638.974358,3966.666667,4088.205128
164,4402.051282,4534.871794,4552.820512,4207.179487,4486.153846,4206.666666,4441.025641,4225.128205,4221.025641,4601.538461,4230.769230,4642.051282,3973.846154,4092.820512
165,4410.769230,4532.820512,4550.769230,4202.564102,4481.025641,4213.846153,4445.641025,4233.846153,4227.179487,4606.153846,4241.538461,4645.128205,3982.051283,4092.820512
166,4407.179487,4534.358974,4549.230769,4188.717948,4482.051282,4215.897435,4453.333333,4233.846153,4228.717948,4612.820512,4249.743589,4646.666666,3982.051283,4089.230769
167,4398.461538,4538.461538,4549.743589,4180.512820,4480.000000,4209.230769,4446.666666,4228.205128,4221.538461,4606.153846,4236.923076,4643.076923,3973.333334,4081.025641
168,4401.538461,4539.487179,4552.820512,4187.179487,4476.410256,4207.179487,4445.128205,4235.384615,4224.615384,4605.641025,4230.769230,4646.666666,3980.000000,4086.153846
169,4411.794871,4537.948717,4561.025641,4200.512820,4483.589743,4213.333333,4456.410256,4246.153846,4235.384615,4618.974358,4251.794871,4658.461538,3993.333334,4101.538461
170,4415.897435,4541.025641,4565.641025,4204.102564,4493.333333,4216.923076,4454.358974,4240.512820,4236.410256,4625.641025,4264.102564,4661.538461,3988.717949,4106.666666
171,4413.333333,4547.179487,4561.025641,4200.512820,4489.230769,4212.307692,4444.615384,4232.307692,4232.820512,4624.102564,4249.743589,4656.410256,3988.205129,4102.564102
172,4405.128205,4541.538461,4554.871794,4188.205128,4480.000000,4204.102564,4445.128205,4230.769230,4229.230769,4609.230769,4238.974358,4651.282051,3993.846154,4093.846153
173,4395.897435,4528.717948,4550.256410,4173.846153,4475.897435,4203.076923,4444.615384,4222.564102,4218.974358,4589.743589,4236.923076,4644.102564,3977.435898,4084.102564
174,4392.820512,4529.230769,4547.179487,4181.538461,4474.358974,4207.179487,4443.076923,4220.512820,4214.871794,4597.948717,4230.769230,4640.000000,3964.615385,4086.153846
175,4396.410256,4536.923076,4550.256410,4198.461538,4477.948717,4209.743589,4448.205128,4233.846153,4228.717948,4619.487179,4230.256410,4645.641025,3974.358975,4094.358974
176,4403.076923,4541.538461,4556.410256,4204.102564,4487.692307,4209.743589,4448.717948,4234.358974,4232.307692,4618.461538,4239.487179,4649.743589,3983.589744,4091.282051
177,4407.179487,4543.076923,4556.410256,4198.974358,4489.230769,4206.666666,4442.051282,4223.076923,4220.512820,4611.282051,4245.641025,4647.692307,3987.179488,4086.666666
178,4406.153846,4540.000000,4549.230769,4194.358974,4480.512820,4203.589743,4442.051282,4218.461538,4221.538461,4611.794871,4245.128205,4647.179487,3988.717949,4096.410256
179,4400.512820,4533.846153,4546.153846,4194.871794,4478.461538,4206.666666,4448.205128,4216.923076,4230.769230,4612.820512,4245.128205,4647.692307,3990.769231,4103.589743
180,4397.948717,4539.487179,4549.743589,4203.076923,4481.025641,4211.794871,4452.820512,4217.435897,4227.179487,4620.000000,4249.743589,4648.205128,3995.897436,4096.410256
181,4401.025641,4546.666666,4549.743589,4200.512820,4481.025641,4208.205128,4450.769230,4218.974358,4216.410256,4621.538461,4248.205128,4647.179487,3990.256411,4086.666666
182,4401.025641,4540.000000,4543.589743,4184.615384,4483.589743,4200.512820,4445.641025,4212.820512,4212.820512,4611.282051,4234.358974,4643.076923,3972.307693,4086.666666
183,4404.102564,4541.025641,4548.717948,4188.717948,4486.666666,4203.076923,4444.102564,4214.358974,4222.564102,4613.846153,4228.717948,4643.589743,3976.410257,4095.897435
184,4411.282051,4548.205128,4560.000000,4204.102564,4486.666666,4209.743589,4446.153846,4225.128205,4230.256410,4620.000000,4238.461538,4654.358974,4000.000000,4102.564102
185,4413.846153,4547.179487,4558.461538,4205.641025,4489.230769,4207.692307,4443.076923,4224.102564,4226.666666,4613.333333,4246.153846,4659.487179,4002.564102,4097.435897
186,4406.153846,4539.487179,4551.794871,4200.000000,4491.282051,4203.589743,4441.538461,4220.000000,4221.025641,4607.692307,4238.974358,4650.769230,3987.179488,4091.794871
187,4402.564102,4537.948717,4556.410256,4203.589743,4490.256410,4206.666666,4449.743589,4224.615384,4224.102564,4612.307692,4234.358974,4647.179487,3982.564103,4098.461538
188,4409.230769,4547.692307,4565.128205,4206.666666,4489.743589,4212.307692,4459.487179,4231.282051,4229.743589,4618.974358,4244.102564,4656.923076,3985.128206,4105.128205
189,4413.846153,4553.333333,4561.025641,4199.487179,4484.102564,4211.794871,4458.974358,4231.794871,4229.743589,4623.076923,4248.205128,4662.564102,3988.205129,4103.076923
190,4409.743589,4545.128205,4551.794871,4198.974358,4477.948717,4206.666666,4447.692307,4224.102564,4223.589743,4618.461538,4241.025641,4656.410256,3992.820513,4095.384615
191,4407.179487,4534.871794,4552.820512,4205.641025,4483.076923,4206.153846,4443.076923,4220.512820,4224.102564,4616.410256,4241.025641,4653.846153,3993.333334,4092.307692
192,4409.230769,4537.948717,4556.923076,4201.025641,4485.128205,4209.743589,4453.333333,4228.717948,4235.384615,4626.153846,4246.666666,4660.000000,3994.871795,4099.487179
193,4410.256410,4542.564102,4556.410256,4192.307692,4479.487179,4209.743589,4459.487179,4234.871794,4236.923076,4630.769230,4252.820512,4660.512820,3993.846154,4105.128205
194,4409.743589,4537.435897,4556.923076,4197.948717,4484.102564,4212.307692,4461.538461,4236.923076,4236.410256,4625.641025,4253.846153,4656.410256,3988.717949,4098.461538
195,4403.589743,4535.384615,4556.410256,4196.923076,4489.230769,4215.897435,4463.589743,4243.076923,4245.128205,4623.589743,4238.461538,4651.282051,3983.076924,4091.282051
196,4398.461538,4537.435897,4551.282051,4181.025641,4483.589743,4210.769230,4458.461538,4237.948717,4237.948717,4620.000000,4222.051282,4647.179487,3979.487180,4092.307692
197,4405.128205,4537.948717,4555.897435,4189.230769,4477.435897,4205.641025,4454.871794,4229.230769,4227.179487,4618.974358,4232.820512,4652.820512,3983.076924,4102.051282
198,4407.692307,4535.897435,4564.102564,4206.666666,4481.538461,4207.692307,4454.358974,4232.820512,4231.794871,4620.000000,4250.256410,4658.974358,3990.256411,4110.769230
199,4398.974358,4538.461538,4561.025641,4191.794871,4486.666666,4209.230769,4450.256410,4232.307692,4230.256410,4613.846153,4233.846153,4652.820512,3995.384616,4108.205128
200,4395.897435,4541.538461,4555.384615,4180.000000,4485.641025,4209.230769,4450.769230,4227.692307,4227.692307,4613.846153,4211.282051,4645.641025,3998.974359,4104.102564
201,4400.000000,4542.051282,4556.410256,4195.897435,4482.564102,4210.256410,4454.358974,4230.256410,4233.333333,4614.871794,4222.564102,4648.205128,3999.487180,4114.358974
202,4397.435897,4537.948717,4557.948717,4200.512820,4479.487179,4209.743589,4447.692307,4232.820512,4231.282051,4607.179487,4235.897435,4648.717948,3995.897436,4121.538461
203,4388.205128,4524.615384,4553.333333,4185.641025,4480.512820,4207.179487,4440.512820,4231.794871,4231.282051,4613.846153,4218.974358,4644.615384,3992.307693,4111.794871
204,4386.153846,4525.641025,4551.282051,4181.538461,4481.025641,4206.666666,4444.102564,4229.743589,4236.923076,4627.692307,4216.410256,4643.589743,3996.410257,4107.179487
205,4395.384615,4543.076923,4559.487179,4192.820512,4480.000000,4209.230769,4452.307692,4231.282051,4236.923076,4621.538461,4236.923076,4651.282051,4010.256410,4118.974358
206,4401.538461,4546.153846,4562.564102,4192.820512,4483.076923,4213.333333,4457.948717,4233.333333,4235.384615,4614.358974,4237.435897,4656.923076,4025.128205,4125.641025
207,4394.358974,4529.743589,4557.948717,4183.589743,4480.512820,4212.820512,4460.000000,4232.307692,4235.897435,4621.538461,4226.153846,4651.794871,4020.000000,4117.948717
208,4391.282051,4525.641025,4558.974358,4186.153846,4475.384615,4208.205128,4457.435897,4231.794871,4234.358974,4616.410256,4226.666666,4646.666666,4007.692307,4114.358974
209,4393.846153,4536.410256,4563.589743,4190.769230,4480.512820,4207.692307,4449.743589,4232.307692,4232.820512,4608.717948,4228.205128,4649.743589,4009.743589,4116.923076
210,4394.358974,4536.923076,4564.102564,4184.102564,4487.692307,4207.692307,4446.153846,4229.230769,4228.717948,4616.923076,4228.205128,4652.820512,4018.974358,4116.923076
211,4403.076923,4535.897435,4569.743589,4187.179487,4485.641025,4207.692307,4454.871794,4229.743589,4236.410256,4626.153846,4233.333333,4659.487179,4032.307692,4124.102564
212,4414.871794,4546.153846,4576.923076,4204.102564,4481.538461,4208.717948,4460.512820,4234.358974,4250.769230,4627.179487,4242.051282,4668.205128,4033.846153,4135.384615
213,4408.205128,4546.153846,4572.820512,4207.179487,4479.487179,4209.743589,4456.410256,4228.205128,4240.512820,4619.487179,4236.923076,4661.538461,4017.948717,4130.256410
214,4392.820512,4528.717948,4564.615384,4198.461538,4475.384615,4207.692307,4456.410256,4217.435897,4218.461538,4605.641025,4223.589743,4650.256410,4006.153846,4113.333333
215,4391.282051,4521.538461,4563.076923,4195.384615,4480.512820,4206.666666,4458.461538,4214.871794,4220.512820,4606.153846,4223.076923,4648.205128,3998.974359,4104.102564
216,4397.435897,4528.717948,4562.564102,4191.794871,4484.615384,4211.794871,4457.948717,4220.000000,4230.769230,4616.923076,4226.153846,4648.717948,3999.487180,4108.717948
217,4401.025641,4538.974358,4567.692307,4189.230769,4476.410256,4214.358974,4458.974358,4226.666666,4231.794871,4617.948717,4222.564102,4651.794871,4020.000000,4121.025641
218,4400.000000,4543.076923,4571.282051,4196.410256,4475.384615,4208.205128,4455.897435,4224.615384,4229.230769,4615.384615,4228.717948,4654.871794,4035.384615,4124.615384
219,4393.846153,4528.205128,4561.025641,4202.564102,4478.461538,4204.102564,4449.743589,4216.410256,4222.051282,4609.743589,4234.871794,4649.230769,4012.820512,4114.358974
220,4394.358974,4515.384615,4556.923076,4197.948717,4473.333333,4207.692307,4451.282051,4212.820512,4216.923076,4600.512820,4228.717948,4643.076923,3992.307693,4109.230769
221,4402.051282,4527.179487,4566.153846,4191.794871,4476.410256,4210.769230,4458.461538,4218.461538,4226.666666,4609.230769,4230.256410,4646.666666,4008.205128,4114.358974
222,4403.589743,4541.538461,4568.717948,4195.897435,4487.179487,4209.743589,4462.051282,4225.641025,4237.435897,4624.615384,4232.820512,4649.743589,4020.512820,4113.846153
223,4397.435897,4537.948717,4562.564102,4201.025641,4485.641025,4210.256410,4458.461538,4221.538461,4228.205128,4613.846153,4223.589743,4647.692307,4009.743589,4107.692307
224,4394.871794,4529.743589,4560.512820,4200.000000,4481.025641,4206.666666,4454.358974,4216.923076,4218.974358,4603.589743,4220.512820,4647.179487,4003.589743,4111.794871
225,4396.923076,4525.128205,4564.615384,4200.512820,4482.051282,4204.102564,4453.846153,4223.076923,4228.717948,4613.846153,4225.641025,4648.717948,4008.717948,4117.948717
226,4396.923076,4524.615384,4565.128205,4202.564102,4478.974358,4205.128205,4456.410256,4225.128205,4229.743589,4613.333333,4237.435897,4649.230769,4009.230769,4111.282051
227,4395.384615,4527.692307,4561.025641,4199.487179,4482.051282,4206.666666,4457.948717,4221.538461,4218.974358,4604.615384,4241.538461,4649.743589,4010.769230,4108.717948
228,4396.410256,4532.307692,4562.564102,4197.435897,4488.717948,4208.205128,4455.897435,4224.615384,4225.641025,4610.769230,4229.743589,4649.230769,4014.358974,4114.871794
229,4400.000000,4535.897435,4566.666666,4196.923076,4481.538461,4208.205128,4456.923076,4228.717948,4237.948717,4622.051282,4226.153846,4647.692307,4014.871794,4114.358974
230,4400.000000,4536.923076,4566.153846,4203.076923,4476.923076,4208.205128,4462.564102,4228.717948,4233.333333,4621.538461,4242.051282,4650.769230,4011.282051,4108.205128
231,4394.358974,4525.641025,4561.025641,4206.153846,4482.051282,4209.230769,4456.923076,4224.615384,4222.051282,4609.230769,4246.666666,4652.307692,4000.512820,4105.128205
232,4387.179487,4512.820512,4555.897435,4190.256410,4477.435897,4198.974358,4442.051282,4215.384615,4217.948717,4597.948717,4222.051282,4643.589743,3993.846154,4102.564102
233,4389.230769,4520.000000,4557.948717,4185.128205,4471.794871,4192.820512,4443.076923,4217.948717,4223.589743,4603.076923,4208.717948,4641.025641,4006.153846,4103.076923
234,4398.461538,4532.820512,4564.615384,4201.538461,4478.461538,4202.564102,4458.461538,4232.820512,4234.358974,4617.435897,4223.589743,4652.307692,4016.410256,4109.230769
235,4403.076923,4526.153846,4565.128205,4206.666666,4478.974358,4206.153846,4464.102564,4232.307692,4237.435897,4620.512820,4237.948717,4655.897435,4006.666666,4112.820512
236,4399.487179,4516.410256,4558.461538,4196.923076,4471.282051,4199.487179,4454.358974,4221.025641,4227.692307,4608.717948,4233.846153,4649.230769,3991.794872,4108.205128
237,4391.794871,4524.102564,4555.897435,4187.692307,4466.153846,4198.974358,4447.692307,4215.384615,4221.538461,4602.564102,4230.256410,4644.615384,3991.282052,4098.974358
238,4393.333333,4534.358974,4559.487179,4186.666666,4470.256410,4204.102564,4454.871794,4215.897435,4226.666666,4612.307692,4232.307692,4647.692307,4005.128205,4099.487179
239,4399.487179,4531.794871,4558.974358,4197.435897,4479.487179,4207.692307,4461.538461,4217.948717,4228.717948,4614.871794,4222.051282,4649.230769,4009.230769,4107.179487
240,4392.820512,4521.025641,4552.307692,4198.974358,4480.512820,4203.589743,4454.358974,4215.384615,4220.000000,4602.564102,4213.846153,4641.538461,3991.794872,4101.538461
241,4379.487179,4510.256410,4546.153846,4183.076923,4469.230769,4193.333333,4442.564102,4206.666666,4212.307692,4595.384615,4215.897435,4630.256410,3976.410257,4088.205128
242,4375.384615,4505.641025,4542.051282,4177.435897,4463.076923,4189.230769,4438.461538,4196.410256,4210.256410,4595.384615,4209.230769,4626.666666,3982.564103,4083.076923
243,4384.615384,4517.435897,4546.153846,4189.230769,4468.717948,4194.358974,4446.153846,4201.025641,4209.230769,4593.333333,4210.256410,4632.307692,3989.230770,4089.743589
244,4396.923076,4531.282051,4559.487179,4200.000000,4473.846153,4201.538461,4459.487179,4217.435897,4215.384615,4599.487179,4232.307692,4644.615384,3995.384616,4100.512820
245,4394.871794,4526.153846,4564.102564,4201.538461,4471.794871,4206.153846,4463.589743,4221.538461,4228.205128,4609.743589,4240.000000,4650.769230,4001.025641,4095.897435
246,4385.641025,4515.897435,4552.307692,4196.923076,4470.769230,4204.102564,4456.410256,4214.871794,4226.666666,4606.666666,4215.897435,4638.974358,3989.230770,4085.128205
247,4390.769230,4525.128205,4550.769230,4202.051282,4475.384615,4203.076923,4456.923076,4214.358974,4213.846153,4602.051282,4204.102564,4631.794871,3982.564103,4096.410256
248,4395.897435,4535.897435,4556.923076,4206.153846,4477.435897,4207.179487,4460.000000,4213.846153,4211.282051,4604.102564,4216.923076,4638.461538,3996.410257,4109.743589
249,4391.794871,4533.333333,4556.410256,4195.897435,4479.487179,4209.743589,4457.435897,4212.820512,4221.025641,4602.564102,4224.615384,4642.051282,4000.000000,4101.538461
250,4404.615384,4541.538461,4563.589743,4203.076923,4487.179487,4210.769230,4464.102564,4223.076923,4229.230769,4607.692307,4226.666666,4648.205128,3997.948718,4103.589743
251,4415.384615,4551.794871,4572.307692,4225.128205,4487.692307,4216.410256,4470.769230,4231.282051,4232.307692,4618.461538,4230.256410,4655.384615,4006.153846,4116.923076
252,4401.538461,4540.000000,4566.153846,4225.128205,4485.641025,4218.461538,4462.051282,4228.717948,4233.333333,4615.384615,4234.871794,4648.717948,4002.051282,4107.692307
253,4395.384615,4526.666666,4561.538461,4210.769230,4487.179487,4214.358974,4461.025641,4229.230769,4233.846153,4608.717948,4239.487179,4646.153846,3992.820513,4095.384615
254,4411.794871,4534.358974,4571.282051,4212.307692,4481.025641,4212.820512,4470.769230,4235.384615,4238.974358,4621.538461,4244.102564,4659.487179,4005.128205,4107.179487
255,4420.512820,4548.205128,4576.923076,4223.076923,4475.897435,4212.820512,4468.717948,4236.923076,4238.974358,4625.128205,4243.076923,4663.589743,4015.384615,4117.948717
