,AF3,F7,F3,FC5,T7,P7,O1,O2,P8,T8,FC6,F4,F8,AF4
0,4425.641025,4524.615384,4525.128205,4263.076923,4537.435897,4340.512820,4440.000000,4201.025641,4212.307692,4484.615384,4191.794871,4645.641025,3989.743590,4035.897435
1,4427.692307,4524.102564,4523.076923,4263.589743,4537.435897,4338.461538,4439.487179,4205.128205,4220.512820,4485.641025,4198.974358,4649.230769,3994.358975,4037.948717
2,4429.230769,4522.051282,4522.564102,4260.000000,4537.435897,4340.512820,4440.000000,4214.358974,4228.205128,4490.256410,4200.512820,4649.743589,3993.333334,4037.948717
3,4429.743589,4523.589743,4527.179487,4262.564102,4535.897435,4344.615384,4442.051282,4214.358974,4221.538461,4492.307692,4200.000000,4647.692307,3992.307693,4037.948717
4,4425.128205,4521.538461,4528.205128,4264.102564,4540.512820,4342.051282,4443.589743,4205.641025,4213.846153,4492.820512,4198.974358,4644.615384,3990.256411,4035.897435
5,4416.923076,4508.205128,4517.435897,4252.307692,4537.435897,4335.384615,4435.384615,4198.461538,4211.794871,4486.153846,4188.717948,4636.923076,3983.076924,4029.743589
6,4420.000000,4503.076923,4513.333333,4244.102564,4527.179487,4334.871794,4428.717948,4201.538461,4215.897435,4480.000000,4184.615384,4634.871794,3981.025642,4024.615384
7,4429.230769,4514.871794,4525.128205,4252.307692,4531.794871,4341.538461,4435.384615,4213.846153,4224.615384,4487.692307,4197.435897,4646.153846,3988.205129,4029.230769
8,4428.205128,4518.974358,4530.256410,4258.461538,4542.564102,4343.076923,4441.025641,4217.948717,4224.102564,4494.358974,4206.153846,4652.820512,3991.794872,4036.410256
9,4421.538461,4505.641025,4521.538461,4252.820512,4540.512820,4338.974358,4437.435897,4208.205128,4213.846153,4487.179487,4200.512820,4645.128205,3988.205129,4034.358974
10,4421.538461,4502.564102,4516.923076,4251.794871,4535.384615,4338.974358,4431.794871,4202.051282,4216.923076,4485.641025,4195.384615,4636.923076,3985.128206,4028.205128
11,4426.153846,4516.410256,4521.025641,4261.025641,4538.461538,4342.564102,4430.769230,4204.615384,4224.615384,4492.820512,4195.384615,4637.948717,3978.974359,4025.641025
12,4429.230769,4523.589743,4524.102564,4265.641025,4540.512820,4341.538461,4430.769230,4203.589743,4216.923076,4488.717948,4196.923076,4640.000000,3971.794872,4022.564102
13,4432.307692,4522.564102,4526.153846,4264.102564,4540.000000,4343.589743,4432.820512,4206.666666,4216.923076,4489.743589,4198.461538,4640.512820,3981.025642,4026.666666
14,4432.820512,4523.076923,4527.692307,4264.615384,4540.000000,4348.205128,4438.461538,4214.358974,4228.205128,4498.974358,4195.897435,4640.512820,3999.487180,4035.897435
15,4427.179487,4519.487179,4526.153846,4261.025641,4538.461538,4344.615384,4440.000000,4213.846153,4224.615384,4496.923076,4195.897435,4643.589743,3999.487180,4033.333333
16,4426.666666,4515.384615,4527.179487,4254.358974,4538.461538,4341.538461,4440.000000,4215.897435,4223.589743,4496.923076,4202.051282,4645.128205,3992.820513,4026.153846
17,4428.717948,4512.820512,4525.128205,4246.666666,4539.487179,4340.512820,4434.871794,4216.410256,4229.230769,4498.974358,4200.512820,4641.538461,3987.692308,4022.564102
18,4422.051282,4506.666666,4516.923076,4245.128205,4537.948717,4335.897435,4428.205128,4208.205128,4223.076923,4493.333333,4189.743589,4640.000000,3978.461539,4015.897435
19,4421.538461,4505.128205,4520.512820,4253.846153,4537.435897,4339.487179,4433.846153,4209.743589,4223.589743,4495.897435,4191.794871,4647.179487,3980.000000,4019.487179
20,4431.794871,4516.410256,4528.717948,4263.076923,4541.025641,4347.179487,4442.051282,4218.461538,4236.923076,4505.128205,4201.025641,4653.333333,3990.769231,4031.794871
21,4431.282051,4524.102564,4526.666666,4262.564102,4542.051282,4346.153846,4440.512820,4218.461538,4238.461538,4501.025641,4205.641025,4651.282051,3989.230770,4029.230769
22,4425.128205,4521.538461,4527.179487,4260.512820,4538.974358,4341.538461,4437.435897,4214.358974,4229.743589,4494.358974,4208.717948,4650.769230,3984.102565,4027.692307
23,4432.307692,4521.538461,4527.692307,4263.076923,4540.000000,4336.923076,4433.846153,4207.692307,4223.589743,4494.871794,4209.743589,4651.794871,3992.820513,4041.025641
24,4438.461538,4523.589743,4522.564102,4264.615384,4541.025641,4334.358974,4427.692307,4204.102564,4221.538461,4496.410256,4203.589743,4650.769230,3995.384616,4045.641025
25,4432.820512,4523.076923,4525.128205,4262.564102,4536.410256,4336.410256,4427.692307,4212.820512,4227.692307,4500.512820,4196.923076,4652.307692,3986.666667,4041.025641
26,4431.794871,4521.538461,4531.794871,4262.051282,4542.051282,4342.051282,4435.897435,4218.461538,4234.871794,4503.076923,4206.666666,4658.461538,3989.230770,4042.051282
27,4438.974358,4521.538461,4532.820512,4264.615384,4550.256410,4344.102564,4440.000000,4217.435897,4235.384615,4501.025641,4221.538461,4663.589743,3999.487180,4046.666666
28,4443.589743,4525.128205,4534.358974,4269.230769,4546.153846,4345.128205,4443.076923,4223.589743,4240.000000,4507.179487,4219.487179,4664.615384,3998.974359,4050.256410
29,4441.538461,4527.692307,4535.384615,4266.153846,4540.000000,4348.717948,4445.641025,4224.615384,4241.025641,4513.846153,4210.256410,4662.564102,3996.410257,4049.743589
30,4433.333333,4520.512820,4532.307692,4262.051282,4537.435897,4350.769230,4439.487179,4215.897435,4231.794871,4503.589743,4206.153846,4655.897435,3998.461539,4040.000000
31,4426.666666,4513.333333,4527.692307,4264.102564,4539.487179,4350.769230,4434.871794,4214.871794,4228.717948,4493.333333,4200.000000,4648.717948,3993.846154,4031.794871
32,4429.743589,4521.025641,4528.717948,4266.153846,4548.205128,4354.358974,4441.538461,4218.974358,4237.435897,4496.923076,4201.025641,4649.230769,3986.153847,4034.358974
33,4432.820512,4522.564102,4532.307692,4262.564102,4548.717948,4353.846153,4442.564102,4213.846153,4236.923076,4501.538461,4207.692307,4649.743589,3982.051283,4037.948717
34,4424.102564,4514.871794,4524.615384,4260.000000,4536.410256,4343.076923,4429.230769,4209.230769,4224.102564,4491.794871,4193.333333,4641.538461,3976.410257,4032.307692
35,4421.025641,4515.897435,4518.461538,4258.461538,4534.358974,4336.923076,4427.692307,4210.256410,4218.974358,4485.641025,4183.076923,4637.435897,3978.461539,4025.128205
36,4423.076923,4516.410256,4517.948717,4252.820512,4542.051282,4343.076923,4438.974358,4211.282051,4224.615384,4492.307692,4202.051282,4641.538461,3986.666667,4028.717948
37,4418.974358,4510.769230,4500.000000,4252.307692,4540.512820,4344.615384,4435.384615,4209.230769,4226.153846,4491.282051,4204.102564,4640.000000,3976.410257,4034.358974
38,4415.897435,4512.820512,4476.410256,4256.923076,4535.897435,4342.051282,4428.717948,4206.153846,4222.051282,4485.641025,4186.153846,4636.410256,3966.153847,4036.410256
39,4424.102564,4521.538461,4477.948717,4259.487179,4543.076923,4348.717948,4438.461538,4208.717948,4221.025641,4488.717948,4189.743589,4645.128205,3984.102565,4040.512820
40,4431.282051,4520.512820,4487.692307,4260.512820,4551.794871,4353.846153,4447.179487,4219.487179,4226.666666,4496.410256,4201.538461,4654.358974,3997.948718,4043.076923
41,4426.153846,4511.794871,4481.025641,4261.538461,4547.692307,4348.717948,4443.076923,4225.128205,4232.820512,4496.410256,4201.025641,4649.230769,3984.615385,4033.846153
42,4416.923076,4512.820512,4474.871794,4261.538461,4537.948717,4345.641025,4440.000000,4218.974358,4230.769230,4492.307692,4200.000000,4644.102564,3976.923077,4026.153846
43,4415.384615,4517.435897,4476.410256,4258.461538,4538.461538,4346.666666,4437.435897,4215.897435,4226.666666,4491.794871,4196.410256,4648.717948,3984.102565,4032.820512
44,4415.897435,4511.282051,4475.384615,4254.871794,4537.948717,4341.538461,4428.205128,4217.948717,4227.692307,4492.307692,4190.256410,4646.153846,3981.538462,4035.384615
45,4412.820512,4501.025641,4472.307692,4253.333333,4532.307692,4335.384615,4428.717948,4216.410256,4229.230769,4492.820512,4190.256410,4642.564102,3971.282052,4029.230769
46,4414.871794,4511.794871,4477.948717,4260.000000,4539.487179,4342.564102,4440.000000,4220.512820,4233.333333,4493.333333,4200.000000,4649.230769,3977.948718,4035.384615
47,4425.128205,4529.743589,4488.205128,4272.820512,4555.897435,4352.307692,4446.666666,4228.717948,4238.974358,4498.974358,4211.282051,4657.948717,3991.794872,4048.717948
48,4428.205128,4530.256410,4489.230769,4275.384615,4556.923076,4350.769230,4442.564102,4227.179487,4236.410256,4507.692307,4209.230769,4656.410256,3996.410257,4045.641025
49,4417.435897,4522.564102,4479.487179,4266.153846,4544.102564,4341.538461,4435.384615,4216.410256,4226.153846,4502.051282,4194.871794,4646.153846,3991.282052,4033.846153
50,4414.358974,4520.000000,4477.435897,4266.153846,4538.461538,4337.435897,4435.897435,4208.717948,4217.948717,4487.179487,4191.794871,4643.076923,3986.666667,4035.897435
51,4424.102564,4524.102564,4490.256410,4278.974358,4542.051282,4342.051282,4442.051282,4214.871794,4218.974358,4485.128205,4205.641025,4652.820512,3988.205129,4048.205128
52,4428.717948,4528.717948,4494.871794,4281.025641,4543.076923,4344.102564,4442.051282,4220.000000,4224.102564,4492.820512,4208.205128,4657.435897,3986.153847,4051.794871
53,4425.641025,4533.333333,4488.205128,4274.358974,4540.000000,4340.000000,4438.974358,4214.871794,4227.179487,4490.256410,4201.538461,4652.307692,3984.615385,4042.051282
54,4425.641025,4531.794871,4486.153846,4278.974358,4541.538461,4341.538461,4443.076923,4218.461538,4230.256410,4492.307692,4202.051282,4652.820512,3990.769231,4036.923076
55,4425.128205,4524.102564,4489.230769,4278.461538,4541.538461,4346.666666,4445.641025,4229.230769,4235.384615,4503.589743,4203.076923,4654.871794,3990.769231,4045.641025
56,4422.051282,4520.512820,4485.641025,4266.666666,4539.487179,4347.179487,4442.564102,4225.641025,4238.461538,4501.025641,4201.538461,4651.794871,3985.128206,4048.205128
57,4423.076923,4526.666666,4484.102564,4271.282051,4546.153846,4346.666666,4450.256410,4216.410256,4236.923076,4494.871794,4203.076923,4651.794871,3987.179488,4043.589743
58,4423.589743,4533.846153,4487.692307,4282.051282,4553.333333,4349.230769,4460.000000,4217.435897,4233.333333,4497.948717,4203.076923,4652.820512,3990.769231,4043.589743
59,4420.000000,4530.256410,4484.615384,4275.897435,4551.282051,4351.282051,4460.000000,4217.948717,4230.769230,4501.538461,4203.076923,4651.282051,3987.692308,4045.641025
60,4416.410256,4522.564102,4483.076923,4270.256410,4552.820512,4353.846153,4457.948717,4215.897435,4237.948717,4504.102564,4209.230769,4652.820512,3990.769231,4047.179487
61,4410.256410,4519.487179,4483.589743,4269.743589,4552.307692,4348.205128,4459.487179,4216.410256,4244.102564,4504.102564,4212.307692,4655.897435,3992.307693,4047.179487
62,4408.717948,4520.512820,4482.051282,4267.179487,4540.512820,4341.538461,4460.000000,4217.435897,4238.974358,4500.000000,4205.641025,4653.846153,3982.051283,4043.076923
63,4413.333333,4524.615384,4483.589743,4270.769230,4534.871794,4345.641025,4457.948717,4212.307692,4233.846153,4494.871794,4198.974358,4651.282051,3977.948718,4042.564102
64,4411.282051,4521.025641,4485.641025,4271.794871,4538.974358,4348.205128,4459.487179,4205.641025,4236.923076,4491.282051,4198.461538,4652.307692,3980.512821,4046.153846
65,4406.153846,4508.717948,4488.717948,4262.051282,4536.923076,4344.615384,4461.025641,4206.666666,4241.538461,4494.871794,4205.128205,4653.846153,3982.051283,4044.102564
66,4412.820512,4514.358974,4497.948717,4270.256410,4536.923076,4348.205128,4457.435897,4209.230769,4244.102564,4500.000000,4209.743589,4659.487179,3987.179488,4043.076923
67,4420.512820,4537.948717,4503.589743,4286.666666,4542.051282,4350.769230,4456.410256,4205.128205,4247.179487,4501.025641,4205.641025,4666.153846,3993.333334,4048.717948
68,4418.461538,4542.051282,4497.435897,4282.051282,4542.564102,4344.102564,4454.358974,4197.948717,4242.564102,4502.564102,4198.974358,4663.589743,3988.205129,4046.666666
69,4416.410256,4528.717948,4494.871794,4276.410256,4538.461538,4341.025641,4448.717948,4191.794871,4233.846153,4501.538461,4203.076923,4656.923076,3982.564103,4041.025641
70,4413.846153,4523.076923,4495.384615,4282.564102,4535.384615,4338.974358,4443.589743,4185.128205,4230.256410,4490.256410,4207.692307,4655.897435,3982.564103,4035.384615
71,4409.743589,4524.102564,4490.256410,4278.461538,4534.871794,4334.358974,4443.589743,4183.589743,4227.692307,4484.615384,4197.948717,4653.333333,3977.948718,4032.820512
72,4408.205128,4523.589743,4484.102564,4269.743589,4538.974358,4336.410256,4443.589743,4186.153846,4225.128205,4491.282051,4186.153846,4646.153846,3971.282052,4037.435897
73,4406.666666,4523.076923,4481.538461,4271.794871,4541.025641,4340.512820,4441.538461,4185.128205,4223.589743,4491.794871,4184.102564,4641.538461,3969.743590,4040.512820
74,4404.615384,4521.538461,4483.076923,4270.769230,4539.487179,4338.974358,4443.076923,4184.615384,4222.564102,4485.128205,4188.717948,4642.564102,3971.794872,4036.410256
75,4399.487179,4520.512820,4484.615384,4262.051282,4538.974358,4338.461538,4445.641025,4185.128205,4218.461538,4481.025641,4189.230769,4642.564102,3970.769231,4029.743589
76,4394.358974,4520.000000,4482.051282,4261.538461,4537.435897,4335.384615,4444.102564,4181.538461,4216.923076,4482.051282,4185.128205,4642.051282,3966.153847,4030.769230
77,4396.410256,4520.000000,4481.538461,4264.615384,4535.897435,4332.307692,4442.564102,4182.564102,4224.102564,4490.769230,4187.692307,4646.153846,3968.717949,4040.512820
78,4402.564102,4521.025641,4487.179487,4265.128205,4537.948717,4334.871794,4449.230769,4188.717948,4234.871794,4500.000000,4197.435897,4651.282051,3977.948718,4047.179487
79,4398.974358,4521.025641,4489.230769,4268.717948,4541.025641,4336.923076,4452.307692,4191.794871,4236.410256,4498.974358,4204.615384,4651.282051,3978.461539,4041.538461
80,4393.333333,4522.051282,4485.128205,4269.230769,4540.000000,4333.333333,4446.153846,4186.666666,4230.769230,4491.282051,4202.051282,4646.153846,3970.769231,4030.256410
81,4395.384615,4521.025641,4483.589743,4263.076923,4537.435897,4332.307692,4443.589743,4183.589743,4227.179487,4485.641025,4189.743589,4641.025641,3970.256411,4030.256410
82,4392.307692,4514.358974,4480.512820,4264.615384,4537.948717,4329.743589,4443.589743,4184.615384,4227.692307,4478.974358,4179.487179,4636.410256,3971.282052,4037.435897
83,4387.692307,4512.820512,4479.487179,4267.179487,4538.974358,4328.717948,4444.102564,4187.692307,4229.230769,4477.435897,4188.205128,4635.384615,3969.230770,4042.564102
84,4391.794871,4516.923076,4484.102564,4263.589743,4537.435897,4332.820512,4447.179487,4186.666666,4234.358974,4489.743589,4198.461538,4637.435897,3970.256411,4035.897435
85,4397.948717,4524.615384,4484.615384,4265.128205,4540.512820,4334.358974,4449.230769,4186.153846,4234.358974,4497.435897,4191.794871,4637.948717,3973.333334,4032.307692
86,4400.000000,4532.820512,4485.641025,4274.358974,4548.717948,4333.846153,4449.743589,4189.743589,4229.743589,4492.307692,4190.256410,4638.974358,3974.358975,4042.564102
87,4404.102564,4536.410256,4491.794871,4279.487179,4551.794871,4338.461538,4451.794871,4191.282051,4234.871794,4491.794871,4200.000000,4643.076923,3976.410257,4048.205128
88,4407.692307,4537.948717,4496.410256,4280.512820,4552.820512,4338.974358,4448.717948,4187.179487,4242.564102,4497.948717,4203.076923,4646.666666,3983.076924,4045.641025
89,4406.153846,4536.410256,4493.333333,4281.025641,4552.820512,4333.333333,4444.102564,4184.615384,4236.923076,4498.974358,4201.025641,4646.666666,3985.641026,4047.179487
90,4401.538461,4527.179487,4490.256410,4280.512820,4543.076923,4328.717948,4444.615384,4186.153846,4234.871794,4497.435897,4203.589743,4644.615384,3976.923077,4046.666666
91,4398.461538,4526.666666,4492.307692,4283.076923,4535.897435,4329.743589,4444.615384,4189.230769,4242.564102,4495.897435,4200.000000,4646.666666,3973.333334,4046.153846
92,4404.615384,4535.384615,4497.948717,4282.564102,4546.153846,4334.358974,4445.128205,4195.384615,4240.000000,4493.846153,4195.897435,4651.282051,3985.128206,4054.871794
93,4412.820512,4536.923076,4502.564102,4281.025641,4558.461538,4340.512820,4454.871794,4203.589743,4237.435897,4496.410256,4208.205128,4653.846153,3998.974359,4061.538461
94,4411.794871,4534.871794,4499.487179,4280.000000,4551.282051,4338.461538,4457.435897,4201.025641,4242.051282,4501.538461,4214.871794,4652.307692,3995.384616,4060.000000
95,4400.000000,4531.282051,4493.333333,4270.769230,4542.051282,4330.256410,4447.179487,4189.743589,4236.410256,4496.410256,4202.564102,4644.615384,3982.051283,4055.384615
96,4392.307692,4523.076923,4492.307692,4261.025641,4543.589743,4329.230769,4442.051282,4188.205128,4226.666666,4488.717948,4194.358974,4638.974358,3977.948718,4044.102564
97,4395.384615,4521.538461,4497.948717,4265.641025,4543.076923,4336.923076,4448.205128,4191.282051,4232.820512,4490.256410,4201.538461,4647.692307,3982.564103,4038.974358
98,4397.948717,4528.717948,4498.461538,4269.743589,4545.641025,4337.435897,4446.666666,4191.794871,4237.948717,4496.410256,4201.538461,4653.333333,3987.692308,4045.641025
99,4396.410256,4531.282051,4494.358974,4263.076923,4548.717948,4330.769230,4439.487179,4189.743589,4230.769230,4502.051282,4194.358974,4646.153846,3989.230770,4052.307692
100,4400.512820,4528.205128,4497.435897,4261.538461,4545.641025,4329.743589,4442.564102,4191.282051,4230.769230,4508.205128,4198.461538,4647.692307,3994.871795,4057.435897
101,4405.128205,4524.102564,4501.538461,4266.153846,4545.641025,4334.358974,4445.128205,4195.897435,4240.000000,4510.256410,4203.589743,4656.410256,4004.615384,4059.487179
102,4398.461538,4520.000000,4498.461538,4263.589743,4544.102564,4333.333333,4442.051282,4193.333333,4239.487179,4508.205128,4197.948717,4650.769230,4002.564102,4052.307692
103,4394.358974,4526.153846,4494.358974,4263.076923,4540.512820,4327.692307,4441.538461,4188.205128,4234.871794,4507.692307,4191.794871,4643.076923,3994.358975,4047.692307
104,4400.000000,4531.794871,4497.435897,4266.153846,4542.051282,4329.230769,4443.076923,4189.743589,4242.051282,4507.179487,4195.897435,4647.692307,3995.384616,4054.358974
105,4405.128205,4528.205128,4501.025641,4266.666666,4547.692307,4335.384615,4443.076923,4192.820512,4243.589743,4502.051282,4201.025641,4651.282051,4000.000000,4062.051282
106,4405.128205,4530.256410,4502.564102,4266.153846,4549.230769,4338.974358,4447.692307,4191.794871,4235.384615,4501.025641,4204.102564,4651.794871,3998.974359,4060.000000
107,4396.923076,4529.743589,4503.589743,4263.076923,4550.256410,4332.820512,4444.615384,4188.205128,4232.820512,4504.615384,4193.846153,4645.641025,3990.769231,4046.666666
108,4383.589743,4516.410256,4494.871794,4258.461538,4542.564102,4321.025641,4429.743589,4178.461538,4226.666666,4495.897435,4173.846153,4629.230769,3977.435898,4031.794871
109,4381.025641,4513.333333,4487.692307,4261.025641,4534.871794,4323.076923,4429.230769,4174.871794,4216.410256,4485.128205,4173.333333,4625.128205,3970.769231,4030.769230
110,4389.743589,4525.128205,4495.384615,4267.179487,4542.564102,4338.974358,4444.615384,4187.179487,4225.128205,4492.307692,4189.230769,4638.461538,3975.897436,4042.051282
111,4388.205128,4525.641025,4502.051282,4265.128205,4545.128205,4338.974358,4449.743589,4190.769230,4237.948717,4499.487179,4192.307692,4642.051282,3980.000000,4043.076923
112,4377.948717,4513.846153,4495.897435,4257.435897,4538.461538,4325.128205,4437.435897,4180.512820,4230.769230,4488.205128,4178.461538,4630.769230,3980.512821,4031.282051
113,4380.512820,4509.230769,4493.333333,4258.461538,4536.923076,4322.051282,4430.769230,4176.923076,4223.589743,4486.666666,4175.897435,4627.692307,3982.051283,4029.230769
114,4392.820512,4515.384615,4498.461538,4261.025641,4538.461538,4325.641025,4436.923076,4181.538461,4231.282051,4497.948717,4182.051282,4635.384615,3975.897436,4038.974358
115,4395.897435,4523.076923,4500.000000,4255.897435,4538.974358,4326.153846,4442.051282,4186.153846,4232.307692,4499.487179,4183.076923,4640.000000,3974.358975,4041.025641
116,4391.282051,4521.538461,4498.461538,4253.846153,4538.974358,4326.153846,4440.000000,4185.128205,4224.102564,4496.410256,4187.179487,4635.384615,3983.589744,4033.846153
117,4391.794871,4516.923076,4496.923076,4261.025641,4536.410256,4324.615384,4438.461538,4180.000000,4223.076923,4496.410256,4192.307692,4635.384615,3987.692308,4037.948717
118,4397.435897,4522.051282,4501.538461,4269.743589,4538.974358,4327.179487,4443.589743,4183.589743,4233.333333,4502.051282,4194.358974,4645.641025,3991.794872,4051.282051
119,4403.076923,4530.769230,4511.282051,4275.897435,4552.307692,4334.358974,4447.179487,4196.410256,4242.564102,4511.794871,4199.487179,4655.384615,4000.512820,4056.410256
120,4400.512820,4528.717948,4507.692307,4277.948717,4556.410256,4333.846153,4443.076923,4194.358974,4237.948717,4509.743589,4203.076923,4653.846153,3998.461539,4050.769230
121,4398.974358,4528.717948,4501.538461,4276.410256,4551.794871,4333.846153,4443.589743,4188.205128,4233.333333,4506.666666,4203.589743,4649.743589,3994.871795,4050.256410
122,4410.256410,4538.461538,4513.846153,4278.461538,4553.846153,4342.051282,4453.333333,4196.923076,4245.128205,4518.461538,4212.307692,4660.000000,4007.179487,4062.051282
123,4417.948717,4541.025641,4523.076923,4283.076923,4555.897435,4342.051282,4452.820512,4199.487179,4253.846153,4520.000000,4213.846153,4668.205128,4012.820512,4065.128205
124,4406.153846,4530.769230,4513.333333,4278.461538,4547.179487,4334.358974,4442.051282,4190.769230,4242.051282,4509.743589,4198.461538,4657.948717,3997.948718,4053.333333
125,4396.923076,4525.128205,4508.717948,4269.230769,4540.000000,4335.897435,4442.051282,4192.307692,4237.435897,4513.333333,4198.974358,4649.743589,3987.692308,4046.153846
126,4405.641025,4530.256410,4512.820512,4268.205128,4545.128205,4341.538461,4446.666666,4198.974358,4250.256410,4519.487179,4209.230769,4651.794871,3993.333334,4051.282051
127,4411.794871,4533.333333,4510.769230,4272.820512,4551.282051,4341.025641,4444.102564,4194.871794,4251.282051,4513.333333,4197.435897,4648.717948,4000.000000,4051.282051
128,4405.641025,4529.743589,4509.743589,4276.923076,4546.153846,4338.974358,4443.589743,4189.743589,4236.410256,4509.230769,4187.179487,4644.615384,3997.435898,4042.051282
129,4401.538461,4526.153846,4510.256410,4277.435897,4537.435897,4335.897435,4445.128205,4184.615384,4229.743589,4505.641025,4201.538461,4651.282051,3994.358975,4037.948717
130,4406.666666,4532.307692,4513.846153,4273.333333,4538.461538,4334.871794,4445.128205,4185.128205,4238.461538,4504.102564,4213.846153,4655.384615,3994.871795,4043.589743
131,4410.769230,4539.487179,4514.871794,4270.256410,4542.051282,4337.435897,4447.179487,4198.461538,4250.256410,4513.846153,4210.256410,4652.820512,3997.435898,4047.692307
132,4401.538461,4532.820512,4507.692307,4267.179487,4536.410256,4332.820512,4444.615384,4198.974358,4247.179487,4517.435897,4199.487179,4648.717948,3995.897436,4038.974358
133,4389.230769,4525.641025,4501.025641,4265.128205,4533.333333,4326.666666,4440.000000,4188.205128,4237.948717,4511.794871,4194.358974,4646.153846,3990.769231,4028.205128
134,4396.410256,4532.820512,4508.205128,4269.230769,4540.000000,4333.333333,4441.538461,4192.307692,4241.025641,4515.384615,4209.230769,4653.333333,3992.820513,4034.871794
135,4414.871794,4541.025641,4518.974358,4278.461538,4544.615384,4338.974358,4445.641025,4200.512820,4250.256410,4523.589743,4224.102564,4662.051282,4002.051282,4051.794871
136,4415.384615,4538.974358,4516.923076,4278.461538,4541.025641,4331.794871,4444.615384,4197.948717,4248.717948,4517.948717,4216.410256,4656.410256,4004.102564,4053.846153
137,4402.564102,4535.384615,4510.769230,4271.794871,4538.461538,4326.666666,4442.051282,4195.897435,4242.051282,4505.641025,4207.692307,4647.692307,3995.897436,4040.512820
138,4399.487179,4536.410256,4511.282051,4273.846153,4539.487179,4329.230769,4441.538461,4194.871794,4246.666666,4508.205128,4208.717948,4649.230769,3992.307693,4034.358974
139,4403.589743,4531.794871,4514.871794,4277.948717,4538.461538,4327.692307,4443.589743,4191.794871,4250.769230,4515.384615,4206.666666,4651.282051,3989.230770,4037.435897
140,4401.025641,4525.641025,4513.846153,4273.333333,4537.948717,4326.153846,4444.102564,4192.307692,4244.102564,4512.820512,4201.538461,4646.666666,3987.179488,4040.000000
141,4393.846153,4522.564102,4504.102564,4263.076923,4536.410256,4326.666666,4436.410256,4189.743589,4235.384615,4505.641025,4192.820512,4639.487179,3988.205129,4034.871794
142,4393.333333,4522.564102,4498.461538,4257.948717,4533.333333,4323.589743,4434.871794,4182.051282,4230.769230,4502.564102,4188.205128,4633.333333,3984.102565,4026.153846
143,4402.051282,4523.589743,4502.564102,4264.102564,4533.846153,4322.051282,4436.923076,4185.128205,4232.820512,4507.692307,4193.333333,4637.948717,3982.051283,4031.794871
144,4404.615384,4526.666666,4508.717948,4267.179487,4534.871794,4322.564102,4431.794871,4188.205128,4238.461538,4508.205128,4194.871794,4645.128205,3987.179488,4040.000000
145,4403.589743,4531.282051,4510.769230,4262.564102,4535.384615,4323.589743,4434.358974,4184.102564,4241.025641,4506.666666,4194.871794,4646.666666,3990.769231,4038.974358
146,4409.230769,4533.333333,4513.846153,4264.102564,4539.487179,4328.205128,4445.128205,4187.692307,4239.487179,4507.692307,4205.128205,4648.205128,3993.846154,4037.948717
147,4410.769230,4534.358974,4514.358974,4270.769230,4541.538461,4329.230769,4444.102564,4190.256410,4240.000000,4506.153846,4205.641025,4648.717948,3997.435898,4044.615384
148,4407.179487,4536.923076,4514.358974,4276.410256,4541.025641,4327.692307,4439.487179,4189.743589,4238.974358,4509.743589,4197.948717,4645.641025,4001.538461,4048.717948
149,4411.794871,4540.000000,4517.948717,4278.461538,4543.589743,4331.282051,4447.179487,4193.846153,4240.512820,4523.589743,4209.743589,4648.205128,4006.666666,4046.666666
150,4412.820512,4533.846153,4516.923076,4271.282051,4541.538461,4330.769230,4446.153846,4195.384615,4240.512820,4524.615384,4218.461538,4647.179487,3998.974359,4037.435897
151,4400.512820,4521.025641,4507.179487,4260.000000,4533.333333,4317.948717,4434.358974,4185.128205,4232.307692,4502.051282,4200.512820,4636.410256,3978.461539,4030.769230
152,4398.974358,4522.564102,4505.128205,4263.589743,4532.820512,4314.871794,4435.384615,4180.000000,4231.282051,4494.871794,4186.666666,4635.384615,3978.461539,4040.000000
153,4410.769230,4536.410256,4514.358974,4272.307692,4539.487179,4326.153846,4444.615384,4190.256410,4237.435897,4509.230769,4202.051282,4646.666666,3993.846154,4053.333333
154,4413.846153,4536.923076,4518.461538,4273.846153,4542.051282,4329.743589,4446.153846,4198.461538,4239.487179,4517.948717,4220.512820,4651.282051,4001.025641,4054.358974
155,4413.846153,4534.871794,4517.948717,4276.923076,4540.512820,4326.666666,4444.102564,4200.000000,4243.589743,4520.000000,4217.948717,4651.282051,4004.102564,4046.666666
156,4416.410256,4540.512820,4520.000000,4278.461538,4540.000000,4327.692307,4446.666666,4200.000000,4249.230769,4517.435897,4209.743589,4656.410256,4007.692307,4045.128205
157,4410.769230,4531.794871,4517.948717,4268.205128,4539.487179,4322.564102,4445.641025,4192.820512,4242.051282,4507.179487,4206.153846,4654.358974,4004.102564,4049.743589
158,4402.051282,4518.461538,4513.846153,4259.487179,4532.820512,4315.384615,4441.538461,4184.102564,4237.948717,4500.512820,4205.641025,4646.153846,3993.846154,4048.205128
159,4400.512820,4522.564102,4514.871794,4264.102564,4530.256410,4317.948717,4438.974358,4186.153846,4236.923076,4505.128205,4205.128205,4644.615384,3979.487180,4037.435897
160,4396.923076,4524.615384,4510.769230,4267.179487,4532.820512,4316.923076,4431.282051,4183.076923,4220.512820,4496.410256,4192.307692,4639.487179,3967.692308,4021.538461
161,4391.794871,4519.487179,4500.000000,4264.615384,4525.641025,4307.692307,4424.102564,4169.230769,4208.717948,4477.948717,4175.384615,4628.717948,3964.615385,4016.923076
162,4395.897435,4529.230769,4504.102564,4270.769230,4525.641025,4310.769230,4426.666666,4170.769230,4214.871794,4485.641025,4181.538461,4633.333333,3971.282052,4031.794871
163,4403.589743,4538.974358,4516.410256,4278.974358,4535.897435,4321.538461,4430.256410,4184.102564,4220.000000,4503.076923,4200.000000,4644.102564,3980.000000,4043.076923
164,4405.128205,4534.358974,4513.846153,4275.897435,4531.794871,4317.435897,4429.743589,4183.076923,4217.948717,4496.923076,4202.564102,4641.538461,3978.974359,4038.974358
165,4406.666666,4531.794871,4510.256410,4272.307692,4524.102564,4309.743589,4428.205128,4177.948717,4224.102564,4487.692307,4198.974358,4640.000000,3977.948718,4042.051282
166,4411.282051,4536.923076,4517.435897,4275.897435,4534.358974,4316.923076,4430.769230,4184.102564,4231.794871,4494.358974,4204.615384,4646.153846,3982.051283,4049.743589
167,4412.307692,4540.512820,4520.512820,4280.000000,4544.615384,4326.666666,4440.000000,4186.666666,4228.717948,4500.000000,4205.641025,4648.205128,3986.153847,4044.615384
168,4407.692307,4533.333333,4515.897435,4276.410256,4535.384615,4321.025641,4441.025641,4181.538461,4225.641025,4496.410256,4198.461538,4643.076923,3981.025642,4040.512820
169,4405.641025,4527.179487,4513.333333,4271.282051,4529.230769,4313.846153,4434.871794,4183.589743,4230.256410,4493.846153,4199.487179,4643.589743,3975.384616,4050.256410
170,4411.794871,4533.846153,4516.410256,4272.820512,4534.358974,4318.974358,4438.461538,4187.692307,4231.282051,4496.923076,4205.128205,4647.692307,3982.051283,4059.487179
171,4414.358974,4541.025641,4519.487179,4278.974358,4541.025641,4322.051282,4445.128205,4185.641025,4230.256410,4505.641025,4201.538461,4647.179487,3990.769231,4052.820512
172,4411.282051,4537.948717,4518.974358,4281.538461,4541.025641,4320.000000,4444.102564,4192.820512,4235.897435,4507.179487,4203.589743,4647.179487,3990.256411,4045.641025
173,4413.333333,4534.871794,4519.487179,4276.923076,4538.974358,4323.589743,4443.589743,4201.025641,4234.871794,4502.564102,4214.871794,4651.282051,3982.564103,4055.897435
174,4416.410256,4539.487179,4521.025641,4272.820512,4540.000000,4326.153846,4445.128205,4192.307692,4231.282051,4507.692307,4210.256410,4652.820512,3980.512821,4067.179487
175,4414.871794,4537.948717,4518.974358,4274.358974,4541.025641,4325.128205,4444.102564,4188.717948,4237.948717,4509.743589,4201.538461,4650.769230,3987.179488,4064.102564
176,4410.256410,4529.230769,4515.897435,4272.820512,4539.487179,4326.153846,4445.128205,4197.435897,4240.512820,4506.153846,4209.230769,4650.256410,3993.846154,4055.897435
177,4408.717948,4523.076923,4515.384615,4267.179487,4532.820512,4322.564102,4443.589743,4198.461538,4233.333333,4507.692307,4210.769230,4648.205128,3985.641026,4050.256410
178,4412.307692,4527.692307,4517.948717,4265.641025,4531.282051,4317.948717,4440.512820,4194.871794,4230.769230,4505.641025,4199.487179,4647.692307,3975.897436,4052.307692
179,4417.435897,4532.307692,4518.974358,4271.282051,4539.487179,4321.538461,4443.076923,4191.282051,4229.743589,4497.435897,4201.538461,4653.333333,3986.153847,4060.000000
180,4415.384615,4528.717948,4516.923076,4273.333333,4538.974358,4322.564102,4443.589743,4188.205128,4226.153846,4493.333333,4205.641025,4651.794871,3993.846154,4060.000000
181,4413.333333,4532.307692,4519.487179,4276.410256,4536.923076,4326.153846,4444.615384,4193.846153,4229.743589,4500.000000,4204.102564,4647.692307,3985.641026,4055.897435
182,4417.948717,4541.538461,4522.051282,4284.102564,4543.076923,4329.230769,4447.179487,4197.948717,4235.897435,4509.230769,4203.589743,4647.179487,3980.000000,4051.794871
183,4414.358974,4535.384615,4515.384615,4277.948717,4536.923076,4317.435897,4443.589743,4186.153846,4232.820512,4503.589743,4199.487179,4644.615384,3982.051283,4045.128205
184,4406.153846,4526.153846,4509.743589,4266.666666,4524.615384,4308.717948,4437.435897,4182.051282,4224.102564,4491.794871,4201.538461,4641.025641,3984.615385,4049.743589
185,4409.230769,4531.282051,4511.282051,4270.769230,4532.307692,4314.871794,4441.538461,4187.692307,4217.435897,4491.282051,4202.051282,4638.974358,3978.974359,4057.435897
186,4415.384615,4529.230769,4511.794871,4276.410256,4541.025641,4317.948717,4442.051282,4183.589743,4212.820512,4490.769230,4188.205128,4635.384615,3960.512821,4049.230769
187,4412.307692,4526.666666,4509.743589,4272.820512,4536.923076,4319.487179,4442.051282,4184.102564,4218.461538,4489.230769,4183.076923,4634.871794,3958.461539,4039.487179
188,4411.794871,4533.333333,4513.333333,4269.230769,4537.435897,4326.153846,4452.307692,4197.948717,4235.384615,4501.538461,4196.923076,4644.102564,3976.410257,4038.974358
189,4417.948717,4529.230769,4516.923076,4266.666666,4540.512820,4324.102564,4452.307692,4202.051282,4241.025641,4502.051282,4203.076923,4650.256410,3980.512821,4041.025641
190,4426.153846,4529.743589,4522.564102,4270.256410,4537.948717,4323.589743,4447.692307,4197.435897,4237.435897,4493.846153,4200.000000,4651.282051,3977.435898,4052.820512
191,4434.871794,4547.692307,4530.256410,4284.102564,4540.512820,4331.794871,4454.871794,4197.948717,4237.435897,4500.512820,4203.076923,4654.358974,3982.564103,4063.076923
192,4426.666666,4548.717948,4524.615384,4285.641025,4542.051282,4330.256410,4454.358974,4193.846153,4230.769230,4497.948717,4199.487179,4649.743589,3978.461539,4045.641025
193,4414.358974,4532.820512,4514.358974,4277.435897,4539.487179,4323.589743,4445.128205,4191.282051,4222.564102,4484.102564,4193.846153,4640.512820,3970.256411,4029.743589
194,4422.051282,4536.923076,4515.897435,4278.461538,4537.948717,4325.641025,4447.179487,4194.358974,4230.256410,4488.717948,4192.820512,4641.538461,3977.435898,4041.025641
195,4428.205128,4542.051282,4518.974358,4273.846153,4530.256410,4325.641025,4449.230769,4191.794871,4233.846153,4495.384615,4193.846153,4646.153846,3978.974359,4046.666666
196,4421.025641,4532.820512,4514.871794,4266.666666,4521.538461,4320.512820,4442.051282,4190.256410,4225.641025,4489.743589,4193.333333,4642.051282,3967.179488,4037.948717
197,4420.512820,4534.871794,4515.897435,4277.435897,4524.102564,4323.076923,4442.564102,4193.846153,4224.615384,4487.692307,4191.282051,4636.923076,3964.102565,4034.871794
198,4423.076923,4541.025641,4518.461538,4284.102564,4527.179487,4327.179487,4451.282051,4192.820512,4225.641025,4480.000000,4189.230769,4636.410256,3970.769231,4035.897435
199,4422.051282,4532.820512,4515.897435,4270.769230,4522.564102,4326.153846,4454.358974,4194.358974,4224.615384,4471.282051,4184.615384,4638.461538,3970.256411,4035.897435
200,4423.589743,4525.641025,4516.923076,4264.102564,4521.538461,4325.641025,4453.333333,4203.589743,4230.769230,4485.128205,4187.692307,4645.128205,3965.128206,4040.512820
201,4424.102564,4533.846153,4518.974358,4274.358974,4524.102564,4326.666666,4452.307692,4202.051282,4232.820512,4494.358974,4196.410256,4649.230769,3967.179488,4041.538461
202,4421.538461,4539.487179,4517.948717,4280.000000,4524.615384,4325.641025,4448.717948,4192.307692,4222.564102,4483.589743,4194.358974,4644.102564,3967.692308,4041.538461
203,4416.923076,4534.358974,4514.871794,4276.410256,4523.589743,4322.051282,4443.589743,4186.153846,4214.871794,4481.025641,4183.589743,4637.948717,3961.538462,4044.102564
204,4413.333333,4533.846153,4514.358974,4270.769230,4518.974358,4322.051282,4442.564102,4186.153846,4219.487179,4485.641025,4181.025641,4639.487179,3961.025642,4043.076923
205,4418.974358,4537.948717,4515.384615,4265.641025,4520.000000,4326.666666,4445.128205,4194.358974,4222.564102,4479.487179,4185.128205,4644.102564,3968.717949,4042.564102
206,4424.615384,4537.948717,4516.410256,4266.666666,4528.717948,4332.307692,4447.179487,4200.512820,4219.487179,4484.102564,4184.615384,4645.641025,3970.256411,4044.615384
207,4419.487179,4536.923076,4514.358974,4267.692307,4527.692307,4329.743589,4447.179487,4194.871794,4217.948717,4493.333333,4179.487179,4640.512820,3969.230770,4038.974358
208,4415.897435,4536.923076,4511.282051,4262.564102,4521.025641,4323.076923,4444.102564,4190.256410,4216.410256,4486.666666,4175.384615,4634.871794,3972.820513,4036.923076
209,4420.000000,4537.435897,4512.820512,4260.000000,4526.153846,4324.102564,4442.051282,4197.948717,4222.051282,4481.025641,4179.487179,4636.923076,3974.358975,4044.102564
210,4422.564102,4537.435897,4515.897435,4256.923076,4527.692307,4326.666666,4444.102564,4202.564102,4231.794871,4493.846153,4186.153846,4638.974358,3975.897436,4045.641025
211,4426.666666,4536.923076,4522.051282,4252.820512,4523.589743,4325.128205,4446.666666,4198.974358,4235.384615,4503.589743,4190.256410,4644.102564,3989.230770,4049.743589
212,4428.717948,4537.435897,4528.205128,4259.487179,4532.820512,4326.666666,4448.717948,4202.051282,4234.358974,4499.487179,4192.307692,4653.846153,4003.589743,4062.564102
213,4426.666666,4545.128205,4524.615384,4266.153846,4542.564102,4330.256410,4445.641025,4204.102564,4228.205128,4494.871794,4187.692307,4652.820512,3997.435898,4059.487179
214,4430.769230,4551.282051,4516.410256,4262.564102,4535.897435,4326.153846,4442.051282,4197.948717,4217.948717,4497.948717,4180.512820,4642.051282,3986.153847,4042.564102
215,4431.794871,4544.102564,4514.358974,4263.076923,4528.205128,4318.974358,4442.051282,4196.410256,4216.410256,4507.179487,4183.589743,4639.487179,3986.666667,4037.435897
216,4423.589743,4534.871794,4514.358974,4263.589743,4524.615384,4318.461538,4442.051282,4200.000000,4219.487179,4505.641025,4188.205128,4641.538461,3985.641026,4041.538461
217,4421.025641,4537.948717,4513.333333,4258.974358,4521.025641,4322.051282,4437.948717,4196.923076,4217.435897,4494.358974,4185.128205,4636.923076,3982.564103,4045.641025
218,4428.205128,4543.076923,4516.410256,4260.512820,4526.666666,4322.051282,4437.948717,4192.820512,4218.461538,4494.358974,4181.538461,4636.410256,3986.666667,4043.589743
219,4424.102564,4538.974358,4513.846153,4261.538461,4530.769230,4317.435897,4439.487179,4192.820512,4216.923076,4496.923076,4179.487179,4636.410256,3983.589744,4031.282051
220,4417.948717,4535.384615,4510.769230,4261.538461,4530.769230,4321.025641,4441.538461,4195.384615,4214.871794,4497.435897,4184.615384,4634.871794,3978.974359,4030.256410
221,4427.692307,4537.435897,4520.000000,4264.102564,4535.384615,4334.358974,4452.820512,4204.615384,4225.128205,4503.076923,4194.358974,4645.641025,3992.820513,4047.692307
222,4440.512820,4541.025641,4530.769230,4264.102564,4540.512820,4335.897435,4457.435897,4213.846153,4235.384615,4508.717948,4196.410256,4656.410256,4004.615384,4058.461538
223,4438.974358,4543.076923,4529.743589,4262.564102,4537.948717,4329.230769,4449.743589,4216.410256,4241.538461,4510.769230,4194.358974,4654.358974,3996.410257,4051.282051
224,4434.358974,4541.538461,4525.641025,4265.128205,4534.871794,4329.230769,4447.692307,4215.384615,4247.179487,4513.333333,4200.000000,4649.743589,3989.743590,4044.615384
225,4434.358974,4540.512820,4523.076923,4266.153846,4536.410256,4331.794871,4451.794871,4209.743589,4242.051282,4512.307692,4200.512820,4648.205128,3994.871795,4047.179487
226,4432.307692,4538.974358,4522.564102,4266.666666,4535.897435,4331.794871,4452.307692,4202.051282,4228.717948,4505.641025,4191.282051,4646.666666,3991.794872,4049.230769
227,4429.743589,4539.487179,4528.205128,4273.333333,4537.948717,4334.358974,4452.820512,4200.000000,4226.153846,4499.487179,4188.205128,4648.205128,3986.666667,4050.256410
228,4428.205128,4541.538461,4527.692307,4273.846153,4541.538461,4337.435897,4452.307692,4205.128205,4229.230769,4496.410256,4192.307692,4647.692307,3990.256411,4048.205128
229,4427.179487,4541.025641,4517.435897,4266.153846,4538.974358,4336.923076,4452.307692,4210.769230,4228.717948,4498.974358,4192.820512,4643.589743,3987.179488,4043.076923
230,4424.615384,4537.435897,4513.846153,4258.974358,4533.846153,4336.923076,4456.923076,4211.794871,4231.794871,4502.564102,4190.256410,4644.102564,3981.025642,4041.025641
231,4426.153846,4534.358974,4515.897435,4257.948717,4530.769230,4338.974358,4457.948717,4209.743589,4233.846153,4499.487179,4189.743589,4644.615384,3983.589744,4041.538461
232,4429.743589,4533.846153,4516.410256,4257.948717,4535.384615,4340.512820,4456.410256,4212.820512,4231.794871,4501.025641,4193.846153,4644.102564,3989.230770,4041.025641
233,4429.743589,4537.435897,4521.538461,4258.974358,4541.025641,4343.076923,4461.538461,4220.000000,4233.846153,4507.692307,4201.025641,4652.820512,3991.282052,4045.128205
234,4430.769230,4538.461538,4528.205128,4262.564102,4540.000000,4343.076923,4463.076923,4218.974358,4237.948717,4506.153846,4201.538461,4658.461538,3991.794872,4051.282051
235,4431.794871,4536.923076,4524.102564,4265.128205,4536.923076,4337.435897,4456.410256,4215.384615,4235.384615,4502.564102,4192.820512,4652.820512,3991.794872,4050.769230
236,4428.205128,4541.025641,4516.410256,4265.128205,4541.025641,4333.846153,4453.333333,4211.282051,4232.820512,4507.692307,4190.769230,4646.153846,3992.820513,4042.564102
237,4421.025641,4538.461538,4515.384615,4262.564102,4536.410256,4330.256410,4450.256410,4202.051282,4228.717948,4504.615384,4192.820512,4643.589743,3987.179488,4030.256410
238,4418.461538,4528.205128,4516.410256,4261.025641,4524.102564,4327.179487,4446.666666,4196.410256,4220.512820,4492.820512,4193.846153,4642.051282,3974.871795,4025.128205
239,4426.153846,4530.256410,4517.435897,4262.051282,4528.717948,4328.717948,4451.794871,4203.589743,4221.025641,4496.923076,4195.384615,4647.179487,3973.333334,4038.974358
240,4429.230769,4538.461538,4519.487179,4264.102564,4534.871794,4331.282051,4453.846153,4211.282051,4230.769230,4504.102564,4190.769230,4649.230769,3978.974359,4049.230769
241,4426.666666,4538.461538,4517.948717,4264.102564,4531.282051,4329.230769,4448.717948,4212.307692,4233.846153,4494.871794,4185.641025,4643.076923,3979.487180,4042.564102
242,4427.179487,4536.923076,4515.897435,4262.051282,4533.846153,4330.256410,4451.282051,4213.333333,4229.230769,4494.871794,4192.307692,4641.538461,3977.435898,4040.000000
243,4428.717948,4536.923076,4520.512820,4261.025641,4539.487179,4336.410256,4459.487179,4216.410256,4230.769230,4509.743589,4202.564102,4648.205128,3979.487180,4045.641025
244,4429.230769,4537.435897,4526.666666,4264.615384,4537.435897,4340.512820,4460.512820,4217.948717,4234.871794,4511.282051,4202.051282,4654.358974,3985.641026,4049.743589
245,4436.923076,4543.589743,4528.717948,4269.230769,4538.461538,4341.025641,4458.974358,4216.923076,4232.307692,4505.641025,4200.512820,4654.871794,3984.615385,4052.307692
246,4440.512820,4553.846153,4530.769230,4273.333333,4541.538461,4342.051282,4459.487179,4217.435897,4232.307692,4509.230769,4201.025641,4652.820512,3982.564103,4051.282051
247,4435.384615,4554.358974,4531.794871,4278.461538,4538.974358,4342.051282,4457.435897,4216.923076,4233.333333,4506.666666,4199.487179,4654.871794,3986.666667,4051.282051
248,4433.333333,4540.000000,4526.666666,4273.846153,4540.000000,4340.000000,4458.974358,4210.256410,4224.102564,4496.923076,4201.025641,4654.358974,3982.564103,4052.820512
249,4436.923076,4535.384615,4522.564102,4268.717948,4538.461538,4338.974358,4457.435897,4206.153846,4222.051282,4499.487179,4198.974358,4651.794871,3975.384616,4051.794871
250,4440.512820,4549.230769,4528.717948,4274.358974,4535.897435,4341.538461,4456.923076,4213.846153,4238.461538,4509.230769,4196.923076,4660.512820,3986.666667,4052.307692
251,4443.076923,4551.794871,4532.820512,4281.538461,4541.025641,4346.153846,4461.538461,4220.512820,4244.615384,4511.282051,4203.076923,4668.717948,3997.948718,4057.435897
252,4441.025641,4539.487179,4529.230769,4278.974358,4544.102564,4346.666666,4459.487179,4216.923076,4238.461538,4503.589743,4210.769230,4659.487179,3990.256411,4058.974358
253,4438.461538,4537.435897,4527.179487,4270.256410,4540.512820,4343.076923,4457.948717,4215.897435,4242.564102,4506.153846,4207.692307,4652.307692,3985.128206,4056.410256
254,4439.487179,4540.000000,4527.692307,4265.128205,4539.487179,4342.564102,4461.025641,4224.102564,4251.282051,4522.564102,4203.589743,4658.461538,3992.820513,4051.794871
255,4445.641025,4537.948717,4530.256410,4269.230769,4541.025641,4341.538461,4458.974358,4227.692307,4249.743589,4525.128205,4206.153846,4663.589743,3994.358975,4046.666666
256,4446.153846,4540.512820,4531.282051,4272.307692,4540.512820,4337.948717,4455.897435,4223.076923,4241.538461,4515.384615,4212.307692,4661.025641,3988.205129,4052.307692
257,4440.000000,4538.974358,4527.692307,4265.641025,4540.000000,4336.410256,4458.461538,4222.051282,4237.435897,4514.871794,4213.846153,4656.923076,3985.641026,4062.564102
258,4437.435897,4526.666666,4522.051282,4262.051282,4532.820512,4334.358974,4453.333333,4220.000000,4237.948717,4510.256410,4201.538461,4654.358974,3985.128206,4055.897435
259,4432.307692,4527.179487,4515.897435,4263.076923,4525.128205,4328.205128,4444.102564,4209.743589,4233.846153,4495.897435,4189.230769,4648.717948,3975.897436,4041.538461
