,AF3,F7,F3,FC5,T7,P7,O1,O2,P8,T8,FC6,F4,F8,AF4
0,4381.538461,4552.307692,4539.487179,4308.717948,4507.179487,4216.923076,4449.230769,4230.256410,4248.717948,4508.205128,4198.461538,4668.205128,3984.102565,4035.384615
1,4390.256410,4558.974358,4543.076923,4309.743589,4509.230769,4221.025641,4457.435897,4235.384615,4260.000000,4513.846153,4203.076923,4671.794871,3989.230770,4047.692307
2,4395.384615,4557.435897,4538.974358,4307.179487,4509.230769,4219.487179,4454.358974,4235.897435,4264.102564,4509.743589,4205.128205,4669.230769,3991.794872,4048.205128
3,4396.410256,4553.333333,4534.358974,4308.205128,4507.179487,4216.923076,4445.641025,4230.769230,4255.384615,4513.846153,4205.641025,4666.153846,3988.205129,4038.461538
4,4396.923076,4552.820512,4534.358974,4303.589743,4505.128205,4216.410256,4443.589743,4231.282051,4250.256410,4518.461538,4205.641025,4665.128205,3987.692308,4035.384615
5,4396.410256,4550.769230,4534.358974,4300.000000,4505.128205,4215.897435,4449.230769,4232.307692,4254.871794,4509.230769,4199.487179,4666.153846,3989.230770,4037.948717
6,4398.461538,4550.769230,4534.871794,4300.000000,4501.538461,4216.923076,4454.871794,4228.717948,4253.846153,4503.076923,4195.384615,4670.256410,3986.666667,4038.461538
7,4404.615384,4551.794871,4538.974358,4296.923076,4498.974358,4218.974358,4456.923076,4234.871794,4252.820512,4511.794871,4199.487179,4671.794871,3986.153847,4036.923076
8,4406.153846,4550.256410,4540.512820,4297.948717,4504.615384,4219.487179,4460.512820,4249.743589,4260.000000,4516.923076,4204.102564,4673.846153,3985.641026,4035.384615
9,4398.974358,4549.743589,4536.923076,4302.564102,4508.205128,4219.487179,4460.512820,4250.769230,4261.538461,4512.307692,4200.512820,4672.820512,3980.000000,4036.923076
10,4394.871794,4550.256410,4532.307692,4296.410256,4504.102564,4218.974358,4458.461538,4236.923076,4249.230769,4505.128205,4192.307692,4667.179487,3979.487180,4040.000000
11,4398.974358,4545.641025,4530.256410,4293.846153,4503.076923,4216.923076,4457.435897,4229.743589,4245.641025,4503.589743,4194.871794,4665.128205,3985.641026,4037.948717
12,4408.717948,4545.641025,4537.948717,4304.102564,4506.153846,4215.897435,4458.974358,4232.820512,4257.435897,4512.307692,4211.282051,4671.282051,3988.717949,4037.435897
13,4414.358974,4549.743589,4543.589743,4303.076923,4505.641025,4216.923076,4459.487179,4238.974358,4263.076923,4519.487179,4213.846153,4676.923076,3987.179488,4042.051282
14,4410.256410,4547.692307,4537.948717,4294.871794,4504.615384,4218.461538,4458.461538,4244.615384,4261.538461,4514.871794,4198.974358,4678.974358,3986.153847,4042.051282
15,4405.641025,4548.205128,4534.871794,4296.410256,4503.589743,4218.461538,4457.948717,4245.641025,4262.564102,4505.128205,4203.076923,4678.974358,3990.256411,4043.076923
16,4409.230769,4554.871794,4543.076923,4297.948717,4503.076923,4217.435897,4459.487179,4247.179487,4264.615384,4508.717948,4216.923076,4678.461538,3995.897436,4044.615384
17,4413.333333,4555.384615,4545.641025,4296.923076,4505.641025,4218.461538,4461.025641,4246.153846,4259.487179,4514.358974,4206.666666,4676.410256,3993.846154,4043.076923
18,4406.666666,4549.743589,4535.897435,4292.820512,4506.153846,4220.512820,4460.000000,4237.948717,4248.205128,4507.179487,4196.923076,4671.794871,3987.179488,4042.564102
19,4398.974358,4549.743589,4531.282051,4287.692307,4504.102564,4218.461538,4457.948717,4230.256410,4245.128205,4503.076923,4198.461538,4666.666666,3989.230770,4043.076923
20,4398.461538,4552.307692,4530.256410,4287.179487,4505.128205,4215.384615,4457.948717,4230.769230,4247.692307,4508.717948,4190.769230,4663.589743,3997.435898,4037.948717
21,4400.512820,4550.769230,4530.256410,4293.333333,4504.102564,4216.923076,4458.461538,4233.333333,4249.743589,4509.230769,4189.230769,4664.615384,4005.641025,4034.358974
22,4398.461538,4548.205128,4533.846153,4295.384615,4500.512820,4217.948717,4454.871794,4230.256410,4248.205128,4501.538461,4202.564102,4663.589743,4007.692307,4038.461538
23,4395.897435,4547.692307,4533.333333,4289.743589,4502.051282,4216.923076,4445.128205,4224.102564,4245.128205,4498.461538,4200.512820,4658.974358,4004.102564,4042.051282
24,4401.538461,4548.717948,4531.282051,4288.205128,4505.641025,4216.410256,4443.589743,4224.102564,4244.615384,4505.641025,4188.205128,4658.974358,4003.589743,4043.589743
25,4409.230769,4550.769230,4535.897435,4295.384615,4508.717948,4220.000000,4451.282051,4230.769230,4247.692307,4509.743589,4187.692307,4665.641025,4006.153846,4041.538461
26,4407.179487,4551.282051,4538.461538,4295.897435,4506.666666,4219.487179,4447.692307,4227.692307,4247.692307,4505.128205,4186.666666,4667.179487,4008.205128,4034.871794
27,4402.564102,4547.179487,4531.794871,4285.641025,4499.487179,4215.897435,4443.589743,4216.410256,4242.564102,4500.000000,4184.615384,4659.487179,4006.666666,4034.358974
28,4409.743589,4546.666666,4535.384615,4285.641025,4501.025641,4222.564102,4455.384615,4221.538461,4243.076923,4502.051282,4194.871794,4660.512820,4007.692307,4044.102564
29,4417.435897,4554.871794,4547.179487,4296.923076,4509.743589,4231.282051,4465.128205,4233.333333,4249.743589,4505.641025,4199.487179,4671.794871,4012.307692,4047.692307
30,4414.871794,4553.846153,4544.102564,4296.410256,4508.717948,4229.743589,4456.410256,4231.282051,4247.179487,4506.666666,4187.692307,4672.307692,4010.769230,4038.974358
31,4411.794871,4541.538461,4532.820512,4285.641025,4502.564102,4226.666666,4448.205128,4226.666666,4243.589743,4504.615384,4181.538461,4662.564102,4004.102564,4033.333333
32,4411.794871,4536.410256,4530.256410,4278.974358,4503.589743,4231.282051,4451.794871,4230.256410,4247.692307,4504.102564,4187.692307,4658.974358,4001.538461,4035.897435
33,4412.820512,4538.461538,4531.282051,4280.512820,4506.153846,4228.717948,4454.358974,4231.282051,4248.717948,4505.128205,4189.230769,4661.538461,4000.000000,4036.923076
34,4414.358974,4540.512820,4528.205128,4286.153846,4506.666666,4218.461538,4450.769230,4227.692307,4245.641025,4507.692307,4186.153846,4663.076923,4001.538461,4033.846153
35,4411.794871,4540.000000,4528.717948,4287.179487,4504.615384,4214.871794,4444.615384,4228.205128,4252.307692,4507.692307,4185.641025,4663.589743,4008.205128,4036.410256
36,4409.230769,4542.051282,4532.307692,4286.666666,4502.051282,4217.948717,4444.615384,4230.769230,4260.000000,4506.666666,4192.820512,4665.128205,4007.179487,4042.051282
37,4411.794871,4546.666666,4532.820512,4291.282051,4503.589743,4218.974358,4449.743589,4227.179487,4252.307692,4508.717948,4203.076923,4666.153846,4004.102564,4042.564102
38,4413.333333,4548.717948,4529.230769,4294.358974,4506.666666,4216.923076,4445.641025,4218.461538,4242.051282,4506.153846,4199.487179,4662.051282,4008.717948,4036.410256
39,4416.410256,4552.307692,4531.794871,4293.846153,4507.692307,4223.076923,4444.102564,4221.025641,4244.102564,4503.076923,4193.846153,4661.025641,4011.282051,4035.384615
40,4426.153846,4557.435897,4540.000000,4293.846153,4507.179487,4231.282051,4453.333333,4231.282051,4250.256410,4508.717948,4201.538461,4669.743589,4013.846153,4046.666666
41,4427.692307,4557.435897,4543.076923,4295.384615,4507.692307,4229.743589,4454.358974,4233.333333,4249.230769,4509.230769,4203.076923,4672.307692,4018.461538,4051.282051
42,4427.179487,4552.820512,4543.589743,4299.487179,4510.256410,4226.666666,4451.282051,4230.769230,4247.692307,4504.615384,4200.512820,4669.230769,4018.974358,4044.615384
43,4431.794871,4556.923076,4547.179487,4300.000000,4510.769230,4231.794871,4455.897435,4234.358974,4255.897435,4512.820512,4209.743589,4674.871794,4024.102564,4047.692307
44,4434.871794,4562.051282,4546.666666,4297.948717,4507.692307,4230.256410,4452.820512,4233.846153,4260.000000,4522.051282,4208.205128,4679.487179,4030.769230,4061.538461
45,4436.923076,4558.461538,4542.564102,4298.461538,4507.179487,4219.487179,4444.102564,4229.743589,4255.384615,4521.025641,4202.051282,4674.871794,4025.641025,4063.589743
46,4436.410256,4556.410256,4543.589743,4300.000000,4509.230769,4220.512820,4449.743589,4234.871794,4257.435897,4521.025641,4216.923076,4674.358974,4025.641025,4054.358974
47,4434.358974,4555.897435,4545.641025,4298.974358,4508.205128,4229.743589,4458.461538,4242.564102,4264.615384,4515.897435,4221.025641,4680.000000,4032.820512,4050.256410
48,4431.282051,4551.794871,4538.461538,4296.410256,4506.666666,4232.307692,4458.461538,4245.128205,4263.589743,4510.769230,4201.538461,4675.897435,4026.153846,4051.282051
49,4429.743589,4551.282051,4535.384615,4294.358974,4508.205128,4228.205128,4457.435897,4246.153846,4261.025641,4519.487179,4199.487179,4668.717948,4014.871794,4049.230769
50,4434.871794,4555.897435,4543.589743,4296.923076,4510.769230,4227.692307,4456.410256,4244.615384,4266.153846,4527.692307,4217.435897,4672.307692,4018.461538,4048.205128
51,4437.435897,4554.358974,4548.205128,4302.564102,4508.717948,4227.692307,4457.435897,4236.410256,4264.102564,4523.076923,4215.897435,4674.358974,4024.102564,4049.743589
52,4436.410256,4550.256410,4544.615384,4305.641025,4505.128205,4223.076923,4457.948717,4230.256410,4255.384615,4520.512820,4202.051282,4673.846153,4018.461538,4050.256410
53,4437.948717,4554.358974,4545.128205,4305.128205,4506.153846,4217.435897,4456.410256,4232.307692,4255.897435,4522.051282,4207.179487,4675.897435,4012.307692,4052.820512
54,4440.512820,4558.974358,4548.717948,4301.025641,4508.717948,4216.410256,4455.384615,4240.000000,4262.051282,4520.512820,4220.000000,4679.487179,4017.948717,4060.512820
55,4438.974358,4556.410256,4548.205128,4295.897435,4508.205128,4220.512820,4456.923076,4247.692307,4266.666666,4523.589743,4213.846153,4681.538461,4026.153846,4058.461538
56,4436.410256,4554.358974,4545.641025,4296.923076,4508.205128,4220.000000,4458.461538,4247.692307,4265.641025,4526.666666,4198.974358,4676.410256,4015.384615,4044.615384
57,4432.307692,4552.820512,4542.564102,4298.461538,4508.717948,4216.923076,4458.461538,4245.641025,4260.512820,4520.000000,4200.512820,4668.205128,4003.076923,4043.589743
58,4427.692307,4550.256410,4543.076923,4300.000000,4507.179487,4218.974358,4458.461538,4247.692307,4258.461538,4515.897435,4205.641025,4669.743589,4008.717948,4051.794871
59,4430.256410,4552.820512,4547.692307,4305.641025,4506.153846,4221.538461,4461.025641,4248.717948,4258.461538,4516.923076,4201.025641,4673.846153,4011.282051,4048.205128
60,4429.743589,4553.846153,4546.666666,4305.641025,4506.153846,4223.589743,4463.076923,4248.205128,4254.871794,4511.794871,4198.974358,4669.743589,4004.102564,4042.564102
61,4426.666666,4548.205128,4541.025641,4300.000000,4505.641025,4228.205128,4461.025641,4249.230769,4255.384615,4508.717948,4201.025641,4667.179487,4002.564102,4040.512820
62,4429.230769,4549.230769,4540.512820,4297.435897,4506.153846,4231.794871,4464.615384,4247.692307,4262.564102,4516.410256,4201.025641,4670.769230,4005.641025,4035.384615
63,4431.282051,4556.410256,4546.153846,4296.923076,4507.692307,4231.794871,4471.282051,4247.692307,4266.666666,4524.615384,4204.102564,4673.333333,4007.692307,4040.000000
64,4425.128205,4550.769230,4547.179487,4295.384615,4506.153846,4230.769230,4467.179487,4247.692307,4265.128205,4521.538461,4204.102564,4671.282051,4014.358974,4049.743589
65,4415.897435,4538.461538,4538.974358,4293.333333,4497.948717,4223.076923,4459.487179,4241.025641,4255.384615,4511.794871,4193.333333,4666.153846,4012.820512,4041.538461
66,4412.820512,4538.461538,4533.333333,4291.794871,4492.307692,4215.384615,4458.974358,4232.820512,4250.256410,4504.615384,4191.794871,4662.564102,3995.384616,4031.282051
67,4413.333333,4539.487179,4534.871794,4290.769230,4491.282051,4215.897435,4457.948717,4233.333333,4253.333333,4499.487179,4199.487179,4662.051282,3985.128206,4037.435897
68,4416.923076,4538.461538,4535.384615,4290.256410,4493.333333,4217.948717,4457.435897,4237.435897,4254.358974,4500.000000,4191.794871,4662.564102,3987.179488,4037.435897
69,4424.615384,4540.512820,4533.846153,4289.230769,4498.974358,4217.948717,4460.000000,4235.897435,4253.846153,4505.128205,4185.128205,4663.076923,3996.410257,4030.256410
70,4429.743589,4544.615384,4533.846153,4292.820512,4506.153846,4218.461538,4457.435897,4231.794871,4255.384615,4510.256410,4191.282051,4664.102564,4002.051282,4036.923076
71,4428.205128,4548.205128,4539.487179,4298.974358,4508.717948,4218.461538,4455.384615,4231.282051,4249.230769,4508.205128,4198.974358,4666.666666,4003.076923,4046.153846
72,4421.538461,4545.641025,4543.589743,4297.948717,4499.487179,4216.410256,4455.384615,4231.282051,4246.153846,4504.615384,4197.948717,4665.641025,3997.948718,4041.538461
73,4418.461538,4536.923076,4543.076923,4293.333333,4491.794871,4216.410256,4453.333333,4232.307692,4260.512820,4505.641025,4190.769230,4665.128205,3994.358975,4033.846153
74,4420.512820,4535.897435,4541.025641,4293.333333,4495.384615,4216.923076,4454.871794,4234.358974,4268.717948,4507.692307,4191.282051,4668.717948,3997.948718,4034.358974
75,4417.948717,4544.615384,4539.487179,4295.384615,4497.948717,4216.923076,4457.435897,4235.384615,4258.974358,4508.717948,4200.512820,4667.692307,3995.897436,4037.435897
76,4410.769230,4544.102564,4541.538461,4294.871794,4496.410256,4216.410256,4456.923076,4237.435897,4254.871794,4508.717948,4203.076923,4663.076923,3991.794872,4039.487179
77,4407.692307,4537.948717,4545.128205,4294.358974,4498.461538,4218.974358,4460.000000,4238.461538,4262.051282,4510.769230,4196.923076,4666.666666,3993.846154,4038.461538
78,4403.076923,4540.000000,4538.974358,4290.256410,4497.435897,4218.974358,4458.974358,4231.794871,4258.974358,4506.666666,4191.282051,4667.692307,3994.871795,4032.820512
79,4395.384615,4539.487179,4531.794871,4284.615384,4489.743589,4214.871794,4449.743589,4226.666666,4245.641025,4498.974358,4189.230769,4662.564102,3992.820513,4031.282051
80,4395.897435,4537.435897,4543.076923,4290.769230,4489.230769,4215.384615,4451.794871,4231.794871,4247.179487,4503.076923,4197.948717,4667.179487,3995.384616,4034.871794
81,4395.897435,4537.435897,4547.179487,4295.384615,4492.307692,4217.435897,4458.461538,4235.384615,4254.358974,4509.230769,4201.538461,4669.743589,3996.410257,4036.410256
82,4394.358974,4538.461538,4532.307692,4286.666666,4490.256410,4216.410256,4456.410256,4231.794871,4250.256410,4503.589743,4187.692307,4660.512820,3987.692308,4035.384615
83,4396.410256,4539.487179,4528.717948,4280.512820,4491.282051,4217.435897,4456.410256,4230.769230,4246.153846,4501.025641,4182.051282,4657.948717,3986.666667,4035.897435
84,4398.974358,4540.000000,4536.410256,4286.666666,4493.333333,4219.487179,4457.948717,4230.769230,4255.384615,4508.205128,4193.846153,4663.589743,3994.871795,4038.461538
85,4395.384615,4540.512820,4532.307692,4291.794871,4493.333333,4216.410256,4455.384615,4228.717948,4261.025641,4502.564102,4199.487179,4663.589743,3995.384616,4038.461538
86,4394.358974,4541.538461,4529.743589,4290.769230,4491.794871,4216.410256,4454.871794,4229.743589,4252.820512,4495.384615,4193.333333,4661.538461,3992.307693,4035.384615
87,4398.974358,4541.538461,4540.000000,4291.794871,4490.769230,4219.487179,4454.871794,4232.820512,4252.820512,4508.717948,4190.769230,4663.589743,4000.512820,4032.307692
88,4398.461538,4537.435897,4540.512820,4293.846153,4491.794871,4218.461538,4449.230769,4233.846153,4261.025641,4516.923076,4198.974358,4664.102564,4003.076923,4033.333333
89,4394.871794,4543.076923,4533.846153,4294.358974,4490.769230,4215.384615,4446.666666,4233.846153,4261.538461,4507.179487,4206.666666,4665.128205,3990.769231,4039.487179
90,4394.358974,4552.307692,4536.923076,4295.384615,4491.282051,4216.410256,4454.358974,4233.333333,4261.538461,4504.615384,4205.128205,4666.666666,3988.717949,4044.615384
91,4393.846153,4547.179487,4538.974358,4294.871794,4492.307692,4217.948717,4457.435897,4230.769230,4265.641025,4513.333333,4203.589743,4666.666666,4002.051282,4038.461538
92,4387.692307,4536.923076,4533.333333,4293.333333,4492.307692,4216.410256,4448.717948,4228.205128,4263.076923,4510.769230,4197.948717,4663.589743,4003.589743,4027.179487
93,4383.589743,4534.871794,4531.282051,4293.333333,4491.794871,4215.897435,4447.692307,4229.743589,4258.461538,4504.615384,4190.256410,4660.512820,3990.256411,4028.205128
94,4387.692307,4538.974358,4531.282051,4291.282051,4491.282051,4215.897435,4455.897435,4232.820512,4264.615384,4514.358974,4197.435897,4661.025641,3985.641026,4036.410256
95,4385.641025,4544.102564,4530.256410,4284.615384,4489.743589,4215.897435,4453.846153,4232.820512,4269.230769,4524.615384,4200.512820,4659.487179,3992.820513,4038.974358
96,4375.384615,4542.051282,4530.769230,4285.641025,4490.769230,4215.384615,4445.641025,4229.743589,4264.615384,4515.384615,4187.179487,4652.820512,3993.846154,4030.256410
97,4374.358974,4542.051282,4529.230769,4293.846153,4494.358974,4216.410256,4450.256410,4229.230769,4260.000000,4502.051282,4185.641025,4650.256410,3990.256411,4024.102564
98,4383.589743,4548.717948,4532.307692,4296.410256,4493.333333,4219.487179,4458.461538,4233.333333,4263.589743,4508.205128,4194.871794,4657.435897,3988.717949,4036.410256
99,4382.051282,4555.384615,4536.923076,4296.410256,4493.846153,4220.000000,4459.487179,4234.871794,4267.692307,4515.897435,4197.435897,4660.512820,3989.743590,4046.153846
100,4375.897435,4553.846153,4534.358974,4297.948717,4500.512820,4218.461538,4457.948717,4233.333333,4263.589743,4510.769230,4197.948717,4656.410256,3994.871795,4040.000000
101,4374.871794,4545.641025,4531.282051,4296.923076,4500.000000,4217.435897,4452.307692,4232.307692,4260.000000,4506.666666,4191.794871,4653.846153,3998.974359,4032.307692
102,4368.205128,4541.538461,4530.769230,4292.820512,4493.846153,4215.897435,4445.128205,4225.641025,4256.410256,4506.153846,4185.641025,4651.794871,3992.307693,4029.743589
103,4361.025641,4546.666666,4529.743589,4291.794871,4490.256410,4215.384615,4447.692307,4216.923076,4249.230769,4502.564102,4195.384615,4652.307692,3984.102565,4030.256410
104,4366.153846,4554.358974,4532.820512,4294.358974,4493.846153,4216.923076,4457.435897,4223.589743,4254.358974,4504.102564,4200.000000,4660.000000,3985.641026,4040.512820
105,4366.666666,4553.846153,4534.358974,4295.384615,4498.461538,4217.948717,4454.871794,4231.282051,4263.076923,4508.717948,4187.692307,4662.564102,3988.205129,4039.487179
106,4355.384615,4550.769230,4529.230769,4295.897435,4496.410256,4217.948717,4447.179487,4222.051282,4253.846153,4505.128205,4184.102564,4655.384615,3985.641026,4023.589743
107,4350.769230,4549.743589,4528.717948,4298.461538,4491.282051,4219.487179,4447.179487,4214.871794,4244.102564,4504.615384,4194.871794,4656.410256,3990.256411,4029.743589
108,4355.384615,4554.871794,4532.820512,4292.307692,4492.820512,4217.948717,4446.666666,4218.974358,4249.230769,4510.256410,4200.000000,4663.589743,3998.461539,4047.692307
109,4352.307692,4555.897435,4529.230769,4281.538461,4495.384615,4213.846153,4443.589743,4217.435897,4250.769230,4506.666666,4191.282051,4657.948717,3994.871795,4038.461538
110,4343.589743,4542.564102,4525.128205,4285.128205,4491.794871,4214.358974,4443.589743,4213.846153,4245.128205,4498.461538,4181.538461,4649.230769,3981.538462,4017.948717
111,4345.128205,4541.025641,4530.769230,4294.871794,4492.307692,4218.461538,4444.615384,4217.948717,4248.205128,4500.512820,4187.179487,4649.743589,3979.487180,4020.512820
112,4347.692307,4552.307692,4530.769230,4292.307692,4495.384615,4217.948717,4444.615384,4220.000000,4251.794871,4507.179487,4187.692307,4650.769230,3986.666667,4029.743589
113,4338.461538,4549.230769,4518.974358,4284.102564,4493.846153,4215.384615,4444.615384,4214.358974,4244.615384,4504.102564,4170.256410,4642.564102,3982.564103,4024.615384
114,4329.230769,4537.435897,4511.794871,4279.487179,4492.307692,4214.358974,4443.076923,4210.769230,4235.897435,4492.307692,4162.051282,4633.846153,3965.128206,4013.333333
115,4328.717948,4534.871794,4514.871794,4278.461538,4490.769230,4213.333333,4441.538461,4211.282051,4239.487179,4483.589743,4170.256410,4636.923076,3957.948718,4009.230769
116,4338.974358,4543.589743,4522.564102,4286.153846,4488.205128,4213.846153,4443.589743,4222.564102,4248.205128,4495.384615,4182.564102,4649.743589,3976.923077,4020.000000
117,4352.820512,4554.358974,4531.794871,4293.333333,4495.384615,4217.435897,4447.179487,4232.820512,4254.358974,4510.769230,4194.871794,4657.948717,3994.871795,4033.846153
118,4354.871794,4555.384615,4531.282051,4291.282051,4500.000000,4217.435897,4445.641025,4223.076923,4255.384615,4506.153846,4193.333333,4653.333333,3986.666667,4031.794871
119,4351.282051,4548.717948,4526.153846,4291.282051,4494.358974,4215.384615,4444.615384,4216.410256,4254.358974,4505.641025,4188.205128,4651.282051,3980.512821,4027.179487
120,4361.538461,4558.461538,4535.897435,4297.435897,4496.923076,4223.589743,4454.871794,4229.743589,4261.538461,4523.076923,4196.410256,4661.025641,3994.871795,4037.435897
121,4370.769230,4570.256410,4543.589743,4297.948717,4507.179487,4231.282051,4462.051282,4239.487179,4266.153846,4528.205128,4202.564102,4668.205128,4002.564102,4046.666666
122,4361.025641,4558.974358,4536.410256,4293.846153,4508.205128,4225.641025,4457.948717,4232.820512,4261.538461,4519.487179,4197.948717,4665.128205,3995.384616,4044.615384
123,4356.410256,4551.794871,4534.871794,4294.358974,4502.051282,4217.948717,4453.333333,4229.743589,4257.948717,4519.487179,4197.435897,4663.076923,3992.820513,4033.333333
124,4360.000000,4554.871794,4535.384615,4291.282051,4495.897435,4216.410256,4450.256410,4232.820512,4259.487179,4517.948717,4194.871794,4660.512820,3992.820513,4026.666666
125,4354.358974,4545.641025,4528.205128,4286.666666,4492.307692,4216.410256,4444.615384,4230.769230,4256.410256,4510.769230,4186.153846,4654.871794,3991.282052,4033.846153
126,4352.307692,4534.358974,4527.179487,4283.589743,4491.282051,4211.282051,4442.564102,4223.589743,4251.282051,4508.717948,4182.051282,4654.358974,3991.282052,4040.000000
127,4360.512820,4542.564102,4531.282051,4283.589743,4491.282051,4208.205128,4442.051282,4214.358974,4246.666666,4505.128205,4185.128205,4655.384615,3989.230770,4036.923076
128,4360.512820,4554.358974,4530.256410,4289.230769,4496.410256,4213.846153,4442.564102,4217.948717,4246.153846,4502.564102,4190.256410,4652.307692,3983.589744,4030.769230
129,4359.487179,4556.923076,4530.769230,4296.410256,4505.128205,4220.512820,4451.282051,4229.230769,4250.769230,4510.256410,4191.794871,4656.410256,3984.102565,4028.205128
130,4369.743589,4556.923076,4534.871794,4298.974358,4506.666666,4220.000000,4458.974358,4233.333333,4250.769230,4512.820512,4191.794871,4664.615384,3990.769231,4033.846153
131,4375.384615,4554.871794,4539.487179,4296.410256,4504.615384,4218.974358,4458.461538,4231.794871,4251.282051,4505.641025,4195.897435,4665.641025,3995.384616,4042.051282
132,4370.769230,4551.794871,4541.538461,4294.358974,4505.128205,4219.487179,4456.923076,4232.307692,4261.538461,4509.743589,4198.974358,4664.615384,3989.743590,4041.025641
133,4370.769230,4553.333333,4543.589743,4294.358974,4505.128205,4215.897435,4457.435897,4233.846153,4266.666666,4524.102564,4200.512820,4667.179487,3984.615385,4038.974358
134,4376.923076,4557.435897,4545.128205,4296.923076,4506.153846,4215.384615,4451.794871,4232.307692,4257.435897,4522.051282,4203.589743,4667.179487,3994.871795,4044.102564
135,4371.282051,4556.923076,4542.564102,4293.333333,4505.641025,4216.410256,4445.128205,4231.282051,4252.820512,4513.333333,4204.102564,4663.589743,4003.076923,4045.128205
136,4356.410256,4552.820512,4537.948717,4282.051282,4502.564102,4216.923076,4446.153846,4233.333333,4257.948717,4513.846153,4197.948717,4658.461538,3992.820513,4039.487179
137,4345.641025,4551.794871,4532.820512,4278.974358,4507.179487,4218.461538,4447.692307,4231.282051,4255.897435,4515.384615,4191.794871,4654.871794,3987.179488,4030.769230
138,4341.538461,4552.307692,4528.717948,4282.051282,4503.589743,4216.410256,4444.615384,4224.615384,4248.717948,4514.358974,4187.179487,4652.820512,3996.923077,4024.102564
139,4342.051282,4550.769230,4530.256410,4283.589743,4491.794871,4212.307692,4443.589743,4223.076923,4246.666666,4508.717948,4183.076923,4653.846153,4002.564102,4033.333333
140,4344.615384,4556.923076,4534.358974,4290.769230,4497.948717,4217.948717,4448.717948,4228.205128,4249.743589,4508.717948,4189.230769,4657.948717,4006.153846,4045.641025
141,4343.076923,4565.128205,4533.846153,4295.384615,4510.769230,4226.666666,4451.282051,4230.256410,4249.230769,4516.410256,4197.435897,4658.461538,4016.923076,4046.153846
142,4335.897435,4559.487179,4531.794871,4286.153846,4508.205128,4223.589743,4451.794871,4229.230769,4250.256410,4514.358974,4191.794871,4653.333333,4022.564102,4037.435897
143,4330.769230,4551.282051,4531.794871,4279.487179,4503.076923,4217.948717,4456.410256,4232.307692,4256.410256,4511.794871,4189.743589,4651.794871,4023.589743,4032.820512
144,4331.282051,4551.794871,4531.282051,4282.051282,4501.538461,4220.000000,4461.025641,4231.794871,4257.948717,4519.487179,4200.000000,4657.435897,4025.128205,4041.538461
145,4324.615384,4546.666666,4530.769230,4281.025641,4494.871794,4220.512820,4457.435897,4230.769230,4252.307692,4517.435897,4195.384615,4652.820512,4013.846153,4042.051282
146,4310.256410,4536.923076,4529.230769,4277.948717,4491.794871,4216.923076,4449.230769,4232.307692,4248.205128,4504.102564,4180.000000,4643.589743,3998.461539,4024.615384
147,4306.153846,4542.051282,4526.666666,4278.974358,4494.358974,4216.923076,4444.102564,4225.641025,4244.615384,4504.615384,4180.512820,4645.641025,4006.666666,4017.435897
148,4310.769230,4550.769230,4529.230769,4281.025641,4492.820512,4217.948717,4442.051282,4215.384615,4240.000000,4508.205128,4190.256410,4648.205128,4025.128205,4033.846153
149,4308.205128,4543.076923,4530.769230,4276.410256,4492.307692,4215.897435,4442.564102,4216.410256,4240.512820,4505.641025,4196.923076,4650.256410,4030.769230,4044.615384
150,4303.589743,4540.512820,4531.794871,4272.820512,4493.846153,4215.897435,4447.692307,4230.256410,4243.076923,4509.230769,4203.076923,4660.000000,4032.307692,4044.102564
151,4307.179487,4550.769230,4539.487179,4276.410256,4492.820512,4217.435897,4450.769230,4234.871794,4246.153846,4510.769230,4203.076923,4666.153846,4036.923076,4045.641025
152,4310.769230,4549.230769,4541.538461,4281.025641,4491.794871,4215.897435,4445.641025,4224.102564,4248.717948,4506.153846,4195.897435,4660.512820,4031.282051,4041.538461
153,4306.153846,4540.000000,4532.820512,4278.974358,4491.794871,4213.846153,4442.051282,4220.000000,4246.153846,4510.256410,4187.179487,4658.974358,4020.512820,4037.948717
154,4298.461538,4538.974358,4528.205128,4277.948717,4491.794871,4214.871794,4446.153846,4225.641025,4247.179487,4517.435897,4182.564102,4658.974358,4021.025641,4040.000000
155,4292.820512,4540.512820,4529.743589,4281.025641,4492.820512,4216.923076,4448.717948,4227.179487,4250.769230,4512.820512,4190.256410,4654.358974,4025.641025,4042.051282
156,4295.897435,4543.076923,4531.282051,4280.000000,4496.410256,4215.897435,4446.153846,4225.128205,4243.589743,4503.589743,4198.461538,4654.871794,4023.589743,4038.461538
157,4304.102564,4551.282051,4535.384615,4282.564102,4500.512820,4216.410256,4444.615384,4229.743589,4241.538461,4506.153846,4203.076923,4663.076923,4023.589743,4038.461538
158,4313.333333,4556.410256,4545.641025,4290.769230,4507.692307,4218.461538,4447.179487,4235.384615,4250.769230,4518.974358,4211.282051,4670.256410,4036.410256,4050.769230
159,4315.384615,4555.897435,4547.692307,4288.205128,4505.128205,4217.948717,4446.153846,4233.846153,4251.282051,4522.051282,4211.282051,4671.282051,4044.102564,4061.025641
160,4303.589743,4551.794871,4536.923076,4278.461538,4495.384615,4215.384615,4441.538461,4230.256410,4248.717948,4516.923076,4201.538461,4664.615384,4032.820512,4051.794871
161,4290.769230,4548.205128,4530.769230,4278.461538,4500.000000,4215.384615,4444.102564,4230.256410,4255.384615,4517.948717,4200.512820,4657.435897,4022.051282,4039.487179
162,4289.230769,4552.307692,4534.871794,4284.102564,4503.589743,4216.923076,4447.692307,4231.794871,4256.410256,4516.410256,4197.435897,4657.948717,4022.051282,4043.076923
163,4286.153846,4551.282051,4533.333333,4281.025641,4495.384615,4215.897435,4444.615384,4228.205128,4247.179487,4507.692307,4184.102564,4658.461538,4020.000000,4045.641025
164,4279.487179,4541.025641,4529.230769,4276.410256,4494.871794,4215.384615,4450.769230,4229.743589,4246.153846,4507.692307,4189.230769,4654.871794,4014.358974,4044.102564
165,4283.076923,4536.923076,4532.307692,4276.410256,4500.512820,4216.923076,4456.410256,4230.769230,4250.256410,4510.769230,4200.512820,4654.358974,4013.846153,4043.589743
166,4291.794871,4544.615384,4535.384615,4277.948717,4495.384615,4215.897435,4449.743589,4222.564102,4247.179487,4510.256410,4194.871794,4656.410256,4016.410256,4040.000000
167,4294.358974,4547.692307,4532.307692,4276.923076,4490.256410,4215.384615,4442.564102,4220.512820,4246.153846,4513.846153,4190.769230,4655.384615,4018.461538,4040.512820
168,4291.794871,4545.128205,4532.820512,4277.435897,4494.358974,4215.897435,4444.615384,4229.230769,4250.256410,4519.487179,4196.410256,4654.871794,4020.000000,4044.615384
169,4293.333333,4549.743589,4538.974358,4286.666666,4503.076923,4216.410256,4450.769230,4232.307692,4252.820512,4517.435897,4201.025641,4661.538461,4017.435897,4046.153846
170,4303.589743,4555.897435,4547.179487,4296.923076,4510.256410,4223.589743,4458.974358,4233.333333,4253.846153,4512.820512,4203.589743,4670.769230,4018.461538,4047.692307
171,4309.230769,4558.974358,4551.282051,4301.025641,4509.230769,4231.282051,4464.102564,4240.512820,4256.410256,4514.358974,4207.692307,4673.846153,4025.128205,4052.820512
172,4302.564102,4555.384615,4548.717948,4297.948717,4504.102564,4225.641025,4458.974358,4241.025641,4257.948717,4521.025641,4214.358974,4672.307692,4027.179487,4053.333333
173,4294.358974,4543.589743,4543.076923,4288.205128,4498.461538,4216.410256,4450.769230,4234.871794,4260.512820,4526.666666,4216.410256,4669.230769,4022.564102,4049.230769
174,4295.897435,4535.384615,4541.025641,4280.512820,4493.333333,4215.897435,4445.641025,4232.307692,4262.564102,4518.461538,4207.692307,4661.025641,4016.410256,4043.076923
175,4301.538461,4548.205128,4540.512820,4281.025641,4493.846153,4217.948717,4447.692307,4232.820512,4256.410256,4510.256410,4200.512820,4655.384615,4010.256410,4036.923076
176,4299.487179,4555.897435,4537.435897,4282.564102,4493.846153,4217.435897,4449.230769,4233.333333,4249.743589,4514.358974,4198.461538,4657.435897,4004.102564,4033.846153
177,4294.358974,4542.051282,4534.871794,4279.487179,4489.743589,4216.923076,4444.615384,4232.307692,4246.666666,4513.846153,4197.948717,4656.410256,4003.589743,4034.358974
178,4299.487179,4535.384615,4538.461538,4279.487179,4490.769230,4217.435897,4443.589743,4232.307692,4247.692307,4510.769230,4205.128205,4656.410256,4011.282051,4042.564102
179,4310.256410,4541.025641,4541.025641,4278.974358,4493.333333,4215.897435,4445.128205,4232.307692,4251.794871,4516.410256,4206.153846,4660.512820,4015.897435,4043.076923
180,4313.846153,4538.974358,4538.461538,4277.435897,4489.743589,4213.333333,4443.076923,4229.743589,4254.871794,4522.051282,4197.948717,4660.000000,4013.846153,4033.333333
181,4324.102564,4540.000000,4542.564102,4284.615384,4490.256410,4215.384615,4440.512820,4230.256410,4256.923076,4520.512820,4205.128205,4660.000000,4017.948717,4040.000000
182,4339.487179,4551.282051,4550.256410,4293.333333,4499.487179,4217.948717,4446.666666,4237.948717,4262.564102,4527.179487,4220.512820,4667.692307,4026.153846,4055.897435
183,4343.589743,4557.435897,4553.333333,4295.897435,4505.641025,4221.025641,4456.923076,4244.615384,4268.205128,4534.358974,4220.000000,4671.794871,4026.666666,4056.923076
184,4341.025641,4557.948717,4553.333333,4296.410256,4507.179487,4228.205128,4461.025641,4249.230769,4267.179487,4530.769230,4222.564102,4671.794871,4025.641025,4049.230769
185,4338.461538,4552.307692,4545.128205,4292.820512,4504.102564,4225.641025,4453.846153,4248.205128,4266.153846,4525.641025,4226.153846,4669.230769,4024.102564,4045.641025
186,4334.871794,4538.461538,4534.871794,4281.025641,4493.846153,4214.871794,4443.076923,4238.974358,4262.051282,4520.000000,4210.769230,4658.461538,4016.923076,4045.641025
187,4337.948717,4540.512820,4538.461538,4274.871794,4486.153846,4215.384615,4446.153846,4237.948717,4257.948717,4518.461538,4197.435897,4652.820512,4011.794871,4049.743589
188,4346.666666,4555.897435,4547.179487,4282.564102,4491.282051,4222.564102,4456.410256,4245.128205,4262.051282,4521.025641,4203.076923,4658.974358,4014.358974,4048.717948
189,4351.282051,4556.923076,4545.641025,4288.205128,4503.076923,4221.025641,4455.384615,4243.076923,4264.615384,4521.538461,4210.769230,4663.589743,4017.948717,4044.102564
190,4351.794871,4549.230769,4545.128205,4284.615384,4502.564102,4218.461538,4452.820512,4235.384615,4261.538461,4520.512820,4212.820512,4664.615384,4017.948717,4045.128205
191,4353.333333,4551.282051,4546.666666,4280.000000,4497.435897,4220.512820,4458.974358,4235.384615,4260.000000,4520.512820,4208.717948,4664.102564,4012.307692,4046.666666
192,4355.897435,4553.333333,4543.589743,4280.512820,4497.948717,4219.487179,4455.897435,4235.897435,4260.512820,4518.974358,4196.923076,4660.000000,4006.153846,4045.128205
193,4361.538461,4554.358974,4545.128205,4285.641025,4505.128205,4218.974358,4450.256410,4233.846153,4258.461538,4522.564102,4199.487179,4660.512820,4013.333333,4044.615384
194,4366.153846,4555.897435,4548.717948,4288.205128,4507.692307,4220.512820,4452.820512,4233.846153,4253.333333,4522.051282,4208.205128,4666.153846,4019.487179,4043.589743
195,4361.538461,4551.282051,4548.205128,4286.666666,4496.923076,4218.974358,4449.743589,4231.282051,4250.256410,4510.256410,4204.102564,4663.589743,4012.307692,4045.641025
196,4356.410256,4549.743589,4548.717948,4283.076923,4492.307692,4214.871794,4443.589743,4231.282051,4256.923076,4509.230769,4201.538461,4660.000000,4007.692307,4049.743589
197,4357.435897,4552.820512,4548.205128,4280.000000,4502.051282,4215.384615,4445.641025,4233.333333,4265.641025,4522.564102,4200.000000,4660.512820,4010.256410,4041.538461
198,4357.948717,4552.820512,4545.641025,4284.102564,4508.205128,4216.923076,4451.794871,4236.410256,4262.564102,4525.641025,4200.000000,4660.512820,4011.282051,4035.897435
199,4358.461538,4551.282051,4548.205128,4295.384615,4505.641025,4218.974358,4455.384615,4241.538461,4260.512820,4521.025641,4208.205128,4666.153846,4011.794871,4051.794871
200,4357.948717,4553.333333,4549.743589,4295.384615,4501.025641,4215.897435,4450.256410,4240.000000,4260.000000,4521.538461,4213.333333,4670.769230,4010.769230,4058.974358
201,4350.769230,4553.846153,4544.615384,4284.102564,4496.410256,4210.256410,4443.589743,4231.282051,4254.871794,4523.589743,4206.153846,4662.564102,4006.153846,4040.512820
202,4350.769230,4551.794871,4543.076923,4284.615384,4496.923076,4210.769230,4445.128205,4228.205128,4253.333333,4521.025641,4198.461538,4658.461538,4005.641025,4032.307692
203,4357.435897,4550.256410,4545.128205,4290.769230,4500.512820,4211.282051,4446.153846,4231.794871,4252.820512,4512.307692,4198.461538,4665.641025,4008.717948,4042.564102
204,4357.435897,4552.820512,4546.153846,4291.282051,4500.512820,4210.769230,4441.538461,4232.307692,4253.333333,4510.769230,4206.153846,4667.692307,4011.282051,4049.743589
205,4355.384615,4561.025641,4546.666666,4291.794871,4502.051282,4213.333333,4442.051282,4232.820512,4259.487179,4520.512820,4215.897435,4663.076923,4011.794871,4051.794871
206,4353.333333,4553.846153,4541.025641,4286.153846,4499.487179,4209.743589,4443.589743,4232.820512,4256.923076,4517.435897,4207.692307,4655.897435,3997.435898,4043.076923
207,4349.743589,4540.000000,4537.948717,4281.538461,4489.230769,4200.512820,4443.589743,4228.205128,4246.153846,4504.102564,4192.820512,4651.794871,3985.641026,4031.282051
208,4355.384615,4544.615384,4541.538461,4285.128205,4489.230769,4200.512820,4442.564102,4224.615384,4248.205128,4505.128205,4198.974358,4653.846153,3995.384616,4034.871794
209,4360.000000,4550.769230,4538.461538,4284.102564,4493.846153,4203.589743,4441.025641,4220.512820,4253.333333,4511.794871,4206.666666,4655.384615,3997.948718,4038.974358
210,4349.743589,4539.487179,4529.230769,4277.948717,4491.282051,4200.000000,4440.000000,4217.435897,4245.128205,4506.666666,4194.358974,4649.230769,3984.615385,4029.230769
211,4345.641025,4533.333333,4528.205128,4276.923076,4488.205128,4199.487179,4442.051282,4222.564102,4245.641025,4502.051282,4187.692307,4647.179487,3986.666667,4026.153846
212,4353.333333,4549.230769,4535.384615,4283.589743,4495.384615,4207.692307,4445.641025,4231.282051,4257.948717,4510.769230,4202.051282,4654.358974,4001.538461,4037.435897
213,4353.333333,4555.897435,4538.461538,4290.256410,4502.564102,4211.282051,4446.666666,4233.333333,4256.923076,4518.974358,4205.128205,4657.435897,4002.564102,4043.589743
214,4343.589743,4543.589743,4532.820512,4288.205128,4499.487179,4205.641025,4444.615384,4230.769230,4246.153846,4510.256410,4192.307692,4650.769230,3992.307693,4037.948717
215,4337.435897,4540.512820,4528.717948,4282.051282,4492.820512,4200.000000,4443.076923,4229.230769,4248.717948,4502.564102,4191.794871,4647.692307,3989.230770,4029.230769
216,4342.564102,4553.333333,4533.846153,4280.512820,4492.307692,4203.076923,4442.564102,4228.717948,4258.974358,4512.820512,4201.025641,4655.897435,3997.435898,4032.307692
217,4347.179487,4560.000000,4540.512820,4287.179487,4498.461538,4208.205128,4443.589743,4231.282051,4260.512820,4524.615384,4208.205128,4663.076923,4004.102564,4045.128205
218,4344.102564,4550.769230,4541.025641,4292.307692,4499.487179,4207.692307,4446.153846,4234.358974,4262.564102,4524.615384,4208.717948,4665.128205,4001.538461,4053.333333
219,4339.487179,4545.128205,4539.487179,4288.205128,4494.871794,4203.589743,4448.205128,4235.384615,4267.179487,4521.025641,4203.589743,4667.179487,3998.974359,4051.282051
220,4344.615384,4548.205128,4542.051282,4284.615384,4497.435897,4206.666666,4450.769230,4240.512820,4263.589743,4520.512820,4206.666666,4668.717948,4003.076923,4044.615384
221,4353.333333,4555.897435,4547.179487,4292.307692,4506.153846,4215.384615,4458.461538,4248.717948,4262.564102,4528.205128,4217.435897,4671.282051,4008.717948,4045.128205
222,4357.435897,4557.435897,4546.666666,4300.000000,4508.205128,4217.948717,4462.564102,4250.769230,4270.769230,4530.769230,4217.948717,4674.358974,4007.692307,4054.871794
223,4357.435897,4551.282051,4547.179487,4297.435897,4501.025641,4215.384615,4461.025641,4246.666666,4275.897435,4524.615384,4214.358974,4674.871794,4004.102564,4059.487179
224,4360.512820,4555.384615,4551.794871,4296.923076,4501.025641,4215.897435,4460.000000,4246.666666,4270.769230,4524.102564,4218.974358,4674.358974,4005.128205,4050.769230
225,4366.153846,4563.589743,4550.769230,4295.897435,4501.538461,4216.923076,4456.923076,4247.692307,4264.102564,4528.205128,4218.974358,4673.333333,4007.692307,4045.128205
226,4367.692307,4558.461538,4544.102564,4294.358974,4496.923076,4214.358974,4455.897435,4241.025641,4264.615384,4521.538461,4207.179487,4670.256410,4006.666666,4052.307692
227,4364.615384,4551.282051,4541.025641,4293.846153,4496.923076,4206.666666,4452.307692,4232.820512,4262.051282,4509.230769,4199.487179,4665.128205,3995.897436,4051.794871
228,4368.205128,4551.794871,4540.512820,4293.333333,4500.000000,4202.564102,4449.230769,4232.820512,4255.897435,4507.692307,4205.128205,4663.589743,3989.743590,4043.589743
229,4377.435897,4548.205128,4536.410256,4292.307692,4496.410256,4203.076923,4453.846153,4235.384615,4257.948717,4514.871794,4206.153846,4665.128205,3998.461539,4042.564102
230,4380.512820,4545.128205,4538.461538,4289.743589,4487.179487,4201.538461,4452.307692,4232.820512,4263.076923,4520.000000,4202.051282,4666.666666,4006.666666,4044.615384
231,4382.051282,4554.871794,4545.641025,4292.307692,4488.717948,4203.076923,4449.230769,4230.769230,4263.076923,4523.589743,4210.256410,4672.820512,4010.256410,4051.794871
232,4389.230769,4560.000000,4548.205128,4298.461538,4504.102564,4213.333333,4452.307692,4232.820512,4260.512820,4525.128205,4222.051282,4680.512820,4012.307692,4063.076923
233,4390.256410,4556.923076,4545.128205,4296.410256,4508.205128,4216.923076,4452.820512,4235.384615,4260.512820,4524.102564,4223.076923,4675.384615,4008.205128,4057.435897
234,4382.564102,4556.410256,4539.487179,4290.769230,4495.897435,4207.692307,4445.128205,4233.846153,4265.128205,4522.051282,4212.820512,4664.615384,4002.564102,4040.512820
235,4380.000000,4554.358974,4536.923076,4292.307692,4492.820512,4202.564102,4443.076923,4232.820512,4266.153846,4523.589743,4206.153846,4666.153846,4005.128205,4037.948717
236,4385.641025,4550.769230,4536.923076,4297.435897,4500.512820,4204.615384,4445.128205,4230.256410,4256.923076,4519.487179,4209.230769,4670.769230,4004.615384,4048.205128
237,4392.820512,4554.871794,4538.974358,4297.948717,4502.051282,4205.128205,4445.128205,4224.615384,4247.179487,4511.794871,4209.743589,4663.589743,3995.897436,4049.743589
238,4393.333333,4556.410256,4543.076923,4296.923076,4502.564102,4205.641025,4446.666666,4218.461538,4247.179487,4507.692307,4201.025641,4657.948717,3991.794872,4040.512820
239,4390.769230,4552.820512,4540.000000,4294.358974,4501.025641,4204.615384,4443.076923,4216.410256,4250.256410,4507.692307,4197.948717,4661.538461,3993.333334,4034.871794
240,4394.358974,4553.846153,4533.333333,4291.794871,4498.461538,4203.076923,4443.589743,4223.589743,4249.743589,4508.205128,4202.051282,4663.589743,4000.512820,4042.051282
241,4397.435897,4554.871794,4533.846153,4292.820512,4498.461538,4203.076923,4446.666666,4227.692307,4249.230769,4508.205128,4201.538461,4659.487179,4003.589743,4047.692307
242,4395.384615,4544.102564,4534.358974,4292.307692,4495.897435,4203.076923,4445.128205,4225.641025,4251.282051,4507.692307,4201.538461,4655.384615,3994.871795,4040.512820
243,4394.871794,4539.487179,4528.205128,4289.230769,4496.410256,4201.025641,4443.076923,4226.666666,4249.230769,4507.179487,4202.051282,4653.333333,3984.102565,4030.769230
244,4400.000000,4550.256410,4528.717948,4292.820512,4503.076923,4202.564102,4446.666666,4230.256410,4247.179487,4508.717948,4201.025641,4654.871794,3986.666667,4034.871794
245,4405.128205,4555.897435,4534.871794,4298.974358,4498.974358,4205.128205,4449.230769,4230.769230,4249.743589,4510.256410,4201.538461,4660.512820,3996.923077,4041.538461
246,4405.128205,4550.256410,4532.820512,4295.384615,4489.230769,4202.564102,4445.128205,4228.717948,4249.743589,4508.205128,4198.461538,4663.076923,3995.384616,4032.820512
247,4403.589743,4548.205128,4533.846153,4291.282051,4493.333333,4202.564102,4445.641025,4231.282051,4247.179487,4505.641025,4202.051282,4664.102564,3989.230770,4027.179487
248,4404.102564,4553.846153,4541.025641,4295.384615,4500.000000,4208.717948,4452.307692,4235.384615,4251.282051,4511.794871,4213.846153,4668.717948,3990.769231,4045.641025
249,4401.538461,4556.410256,4544.615384,4296.410256,4503.076923,4212.820512,4455.384615,4236.923076,4260.000000,4517.948717,4218.461538,4670.256410,3997.948718,4060.000000
250,4395.384615,4552.307692,4544.102564,4293.846153,4507.692307,4214.871794,4456.410256,4236.410256,4263.076923,4517.435897,4213.846153,4667.179487,4001.025641,4052.307692
251,4393.333333,4552.307692,4544.615384,4296.410256,4505.641025,4216.410256,4455.897435,4234.358974,4258.974358,4515.384615,4213.333333,4668.205128,3997.948718,4045.641025
252,4398.461538,4556.410256,4546.153846,4300.512820,4501.025641,4211.794871,4450.769230,4234.358974,4249.230769,4516.410256,4216.923076,4672.820512,4001.538461,4047.692307
253,4398.974358,4555.384615,4543.589743,4299.487179,4500.000000,4207.179487,4443.589743,4233.846153,4249.230769,4518.974358,4216.410256,4671.282051,4007.179487,4042.564102
254,4393.846153,4550.769230,4540.000000,4294.871794,4497.948717,4210.769230,4445.128205,4233.333333,4259.487179,4518.974358,4214.358974,4668.717948,4004.102564,4042.051282
255,4398.461538,4549.743589,4541.025641,4293.333333,4496.923076,4212.307692,4450.256410,4237.435897,4264.102564,4521.538461,4217.948717,4670.256410,4000.512820,4051.794871
256,4411.282051,4558.461538,4546.153846,4297.948717,4501.538461,4210.769230,4454.358974,4245.128205,4262.564102,4529.743589,4225.128205,4673.333333,4007.692307,4055.897435
257,4414.358974,4567.179487,4547.179487,4303.589743,4509.743589,4216.410256,4454.358974,4249.743589,4265.641025,4533.333333,4222.564102,4674.358974,4016.923076,4051.794871
258,4410.256410,4560.000000,4541.538461,4299.487179,4508.205128,4214.358974,4446.666666,4244.615384,4266.153846,4524.615384,4214.871794,4670.769230,4012.820512,4048.717948
259,4412.307692,4549.743589,4541.025641,4293.846153,4503.589743,4202.564102,4444.615384,4242.051282,4255.384615,4517.435897,4212.820512,4666.666666,4004.102564,4047.692307
