,AF3,F7,F3,FC5,T7,P7,O1,O2,P8,T8,FC6,F4,F8,AF4
0,4432.820512,4535.384615,4537.948717,4280.512820,4486.153846,4196.410256,4442.051282,4225.128205,4236.410256,4510.256410,4251.282051,4674.871794,4005.641025,4073.846153
1,4430.769230,4533.333333,4536.410256,4277.435897,4485.641025,4195.384615,4441.538461,4220.512820,4228.205128,4504.102564,4249.230769,4671.282051,4001.025641,4073.333333
2,4438.974358,4535.897435,4540.512820,4280.512820,4497.435897,4199.487179,4446.666666,4229.743589,4235.897435,4509.743589,4256.410256,4681.025641,4003.589743,4082.051282
3,4436.923076,4532.307692,4539.487179,4276.923076,4497.948717,4201.025641,4446.153846,4235.897435,4241.025641,4515.897435,4256.923076,4678.974358,4002.051282,4078.974358
4,4426.153846,4528.717948,4534.358974,4270.256410,4490.256410,4196.923076,4442.051282,4231.282051,4232.307692,4509.230769,4251.282051,4667.692307,3992.307693,4068.205128
5,4424.615384,4529.230769,4534.358974,4271.282051,4488.205128,4196.410256,4444.615384,4224.615384,4228.717948,4502.564102,4251.794871,4670.769230,3986.666667,4069.230769
6,4426.666666,4524.102564,4530.256410,4271.794871,4487.179487,4201.025641,4444.615384,4226.666666,4228.205128,4503.076923,4253.333333,4671.794871,3983.589744,4068.205128
7,4421.538461,4518.461538,4525.641025,4267.179487,4485.641025,4198.974358,4440.000000,4228.205128,4226.666666,4503.589743,4246.153846,4664.615384,3986.153847,4059.487179
8,4418.461538,4521.538461,4532.820512,4267.179487,4488.205128,4195.897435,4440.512820,4224.102564,4231.282051,4501.538461,4241.025641,4667.692307,3993.846154,4061.538461
9,4421.538461,4522.564102,4539.487179,4270.256410,4488.717948,4195.384615,4443.589743,4223.076923,4232.820512,4498.461538,4244.615384,4673.846153,3991.794872,4068.717948
10,4425.641025,4521.025641,4535.384615,4268.717948,4485.641025,4193.846153,4441.025641,4225.128205,4228.205128,4500.512820,4248.717948,4670.256410,3986.666667,4066.666666
11,4430.256410,4524.102564,4533.846153,4270.769230,4491.794871,4195.897435,4440.512820,4227.692307,4231.794871,4511.282051,4253.333333,4669.743589,3992.820513,4066.666666
12,4430.769230,4525.128205,4538.974358,4273.846153,4500.512820,4197.948717,4443.589743,4231.282051,4240.000000,4513.846153,4256.923076,4672.820512,4000.512820,4071.282051
13,4425.641025,4519.487179,4535.384615,4271.282051,4495.897435,4191.282051,4438.974358,4227.179487,4238.974358,4504.615384,4255.897435,4668.717948,3994.871795,4069.230769
14,4420.512820,4516.410256,4525.641025,4265.128205,4491.794871,4189.230769,4432.820512,4223.076923,4232.307692,4499.487179,4248.717948,4661.025641,3982.564103,4062.051282
15,4418.461538,4517.435897,4520.512820,4263.589743,4498.974358,4194.871794,4436.923076,4227.179487,4229.230769,4503.076923,4239.487179,4657.948717,3981.538462,4057.435897
16,4419.487179,4518.461538,4522.564102,4267.179487,4504.615384,4196.923076,4444.102564,4229.230769,4232.820512,4505.641025,4238.974358,4660.000000,3992.307693,4059.487179
17,4423.076923,4520.000000,4525.128205,4266.153846,4502.051282,4193.333333,4441.025641,4226.153846,4235.897435,4502.564102,4241.538461,4662.051282,3994.358975,4062.051282
18,4426.153846,4524.102564,4526.666666,4267.179487,4505.128205,4194.358974,4437.435897,4231.794871,4236.410256,4503.589743,4240.512820,4663.076923,3990.256411,4061.538461
19,4426.153846,4526.153846,4526.666666,4271.794871,4512.820512,4199.487179,4441.025641,4235.384615,4241.025641,4511.794871,4240.000000,4664.102564,3993.846154,4061.025641
20,4422.564102,4519.487179,4524.615384,4269.230769,4511.794871,4200.000000,4443.589743,4231.794871,4242.564102,4515.384615,4242.564102,4656.923076,3994.358975,4062.051282
21,4419.487179,4516.410256,4524.102564,4263.589743,4510.256410,4196.923076,4443.076923,4234.871794,4238.974358,4513.333333,4240.512820,4648.205128,3984.615385,4060.512820
22,4414.358974,4520.000000,4522.051282,4261.025641,4510.256410,4194.871794,4441.025641,4233.333333,4235.384615,4504.102564,4231.282051,4650.769230,3973.333334,4052.307692
23,4408.717948,4514.358974,4518.461538,4258.461538,4510.256410,4198.461538,4440.000000,4223.589743,4228.717948,4495.897435,4223.076923,4652.820512,3970.769231,4043.589743
24,4409.743589,4511.282051,4521.538461,4262.051282,4508.717948,4202.051282,4442.564102,4224.615384,4225.128205,4497.435897,4222.051282,4648.717948,3974.358975,4044.102564
25,4409.230769,4513.846153,4523.589743,4263.589743,4506.666666,4199.487179,4442.051282,4230.256410,4226.153846,4499.487179,4223.076923,4651.794871,3975.897436,4044.615384
26,4409.230769,4511.282051,4520.512820,4258.974358,4506.153846,4196.923076,4436.410256,4230.769230,4225.641025,4493.846153,4223.589743,4657.948717,3975.384616,4043.589743
27,4416.410256,4513.846153,4528.205128,4265.128205,4509.743589,4198.974358,4437.948717,4235.384615,4229.743589,4494.871794,4230.256410,4664.102564,3982.564103,4049.743589
28,4422.564102,4520.512820,4535.384615,4274.358974,4510.769230,4196.410256,4444.102564,4241.025641,4236.923076,4506.153846,4240.512820,4667.692307,3988.717949,4059.487179
29,4414.871794,4518.461538,4527.179487,4267.179487,4502.564102,4192.820512,4443.076923,4235.384615,4234.871794,4511.794871,4236.923076,4666.153846,3985.641026,4060.512820
30,4407.179487,4512.307692,4521.025641,4261.025641,4498.974358,4194.358974,4441.538461,4228.205128,4227.179487,4503.589743,4228.205128,4664.102564,3980.512821,4052.820512
31,4412.307692,4512.820512,4525.641025,4267.179487,4505.128205,4192.820512,4440.512820,4229.230769,4225.128205,4496.410256,4230.769230,4665.128205,3981.025642,4050.769230
32,4420.000000,4517.948717,4526.666666,4269.743589,4507.179487,4191.794871,4439.487179,4230.769230,4226.153846,4500.512820,4238.974358,4666.666666,3987.692308,4055.384615
33,4416.410256,4518.461538,4523.076923,4267.692307,4503.589743,4192.820512,4436.410256,4227.179487,4226.153846,4504.102564,4236.410256,4667.179487,3988.717949,4053.846153
34,4410.256410,4514.358974,4523.076923,4268.205128,4504.102564,4193.846153,4436.410256,4224.615384,4226.666666,4501.538461,4228.205128,4665.128205,3984.102565,4047.692307
35,4411.794871,4516.410256,4524.615384,4267.692307,4505.641025,4196.410256,4440.000000,4231.282051,4228.717948,4501.538461,4230.256410,4665.641025,3983.076924,4050.256410
36,4413.333333,4521.538461,4526.153846,4266.153846,4502.051282,4193.846153,4436.923076,4236.410256,4226.666666,4500.512820,4237.435897,4669.230769,3986.153847,4053.846153
37,4408.205128,4520.512820,4525.128205,4265.128205,4498.974358,4187.692307,4432.307692,4232.820512,4223.589743,4498.974358,4233.846153,4666.666666,3987.692308,4048.205128
38,4408.205128,4518.974358,4523.076923,4264.615384,4500.512820,4194.358974,4437.435897,4229.743589,4227.692307,4499.487179,4228.205128,4661.538461,3986.153847,4048.205128
39,4414.358974,4518.461538,4525.128205,4265.128205,4501.025641,4203.589743,4447.179487,4234.358974,4232.820512,4503.589743,4230.769230,4664.102564,3983.076924,4054.358974
40,4416.410256,4516.923076,4531.794871,4269.230769,4502.051282,4198.461538,4446.666666,4238.974358,4232.307692,4508.205128,4235.897435,4667.179487,3984.102565,4054.358974
41,4415.384615,4522.051282,4537.435897,4273.333333,4508.205128,4198.974358,4445.641025,4239.487179,4234.358974,4512.307692,4238.461538,4670.769230,3992.307693,4054.871794
42,4418.461538,4525.128205,4537.435897,4272.307692,4509.743589,4203.589743,4451.282051,4239.487179,4237.948717,4511.794871,4236.923076,4674.871794,3992.820513,4057.435897
43,4418.974358,4520.000000,4534.358974,4271.282051,4505.641025,4201.538461,4451.794871,4237.435897,4232.307692,4505.128205,4228.717948,4669.230769,3983.589744,4053.846153
44,4415.897435,4521.538461,4535.384615,4276.923076,4507.692307,4200.000000,4445.641025,4233.333333,4227.179487,4498.974358,4227.692307,4665.641025,3982.564103,4051.794871
45,4418.461538,4527.692307,4536.410256,4280.512820,4511.794871,4201.025641,4443.589743,4230.256410,4230.256410,4498.974358,4234.871794,4671.282051,3990.256411,4054.871794
46,4421.538461,4526.666666,4534.871794,4281.538461,4510.769230,4202.051282,4446.153846,4233.846153,4235.384615,4505.641025,4238.974358,4674.358974,3995.897436,4055.897435
47,4422.564102,4527.179487,4536.410256,4281.025641,4507.179487,4201.538461,4444.102564,4234.871794,4233.333333,4511.282051,4244.102564,4674.871794,3998.461539,4058.461538
48,4425.641025,4531.794871,4539.487179,4280.512820,4506.153846,4198.974358,4440.512820,4230.769230,4230.769230,4514.358974,4248.717948,4678.461538,3998.974359,4064.102564
49,4424.102564,4531.282051,4537.948717,4282.051282,4506.666666,4195.897435,4441.538461,4231.282051,4233.333333,4513.333333,4243.076923,4678.461538,3998.461539,4062.051282
50,4420.000000,4524.615384,4536.410256,4280.000000,4505.641025,4197.948717,4442.564102,4233.333333,4232.820512,4505.641025,4236.410256,4672.820512,3990.769231,4053.846153
51,4418.974358,4517.948717,4536.923076,4274.358974,4502.564102,4201.538461,4442.051282,4232.307692,4228.205128,4502.051282,4241.025641,4669.230769,3979.487180,4050.769230
52,4414.871794,4516.923076,4534.871794,4273.333333,4502.564102,4200.000000,4441.025641,4230.256410,4225.128205,4502.564102,4238.461538,4665.128205,3976.923077,4049.743589
53,4410.256410,4518.461538,4534.871794,4272.820512,4503.076923,4197.948717,4447.692307,4233.333333,4226.666666,4499.487179,4228.205128,4665.641025,3986.153847,4049.743589
54,4412.307692,4516.923076,4537.435897,4269.743589,4503.076923,4202.051282,4456.923076,4239.487179,4232.307692,4501.025641,4230.769230,4670.769230,3992.820513,4049.743589
55,4412.820512,4516.410256,4531.794871,4270.769230,4504.102564,4210.256410,4459.487179,4249.743589,4240.000000,4512.307692,4234.358974,4669.743589,3988.717949,4049.743589
56,4408.717948,4515.897435,4522.564102,4269.743589,4502.564102,4209.743589,4458.461538,4254.871794,4241.025641,4518.461538,4230.256410,4662.051282,3982.564103,4046.666666
57,4409.230769,4511.794871,4523.076923,4266.153846,4497.948717,4205.641025,4460.512820,4250.256410,4237.435897,4511.794871,4230.769230,4659.487179,3984.615385,4045.641025
58,4411.794871,4513.333333,4532.820512,4269.230769,4500.512820,4211.794871,4462.564102,4250.256410,4238.461538,4509.230769,4235.897435,4665.128205,3990.256411,4050.256410
59,4413.333333,4523.589743,4541.025641,4272.307692,4508.205128,4215.897435,4463.589743,4254.871794,4240.512820,4513.333333,4237.435897,4667.692307,3993.333334,4052.820512
60,4412.820512,4525.641025,4537.435897,4271.282051,4509.230769,4211.794871,4462.051282,4255.384615,4238.974358,4510.256410,4237.435897,4665.641025,3993.333334,4051.282051
61,4408.717948,4517.948717,4524.615384,4269.230769,4501.538461,4209.743589,4457.435897,4245.128205,4231.794871,4501.538461,4233.846153,4660.000000,3989.230770,4046.153846
62,4404.102564,4512.307692,4519.487179,4265.641025,4496.923076,4208.205128,4458.974358,4237.435897,4224.102564,4496.923076,4226.153846,4652.820512,3984.102565,4041.538461
63,4403.589743,4509.230769,4523.589743,4261.025641,4498.974358,4204.102564,4459.487179,4237.435897,4221.538461,4498.461538,4225.128205,4650.769230,3982.051283,4040.512820
64,4405.641025,4506.666666,4521.538461,4262.564102,4495.384615,4203.589743,4450.256410,4237.435897,4222.051282,4501.025641,4228.205128,4654.871794,3979.487180,4042.051282
65,4410.256410,4510.256410,4520.512820,4268.717948,4493.333333,4203.589743,4449.230769,4238.461538,4224.615384,4501.538461,4231.282051,4658.974358,3982.564103,4045.128205
66,4415.897435,4515.384615,4531.282051,4270.256410,4497.948717,4201.538461,4455.897435,4241.538461,4227.692307,4505.128205,4233.846153,4662.051282,3991.794872,4048.717948
67,4417.435897,4514.358974,4534.871794,4269.743589,4499.487179,4202.564102,4457.435897,4241.538461,4227.692307,4509.743589,4234.871794,4664.615384,3992.820513,4051.282051
68,4416.923076,4513.333333,4527.692307,4271.282051,4496.923076,4207.179487,4455.384615,4238.461538,4227.692307,4507.179487,4235.897435,4663.076923,3987.179488,4051.794871
69,4416.923076,4516.410256,4527.692307,4272.307692,4496.923076,4209.230769,4455.897435,4240.512820,4231.794871,4506.153846,4239.487179,4662.564102,3990.256411,4054.358974
70,4414.358974,4514.871794,4528.205128,4271.794871,4500.000000,4208.717948,4457.948717,4241.538461,4232.307692,4508.205128,4236.923076,4661.538461,3992.820513,4052.307692
71,4408.717948,4512.820512,4522.051282,4272.820512,4498.461538,4204.615384,4452.307692,4233.333333,4224.615384,4500.512820,4229.743589,4655.897435,3984.102565,4045.128205
72,4406.666666,4514.358974,4521.538461,4273.333333,4496.410256,4205.128205,4450.256410,4232.307692,4222.564102,4495.384615,4230.769230,4654.358974,3980.000000,4044.102564
73,4405.641025,4507.692307,4522.564102,4271.282051,4497.948717,4207.692307,4455.897435,4237.435897,4226.666666,4501.025641,4229.743589,4654.871794,3981.025642,4041.025641
74,4407.179487,4504.102564,4519.487179,4269.743589,4497.948717,4203.589743,4454.871794,4236.923076,4228.717948,4504.102564,4226.153846,4655.897435,3984.102565,4039.487179
75,4415.897435,4516.923076,4528.205128,4273.333333,4499.487179,4205.641025,4449.743589,4237.435897,4231.282051,4508.205128,4233.333333,4663.076923,3993.846154,4049.230769
76,4423.589743,4527.692307,4540.512820,4280.512820,4501.538461,4213.333333,4453.333333,4242.051282,4236.410256,4513.846153,4245.641025,4671.794871,4001.538461,4060.000000
77,4425.641025,4525.641025,4541.025641,4286.153846,4501.538461,4209.230769,4454.358974,4245.128205,4237.435897,4511.794871,4250.769230,4673.846153,4004.102564,4061.538461
78,4425.128205,4527.179487,4537.948717,4284.102564,4499.487179,4205.641025,4450.769230,4244.615384,4239.487179,4514.871794,4250.256410,4671.282051,4009.230769,4065.641025
79,4427.692307,4533.333333,4538.974358,4282.564102,4500.512820,4213.333333,4457.435897,4248.205128,4243.589743,4522.051282,4246.666666,4670.769230,4010.769230,4069.230769
80,4427.692307,4527.692307,4538.974358,4283.589743,4501.538461,4216.923076,4461.538461,4249.230769,4242.564102,4519.487179,4247.179487,4671.282051,4004.102564,4063.076923
81,4425.128205,4519.487179,4538.461538,4280.512820,4501.538461,4211.794871,4455.897435,4245.128205,4240.000000,4513.846153,4252.820512,4672.307692,4002.564102,4058.461538
82,4427.179487,4522.564102,4539.487179,4276.923076,4503.589743,4209.230769,4455.897435,4243.589743,4240.512820,4515.384615,4252.820512,4672.307692,4006.153846,4062.051282
83,4428.717948,4523.589743,4538.461538,4278.461538,4504.615384,4209.743589,4459.487179,4244.102564,4242.051282,4519.487179,4248.717948,4673.846153,4006.153846,4066.666666
84,4424.102564,4520.512820,4536.410256,4280.512820,4503.589743,4208.717948,4455.384615,4242.564102,4241.025641,4516.923076,4245.128205,4673.333333,4000.512820,4064.615384
85,4421.025641,4522.564102,4536.410256,4277.435897,4500.000000,4207.179487,4447.179487,4235.897435,4236.410256,4511.794871,4240.000000,4667.179487,3994.871795,4058.461538
86,4423.589743,4524.615384,4535.897435,4277.435897,4498.461538,4209.743589,4449.230769,4235.897435,4234.358974,4512.307692,4245.128205,4665.641025,3997.948718,4056.923076
87,4427.692307,4521.025641,4536.410256,4281.538461,4506.666666,4215.384615,4460.512820,4247.179487,4241.025641,4518.974358,4254.871794,4673.846153,4007.179487,4062.564102
88,4429.230769,4524.615384,4538.974358,4283.589743,4509.230769,4214.871794,4460.000000,4250.256410,4246.153846,4526.666666,4258.974358,4680.000000,4010.256410,4067.692307
89,4429.743589,4531.282051,4541.025641,4284.102564,4505.641025,4211.794871,4454.358974,4245.641025,4244.615384,4531.794871,4258.461538,4678.461538,4009.230769,4069.743589
90,4434.358974,4532.820512,4541.538461,4285.641025,4507.692307,4217.435897,4460.000000,4250.769230,4248.205128,4531.794871,4260.000000,4680.000000,4012.820512,4075.384615
91,4438.461538,4532.307692,4540.000000,4288.205128,4507.179487,4216.410256,4460.000000,4250.256410,4250.256410,4525.128205,4260.512820,4680.000000,4015.897435,4075.897435
92,4433.333333,4529.743589,4537.435897,4285.128205,4504.102564,4204.615384,4447.179487,4239.487179,4246.153846,4522.051282,4256.923076,4673.846153,4013.333333,4070.256410
93,4428.717948,4527.179487,4534.358974,4282.051282,4508.205128,4206.666666,4443.076923,4238.461538,4243.589743,4525.641025,4256.410256,4673.333333,4008.717948,4067.692307
94,4425.128205,4521.025641,4528.717948,4278.974358,4508.205128,4214.871794,4447.692307,4238.461538,4240.000000,4520.000000,4254.358974,4670.769230,4003.076923,4065.641025
95,4418.974358,4514.358974,4519.487179,4273.333333,4497.948717,4209.230769,4444.615384,4231.282051,4234.358974,4511.282051,4249.743589,4661.538461,4000.512820,4062.051282
96,4421.025641,4518.974358,4520.512820,4274.871794,4497.435897,4203.589743,4439.487179,4231.282051,4238.461538,4524.615384,4250.769230,4664.615384,4008.717948,4065.128205
97,4429.230769,4527.179487,4532.820512,4282.564102,4506.153846,4209.230769,4442.564102,4233.333333,4246.153846,4534.358974,4255.897435,4671.282051,4017.435897,4071.282051
98,4428.205128,4528.717948,4531.794871,4284.615384,4505.128205,4206.666666,4443.076923,4228.205128,4238.461538,4519.487179,4255.384615,4665.641025,4010.769230,4069.230769
99,4423.076923,4526.666666,4526.153846,4282.564102,4501.538461,4198.461538,4440.000000,4225.128205,4227.179487,4510.769230,4250.769230,4664.615384,4004.102564,4065.128205
100,4429.230769,4527.692307,4530.769230,4285.128205,4505.128205,4198.974358,4441.025641,4225.128205,4230.769230,4516.410256,4251.794871,4672.307692,4008.205128,4065.641025
101,4436.410256,4531.282051,4538.461538,4288.205128,4508.205128,4207.179487,4443.076923,4225.128205,4238.461538,4516.410256,4256.410256,4674.358974,4009.743589,4069.743589
102,4433.333333,4532.307692,4537.435897,4289.230769,4504.615384,4212.820512,4442.564102,4228.205128,4235.384615,4512.820512,4253.333333,4670.769230,4003.589743,4072.307692
103,4426.666666,4527.179487,4528.717948,4284.615384,4500.512820,4206.153846,4443.076923,4226.153846,4230.769230,4510.256410,4244.102564,4664.102564,4000.000000,4065.128205
104,4424.102564,4522.051282,4527.179487,4276.923076,4500.512820,4204.102564,4442.051282,4224.615384,4235.384615,4510.256410,4246.153846,4663.589743,4002.051282,4061.025641
105,4429.230769,4525.641025,4535.384615,4282.051282,4506.666666,4216.923076,4443.076923,4233.846153,4242.051282,4522.051282,4256.410256,4671.794871,4007.692307,4070.256410
106,4435.384615,4531.282051,4540.000000,4291.282051,4511.282051,4219.487179,4449.743589,4236.923076,4243.589743,4526.666666,4256.923076,4674.871794,4011.282051,4074.358974
107,4435.897435,4531.794871,4536.410256,4288.717948,4511.282051,4212.820512,4457.948717,4232.307692,4242.564102,4516.410256,4256.923076,4672.820512,4010.769230,4071.282051
108,4433.846153,4528.717948,4537.948717,4284.102564,4510.256410,4217.948717,4460.000000,4235.384615,4245.641025,4522.564102,4266.153846,4675.384615,4012.820512,4074.871794
109,4433.846153,4523.589743,4541.025641,4283.589743,4507.179487,4218.461538,4453.846153,4235.897435,4247.179487,4533.333333,4266.666666,4674.358974,4013.846153,4077.435897
110,4430.256410,4520.512820,4535.384615,4283.589743,4501.538461,4205.641025,4445.641025,4231.794871,4240.512820,4522.051282,4256.410256,4666.666666,4009.230769,4070.256410
111,4427.179487,4525.128205,4531.282051,4281.025641,4504.102564,4207.692307,4444.102564,4231.794871,4240.512820,4512.820512,4252.820512,4664.615384,4006.153846,4066.153846
112,4431.282051,4530.256410,4535.897435,4281.025641,4511.794871,4216.410256,4445.641025,4233.333333,4245.128205,4516.923076,4255.897435,4670.256410,4006.666666,4069.230769
113,4434.358974,4527.692307,4537.948717,4284.102564,4511.794871,4210.256410,4444.102564,4232.820512,4241.538461,4515.897435,4254.871794,4669.743589,4009.230769,4072.307692
114,4430.769230,4519.487179,4530.256410,4284.102564,4505.641025,4205.641025,4442.051282,4232.307692,4237.435897,4509.230769,4252.307692,4664.102564,4004.102564,4070.769230
115,4425.128205,4512.820512,4523.076923,4276.923076,4504.102564,4206.666666,4442.564102,4226.666666,4235.384615,4504.102564,4247.179487,4663.589743,3994.358975,4062.564102
116,4422.051282,4507.179487,4523.076923,4272.307692,4507.179487,4204.102564,4442.051282,4220.512820,4230.256410,4503.076923,4236.923076,4662.051282,3991.794872,4055.384615
117,4420.512820,4505.128205,4524.102564,4272.820512,4508.717948,4204.102564,4442.564102,4216.410256,4225.128205,4503.076923,4232.820512,4658.974358,3987.692308,4052.307692
118,4417.435897,4506.666666,4524.102564,4271.794871,4510.769230,4205.128205,4443.589743,4215.384615,4225.128205,4498.974358,4235.897435,4658.461538,3980.512821,4051.794871
119,4416.923076,4504.102564,4523.589743,4271.794871,4514.358974,4203.076923,4443.589743,4221.025641,4227.179487,4500.512820,4235.897435,4660.000000,3983.589744,4052.307692
120,4420.000000,4506.153846,4526.666666,4273.333333,4517.435897,4209.230769,4446.153846,4224.102564,4235.897435,4512.820512,4233.333333,4662.564102,3994.871795,4055.897435
121,4421.538461,4510.769230,4534.358974,4273.846153,4521.538461,4209.743589,4448.205128,4223.589743,4237.948717,4510.256410,4231.282051,4664.615384,3993.846154,4058.461538
122,4418.974358,4507.692307,4537.948717,4273.333333,4521.025641,4200.000000,4444.102564,4223.589743,4228.205128,4498.461538,4229.743589,4666.666666,3986.666667,4055.897435
123,4419.487179,4506.153846,4533.333333,4272.307692,4514.871794,4201.538461,4439.487179,4223.589743,4231.282051,4507.692307,4234.358974,4669.230769,3991.794872,4054.871794
124,4421.538461,4506.666666,4527.692307,4270.256410,4515.384615,4204.102564,4441.025641,4221.025641,4237.948717,4514.358974,4236.410256,4668.205128,4000.000000,4055.384615
125,4415.897435,4504.102564,4521.538461,4268.205128,4518.974358,4198.461538,4441.538461,4217.435897,4232.820512,4501.025641,4228.717948,4661.025641,3993.846154,4052.307692
126,4411.282051,4509.230769,4524.615384,4273.333333,4521.538461,4204.615384,4444.102564,4220.512820,4232.307692,4499.487179,4227.179487,4660.512820,3990.769231,4049.743589
127,4419.487179,4520.512820,4537.435897,4280.000000,4524.615384,4216.410256,4451.794871,4228.717948,4240.000000,4514.358974,4236.410256,4668.717948,3999.487180,4054.358974
128,4423.076923,4515.897435,4537.948717,4277.948717,4523.589743,4211.794871,4451.282051,4228.205128,4241.025641,4515.897435,4242.051282,4669.743589,3999.487180,4057.948717
129,4415.897435,4508.205128,4524.615384,4272.307692,4520.000000,4205.641025,4445.128205,4223.076923,4237.435897,4507.692307,4240.512820,4663.589743,3993.333334,4053.333333
130,4415.384615,4510.256410,4523.589743,4273.846153,4516.923076,4209.230769,4443.589743,4226.153846,4238.974358,4510.256410,4235.384615,4663.076923,3994.871795,4048.717948
131,4422.564102,4513.333333,4537.948717,4281.025641,4517.948717,4213.846153,4449.230769,4231.794871,4239.487179,4514.871794,4233.846153,4672.307692,3997.948718,4051.794871
132,4420.512820,4512.820512,4538.974358,4283.076923,4519.487179,4211.794871,4453.333333,4230.256410,4236.410256,4506.666666,4234.871794,4673.846153,3995.897436,4055.384615
133,4413.333333,4506.666666,4523.589743,4276.410256,4515.897435,4205.641025,4448.205128,4224.102564,4228.205128,4493.846153,4228.717948,4663.076923,3988.205129,4048.205128
134,4410.256410,4502.051282,4520.000000,4270.256410,4510.769230,4199.487179,4440.000000,4215.897435,4223.076923,4495.384615,4223.076923,4658.461538,3984.102565,4041.538461
135,4410.769230,4506.666666,4526.153846,4273.333333,4513.333333,4200.000000,4440.512820,4214.871794,4224.102564,4504.615384,4226.153846,4662.051282,3988.205129,4045.128205
136,4414.358974,4512.307692,4524.615384,4276.410256,4515.384615,4203.076923,4443.589743,4218.461538,4228.205128,4505.641025,4230.256410,4663.589743,3992.820513,4050.256410
137,4417.435897,4511.282051,4525.128205,4274.871794,4513.846153,4205.128205,4441.025641,4221.538461,4234.871794,4506.666666,4234.871794,4666.153846,3997.435898,4052.820512
138,4421.025641,4510.769230,4533.846153,4281.538461,4519.487179,4211.282051,4447.179487,4231.794871,4240.000000,4517.435897,4244.615384,4673.333333,4001.538461,4056.923076
139,4425.128205,4515.384615,4540.000000,4288.205128,4527.692307,4214.358974,4457.948717,4237.948717,4243.589743,4524.102564,4248.717948,4675.897435,4001.025641,4058.974358
140,4424.615384,4515.897435,4540.000000,4285.641025,4529.230769,4213.846153,4459.487179,4233.333333,4246.153846,4519.487179,4243.589743,4672.820512,4000.000000,4054.871794
141,4417.435897,4511.282051,4537.948717,4282.564102,4527.179487,4211.794871,4456.410256,4232.820512,4244.615384,4515.897435,4240.512820,4670.256410,4001.025641,4050.769230
142,4414.871794,4512.307692,4535.384615,4281.025641,4521.538461,4211.282051,4455.897435,4233.333333,4241.538461,4517.435897,4238.974358,4669.230769,4001.538461,4049.743589
143,4421.025641,4517.435897,4536.410256,4281.025641,4520.512820,4214.871794,4458.974358,4232.307692,4241.538461,4516.923076,4236.923076,4669.743589,4003.076923,4052.307692
144,4420.000000,4516.923076,4538.461538,4282.051282,4523.589743,4218.461538,4460.000000,4233.333333,4241.538461,4517.435897,4234.358974,4672.820512,4001.538461,4055.384615
145,4411.794871,4510.256410,4536.410256,4279.487179,4518.974358,4214.358974,4452.307692,4230.769230,4238.461538,4515.384615,4230.256410,4670.769230,3993.333334,4049.743589
146,4413.333333,4510.256410,4533.846153,4278.974358,4516.410256,4208.205128,4445.128205,4229.230769,4238.461538,4513.333333,4231.282051,4669.230769,3993.846154,4046.153846
147,4421.538461,4516.923076,4538.974358,4286.153846,4520.512820,4211.282051,4451.794871,4239.487179,4240.512820,4520.512820,4243.076923,4674.358974,4003.076923,4054.871794
148,4425.128205,4520.512820,4545.641025,4289.230769,4522.051282,4217.948717,4460.512820,4241.538461,4245.641025,4525.641025,4250.256410,4680.000000,4009.230769,4063.076923
149,4425.128205,4517.435897,4544.102564,4285.641025,4523.076923,4217.948717,4458.974358,4234.358974,4248.717948,4518.974358,4245.128205,4679.487179,4009.743589,4061.025641
150,4426.153846,4517.435897,4545.128205,4287.179487,4526.153846,4214.871794,4456.923076,4236.923076,4245.128205,4514.358974,4244.615384,4678.974358,4008.205128,4059.487179
151,4428.205128,4522.051282,4550.256410,4287.179487,4523.589743,4215.384615,4457.435897,4238.461538,4244.615384,4522.564102,4250.769230,4684.102564,4009.230769,4063.076923
152,4434.358974,4525.641025,4552.820512,4287.692307,4525.641025,4217.435897,4456.923076,4238.461538,4250.256410,4534.871794,4252.820512,4689.743589,4014.871794,4067.692307
153,4437.435897,4527.179487,4552.307692,4291.794871,4532.307692,4217.948717,4460.000000,4243.589743,4252.820512,4535.384615,4255.384615,4687.692307,4018.974358,4068.717948
154,4433.846153,4526.153846,4553.333333,4289.743589,4527.692307,4216.923076,4461.025641,4240.512820,4251.282051,4527.179487,4255.897435,4682.564102,4016.923076,4066.153846
155,4433.333333,4525.128205,4553.333333,4287.692307,4524.102564,4216.410256,4457.948717,4235.897435,4250.256410,4525.641025,4251.282051,4681.538461,4012.307692,4066.153846
156,4436.410256,4528.205128,4552.307692,4294.871794,4529.230769,4218.974358,4458.461538,4240.512820,4247.692307,4529.230769,4250.256410,4682.564102,4012.307692,4069.230769
157,4436.410256,4527.179487,4552.820512,4297.948717,4526.666666,4218.461538,4458.461538,4238.461538,4244.102564,4522.051282,4253.333333,4681.538461,4014.358974,4071.282051
158,4433.333333,4524.615384,4551.282051,4289.230769,4518.974358,4213.846153,4456.923076,4229.743589,4241.538461,4515.897435,4248.717948,4679.487179,4014.358974,4068.205128
159,4431.282051,4526.666666,4548.205128,4286.666666,4521.025641,4214.871794,4456.410256,4231.794871,4242.051282,4521.025641,4239.487179,4678.974358,4010.256410,4063.076923
160,4425.128205,4523.589743,4542.564102,4286.666666,4523.589743,4215.384615,4450.769230,4233.333333,4242.051282,4520.000000,4236.923076,4675.384615,4004.615384,4058.974358
161,4422.051282,4515.384615,4537.435897,4281.025641,4516.410256,4206.153846,4443.076923,4229.230769,4237.435897,4513.333333,4241.538461,4671.794871,4003.076923,4056.923076
162,4427.179487,4515.897435,4540.512820,4281.025641,4511.794871,4203.589743,4443.076923,4229.743589,4236.923076,4512.820512,4243.589743,4676.410256,4005.128205,4058.974358
163,4432.820512,4522.051282,4549.230769,4287.692307,4517.435897,4212.307692,4443.589743,4229.230769,4241.025641,4518.974358,4242.564102,4680.000000,4009.230769,4063.076923
164,4434.871794,4525.128205,4553.846153,4290.769230,4526.666666,4216.923076,4444.615384,4232.307692,4241.538461,4525.641025,4248.205128,4678.461538,4013.333333,4067.179487
165,4434.871794,4523.076923,4552.307692,4289.743589,4524.102564,4218.974358,4453.846153,4239.487179,4241.538461,4522.564102,4252.307692,4681.538461,4011.794871,4068.717948
166,4436.923076,4522.564102,4552.820512,4290.256410,4520.512820,4222.564102,4463.076923,4239.487179,4242.051282,4522.051282,4249.230769,4686.153846,4011.282051,4066.666666
167,4434.358974,4524.102564,4554.358974,4286.666666,4525.128205,4218.974358,4462.051282,4232.820512,4240.512820,4526.153846,4246.666666,4680.512820,4009.743589,4062.051282
168,4427.179487,4521.025641,4548.205128,4280.000000,4521.025641,4211.794871,4452.820512,4231.282051,4236.923076,4521.025641,4245.128205,4675.384615,4005.128205,4058.461538
169,4430.769230,4516.410256,4541.025641,4281.025641,4510.256410,4213.846153,4450.256410,4235.897435,4240.000000,4516.410256,4242.564102,4677.435897,4006.153846,4061.538461
170,4433.846153,4518.974358,4541.025641,4282.051282,4514.871794,4216.410256,4456.923076,4237.948717,4243.589743,4517.948717,4244.615384,4676.410256,4011.282051,4061.538461
171,4422.051282,4516.410256,4541.025641,4273.846153,4519.487179,4212.307692,4454.358974,4236.410256,4243.589743,4521.025641,4246.666666,4670.256410,4005.128205,4054.871794
172,4416.410256,4509.230769,4537.948717,4271.282051,4511.794871,4210.256410,4445.641025,4232.307692,4243.076923,4522.564102,4236.923076,4668.717948,3995.384616,4050.769230
173,4425.641025,4513.846153,4537.435897,4281.025641,4512.820512,4212.820512,4446.153846,4230.769230,4243.076923,4521.538461,4234.358974,4674.871794,3998.974359,4050.769230
174,4431.794871,4524.102564,4544.615384,4288.717948,4523.076923,4217.948717,4450.256410,4231.282051,4242.564102,4518.461538,4244.102564,4678.461538,4009.230769,4057.435897
175,4436.923076,4526.666666,4552.307692,4289.743589,4525.641025,4218.461538,4451.794871,4231.794871,4243.589743,4525.641025,4251.282051,4681.025641,4013.846153,4067.179487
176,4440.000000,4522.051282,4554.358974,4288.717948,4519.487179,4216.923076,4453.846153,4232.820512,4250.769230,4534.871794,4254.871794,4684.615384,4013.846153,4068.205128
177,4435.897435,4518.974358,4550.769230,4287.179487,4514.871794,4215.897435,4450.769230,4235.384615,4254.871794,4529.230769,4255.897435,4683.589743,4013.333333,4063.076923
178,4430.769230,4519.487179,4544.615384,4286.153846,4516.923076,4215.384615,4445.128205,4234.871794,4250.256410,4525.641025,4248.717948,4678.461538,4011.282051,4060.000000
179,4429.743589,4517.435897,4537.435897,4284.102564,4518.974358,4214.358974,4443.076923,4227.692307,4243.076923,4526.666666,4242.051282,4673.846153,4009.230769,4058.974358
180,4431.282051,4520.000000,4537.435897,4284.615384,4516.410256,4213.846153,4445.641025,4227.179487,4242.564102,4524.102564,4249.743589,4676.410256,4012.820512,4061.025641
181,4438.461538,4528.717948,4547.692307,4289.743589,4517.435897,4216.923076,4455.384615,4238.461538,4252.820512,4532.307692,4259.487179,4686.666666,4022.051282,4070.256410
182,4444.102564,4529.230769,4554.358974,4292.820512,4524.102564,4219.487179,4462.564102,4244.615384,4260.000000,4543.076923,4261.538461,4692.820512,4024.615384,4076.410256
183,4440.512820,4520.512820,4552.820512,4290.769230,4523.076923,4218.461538,4458.461538,4240.512820,4250.769230,4536.923076,4257.948717,4689.230769,4017.948717,4073.333333
184,4434.871794,4517.948717,4549.743589,4286.666666,4515.384615,4213.846153,4453.846153,4235.897435,4242.051282,4524.615384,4252.820512,4686.666666,4012.307692,4066.666666
185,4436.923076,4524.615384,4549.230769,4289.230769,4516.923076,4215.384615,4455.384615,4237.435897,4247.692307,4529.743589,4250.769230,4685.641025,4013.333333,4068.717948
186,4444.615384,4530.769230,4554.358974,4297.435897,4527.692307,4224.102564,4457.435897,4244.102564,4256.923076,4543.076923,4258.974358,4690.769230,4023.076923,4078.974358
187,4449.743589,4530.256410,4561.538461,4303.076923,4529.743589,4225.641025,4460.000000,4250.769230,4258.974358,4546.666666,4269.230769,4701.025641,4030.256410,4085.128205
188,4450.769230,4526.666666,4560.512820,4303.589743,4524.102564,4225.128205,4460.000000,4248.717948,4257.435897,4540.000000,4266.666666,4698.974358,4025.128205,4083.589743
189,4450.769230,4529.230769,4554.871794,4302.564102,4525.641025,4226.153846,4460.512820,4240.512820,4253.846153,4532.820512,4259.487179,4693.333333,4022.051282,4083.589743
190,4449.743589,4529.230769,4555.897435,4300.512820,4527.692307,4227.179487,4462.051282,4241.538461,4253.846153,4535.384615,4261.025641,4695.897435,4027.179487,4084.102564
191,4444.102564,4521.025641,4555.897435,4294.871794,4523.076923,4227.179487,4461.025641,4243.076923,4255.384615,4537.435897,4260.512820,4692.820512,4023.076923,4077.948717
192,4438.974358,4518.461538,4551.794871,4291.282051,4520.512820,4222.051282,4458.974358,4237.435897,4252.307692,4529.743589,4254.358974,4684.102564,4014.358974,4071.794871
193,4441.538461,4522.051282,4551.282051,4292.307692,4522.051282,4222.051282,4457.948717,4235.384615,4252.820512,4526.666666,4255.384615,4686.153846,4017.435897,4074.358974
194,4446.666666,4525.641025,4554.358974,4297.435897,4524.102564,4226.666666,4459.487179,4236.410256,4256.923076,4531.794871,4261.538461,4690.256410,4021.538461,4080.000000
195,4447.692307,4527.692307,4555.384615,4301.538461,4525.641025,4231.282051,4462.051282,4240.000000,4258.461538,4533.333333,4261.025641,4688.717948,4022.051282,4082.051282
196,4443.076923,4522.564102,4555.384615,4296.410256,4523.076923,4230.256410,4462.564102,4244.102564,4257.435897,4530.256410,4257.435897,4688.717948,4023.076923,4077.948717
197,4441.538461,4518.461538,4555.897435,4294.358974,4522.051282,4224.615384,4460.512820,4242.051282,4258.461538,4537.948717,4259.487179,4690.769230,4024.102564,4077.435897
198,4448.205128,4524.615384,4556.410256,4297.948717,4523.589743,4223.076923,4461.025641,4239.487179,4260.000000,4544.102564,4265.128205,4692.307692,4024.102564,4082.564102
199,4451.282051,4530.256410,4556.410256,4297.948717,4524.615384,4227.179487,4459.487179,4236.923076,4257.435897,4534.871794,4266.153846,4692.820512,4024.615384,4084.615384
200,4447.692307,4526.666666,4554.871794,4295.897435,4523.589743,4223.589743,4453.333333,4231.282051,4251.282051,4525.641025,4258.974358,4690.256410,4021.538461,4080.512820
201,4444.615384,4522.051282,4553.333333,4297.948717,4523.076923,4214.358974,4453.333333,4225.641025,4246.153846,4524.615384,4249.230769,4686.153846,4016.410256,4076.410256
202,4446.666666,4522.564102,4551.794871,4300.512820,4521.538461,4215.384615,4459.487179,4227.692307,4246.666666,4522.051282,4248.717948,4685.128205,4018.461538,4077.435897
203,4451.282051,4528.717948,4555.897435,4301.538461,4523.076923,4222.051282,4459.487179,4234.871794,4254.358974,4526.666666,4264.102564,4687.692307,4026.666666,4083.589743
204,4458.974358,4535.384615,4565.128205,4304.615384,4527.692307,4223.076923,4456.410256,4240.512820,4260.000000,4541.025641,4276.923076,4692.307692,4032.820512,4090.769230
205,4460.000000,4532.820512,4564.615384,4304.615384,4526.666666,4221.025641,4457.948717,4239.487179,4257.435897,4538.461538,4268.205128,4694.871794,4030.769230,4091.794871
206,4454.871794,4528.717948,4555.897435,4301.025641,4521.538461,4222.051282,4460.512820,4236.410256,4253.846153,4527.692307,4257.948717,4693.333333,4023.589743,4088.205128
207,4453.333333,4528.205128,4554.358974,4299.487179,4518.461538,4224.615384,4457.948717,4237.435897,4253.846153,4529.743589,4259.487179,4692.307692,4020.512820,4084.615384
208,4451.282051,4526.666666,4556.410256,4298.974358,4521.025641,4222.564102,4458.974358,4236.410256,4253.333333,4532.307692,4260.512820,4690.769230,4022.564102,4082.564102
209,4445.641025,4521.538461,4551.794871,4294.358974,4520.000000,4218.974358,4459.487179,4231.282051,4249.230769,4526.153846,4252.307692,4685.641025,4017.435897,4079.487179
210,4443.076923,4517.435897,4548.205128,4290.256410,4513.846153,4218.461538,4450.256410,4223.589743,4244.102564,4523.589743,4250.256410,4680.000000,4006.666666,4074.871794
211,4442.564102,4516.923076,4551.794871,4289.743589,4514.358974,4216.923076,4443.589743,4222.051282,4243.076923,4527.692307,4255.384615,4680.000000,4008.205128,4073.846153
212,4440.000000,4514.871794,4551.794871,4284.615384,4514.871794,4214.358974,4445.641025,4225.641025,4242.564102,4522.564102,4251.282051,4678.974358,4012.820512,4075.384615
213,4440.512820,4513.333333,4549.743589,4285.128205,4515.384615,4214.871794,4446.153846,4225.641025,4241.025641,4513.846153,4245.128205,4678.461538,4010.256410,4075.384615
214,4445.641025,4513.846153,4552.820512,4294.871794,4518.461538,4215.384615,4444.102564,4224.102564,4241.538461,4515.897435,4251.794871,4683.589743,4008.717948,4078.461538
215,4443.589743,4511.282051,4548.717948,4293.846153,4516.923076,4212.307692,4443.076923,4222.051282,4240.000000,4518.974358,4254.871794,4685.128205,4010.256410,4077.435897
216,4437.948717,4506.153846,4540.512820,4284.102564,4515.384615,4208.717948,4443.076923,4222.051282,4239.487179,4517.948717,4244.102564,4680.512820,4009.230769,4072.307692
217,4440.000000,4505.641025,4544.102564,4283.589743,4519.487179,4208.717948,4443.076923,4224.615384,4243.589743,4516.410256,4242.564102,4677.948717,4008.205128,4075.384615
218,4440.000000,4503.589743,4545.641025,4285.128205,4521.538461,4214.358974,4443.589743,4224.615384,4242.051282,4518.461538,4245.641025,4675.897435,4007.692307,4077.948717
219,4429.743589,4492.307692,4536.923076,4275.384615,4518.461538,4212.820512,4442.051282,4216.923076,4232.820512,4515.897435,4234.358974,4669.743589,4001.025641,4065.641025
220,4423.589743,4489.230769,4534.871794,4268.205128,4516.923076,4204.615384,4442.051282,4217.948717,4233.846153,4511.282051,4224.102564,4668.205128,3994.871795,4055.897435
221,4425.641025,4492.307692,4537.948717,4271.282051,4518.461538,4206.153846,4444.102564,4222.564102,4237.948717,4508.205128,4224.615384,4667.692307,3992.307693,4057.435897
222,4424.615384,4489.230769,4534.871794,4273.333333,4517.948717,4208.205128,4440.000000,4213.333333,4227.179487,4508.205128,4224.102564,4663.076923,3989.230770,4057.435897
223,4426.153846,4490.256410,4534.871794,4273.333333,4515.384615,4206.153846,4435.384615,4208.717948,4220.512820,4511.282051,4221.538461,4665.128205,3988.717949,4057.435897
224,4430.256410,4493.846153,4540.000000,4274.358974,4514.871794,4209.230769,4439.487179,4214.358974,4227.692307,4511.282051,4222.564102,4672.820512,3993.846154,4060.000000
225,4429.230769,4489.743589,4538.974358,4277.435897,4522.564102,4209.743589,4445.641025,4217.435897,4228.717948,4506.153846,4223.076923,4673.846153,3994.358975,4057.435897
226,4425.128205,4486.153846,4537.435897,4281.538461,4524.615384,4207.692307,4445.641025,4216.923076,4224.615384,4505.641025,4224.615384,4672.307692,3991.794872,4055.384615
227,4424.102564,4487.692307,4538.461538,4281.538461,4521.025641,4210.256410,4444.102564,4218.974358,4228.205128,4509.230769,4226.153846,4671.794871,3992.307693,4056.410256
228,4424.615384,4486.666666,4539.487179,4277.435897,4521.538461,4210.256410,4442.051282,4220.512820,4234.358974,4511.282051,4228.205128,4671.794871,3994.358975,4054.871794
229,4429.230769,4488.717948,4538.974358,4279.487179,4524.102564,4210.256410,4444.615384,4227.179487,4240.000000,4520.512820,4234.358974,4680.000000,3998.974359,4056.923076
230,4431.282051,4492.820512,4539.487179,4286.666666,4526.153846,4214.358974,4446.666666,4233.333333,4245.641025,4527.692307,4241.538461,4687.179487,4005.641025,4063.076923
231,4424.102564,4489.230769,4537.435897,4283.076923,4521.025641,4208.717948,4439.487179,4223.589743,4240.000000,4521.025641,4237.435897,4675.384615,4007.692307,4062.564102
232,4422.051282,4486.666666,4534.871794,4276.410256,4517.435897,4204.102564,4435.897435,4212.307692,4230.769230,4510.769230,4228.205128,4666.153846,4004.102564,4058.461538
233,4427.692307,4491.282051,4536.410256,4282.051282,4523.076923,4208.717948,4438.461538,4216.410256,4232.307692,4514.358974,4230.769230,4674.871794,4000.512820,4057.948717
234,4429.743589,4488.205128,4539.487179,4288.717948,4523.589743,4206.153846,4437.435897,4217.948717,4234.358974,4520.512820,4235.384615,4679.487179,4002.051282,4061.538461
235,4431.282051,4486.153846,4541.025641,4287.692307,4518.461538,4202.051282,4437.948717,4214.871794,4233.846153,4521.025641,4236.410256,4681.538461,4010.256410,4066.666666
236,4434.871794,4492.820512,4542.051282,4284.615384,4520.000000,4206.666666,4442.051282,4216.923076,4234.358974,4520.512820,4238.461538,4686.666666,4013.333333,4067.692307
237,4431.282051,4488.717948,4541.025641,4282.564102,4522.051282,4207.692307,4442.564102,4220.512820,4235.897435,4519.487179,4237.435897,4683.076923,4007.692307,4063.589743
238,4425.128205,4477.948717,4539.487179,4281.538461,4517.948717,4206.666666,4443.589743,4221.538461,4232.820512,4518.974358,4230.769230,4678.461538,4002.051282,4059.487179
239,4426.153846,4476.410256,4540.000000,4278.461538,4520.512820,4210.256410,4445.641025,4220.512820,4227.692307,4515.384615,4226.153846,4677.435897,3997.435898,4056.410256
240,4423.589743,4475.897435,4538.461538,4275.897435,4519.487179,4208.717948,4444.102564,4215.897435,4224.615384,4508.717948,4224.615384,4671.794871,3991.794872,4050.769230
241,4418.974358,4473.846153,4536.410256,4280.000000,4511.282051,4205.641025,4444.102564,4216.410256,4228.205128,4508.717948,4226.153846,4668.717948,3992.307693,4049.230769
242,4420.000000,4476.923076,4537.948717,4283.589743,4514.358974,4206.153846,4443.589743,4222.051282,4230.769230,4514.358974,4228.205128,4671.282051,3997.435898,4052.307692
243,4420.000000,4478.974358,4537.435897,4283.076923,4520.000000,4207.692307,4443.589743,4220.512820,4227.692307,4515.384615,4224.615384,4669.230769,3997.948718,4054.358974
244,4421.025641,4481.538461,4538.974358,4288.717948,4520.000000,4209.230769,4446.666666,4221.025641,4230.769230,4513.846153,4230.769230,4670.256410,3997.435898,4058.974358
245,4428.205128,4489.230769,4546.666666,4293.333333,4523.589743,4215.384615,4446.666666,4227.179487,4236.923076,4519.487179,4242.051282,4676.410256,4002.051282,4064.615384
246,4434.358974,4490.256410,4550.769230,4288.205128,4528.717948,4219.487179,4446.153846,4228.205128,4238.974358,4524.615384,4240.000000,4680.512820,4008.717948,4066.153846
247,4434.871794,4486.153846,4549.230769,4287.179487,4523.589743,4214.358974,4451.794871,4227.692307,4238.974358,4526.153846,4232.307692,4683.076923,4009.743589,4063.076923
248,4435.384615,4485.128205,4549.743589,4292.820512,4517.435897,4213.846153,4457.435897,4231.794871,4243.589743,4530.769230,4242.564102,4687.179487,4009.743589,4064.615384
249,4441.025641,4488.205128,4553.846153,4296.410256,4522.564102,4219.487179,4461.025641,4235.384615,4249.230769,4534.871794,4255.384615,4690.769230,4015.384615,4071.282051
250,4440.000000,4485.641025,4553.333333,4292.307692,4523.589743,4213.846153,4455.384615,4231.282051,4244.615384,4530.256410,4248.205128,4690.256410,4014.871794,4071.282051
251,4433.846153,4479.487179,4548.205128,4286.666666,4513.846153,4204.615384,4445.128205,4224.102564,4237.435897,4523.589743,4238.461538,4687.692307,4007.692307,4066.153846
252,4437.435897,4484.615384,4551.282051,4291.794871,4512.820512,4209.743589,4448.717948,4223.589743,4241.538461,4527.692307,4245.641025,4687.179487,4011.282051,4069.230769
253,4442.564102,4489.743589,4554.871794,4301.025641,4525.641025,4216.923076,4454.871794,4229.230769,4248.205128,4536.923076,4256.410256,4689.230769,4021.538461,4075.384615
254,4436.923076,4484.615384,4547.179487,4297.948717,4527.692307,4210.256410,4448.717948,4231.794871,4246.153846,4536.410256,4253.333333,4689.743589,4020.000000,4072.307692
255,4430.769230,4481.025641,4538.974358,4289.743589,4518.974358,4209.230769,4445.128205,4226.153846,4241.538461,4527.179487,4241.538461,4684.102564,4013.333333,4063.076923
256,4435.384615,4484.102564,4540.512820,4288.717948,4522.051282,4217.435897,4449.230769,4222.051282,4240.000000,4524.102564,4238.461538,4679.487179,4010.769230,4062.564102
257,4440.000000,4485.128205,4541.538461,4291.282051,4526.153846,4217.948717,4444.615384,4222.051282,4237.435897,4526.153846,4243.076923,4680.512820,4010.769230,4068.717948
258,4435.897435,4482.051282,4540.512820,4289.230769,4517.948717,4209.230769,4441.025641,4218.974358,4234.358974,4523.589743,4246.153846,4681.538461,4012.820512,4067.692307
259,4435.384615,4484.102564,4540.512820,4288.205128,4514.358974,4208.717948,4445.128205,4220.512820,4237.948717,4527.692307,4246.666666,4683.076923,4014.358974,4066.153846
