,AF3,F7,F3,FC5,T7,P7,O1,O2,P8,T8,FC6,F4,F8,AF4
0,4401.538461,4536.923076,4548.717948,4275.384615,4516.923076,4210.256410,4445.641025,4225.641025,4253.846153,4504.615384,4217.948717,4665.641025,4000.512820,4064.102564
1,4397.435897,4527.692307,4536.923076,4270.769230,4514.871794,4209.230769,4443.076923,4218.461538,4248.717948,4495.384615,4206.666666,4662.051282,3994.871795,4062.564102
2,4396.923076,4528.717948,4537.435897,4269.230769,4505.128205,4203.076923,4438.974358,4208.205128,4236.410256,4495.384615,4201.538461,4657.435897,3996.410257,4062.051282
3,4398.461538,4538.461538,4538.974358,4266.666666,4503.076923,4202.051282,4440.000000,4209.230769,4234.358974,4500.512820,4200.000000,4654.871794,4005.641025,4061.025641
4,4398.974358,4540.512820,4536.923076,4268.717948,4509.743589,4209.230769,4443.589743,4214.871794,4244.615384,4502.051282,4204.615384,4655.897435,4008.717948,4062.564102
5,4398.461538,4534.871794,4539.487179,4273.846153,4512.307692,4211.794871,4441.025641,4214.871794,4247.179487,4500.000000,4215.384615,4656.923076,4004.615384,4065.128205
6,4401.538461,4534.871794,4538.974358,4273.846153,4511.794871,4207.692307,4435.897435,4213.333333,4243.076923,4494.871794,4210.256410,4654.871794,4003.589743,4063.589743
7,4406.666666,4543.589743,4537.435897,4272.307692,4516.410256,4207.692307,4436.410256,4211.282051,4243.589743,4496.410256,4197.435897,4654.358974,4005.128205,4060.512820
8,4405.641025,4550.769230,4540.512820,4274.871794,4519.487179,4212.820512,4442.051282,4213.846153,4245.641025,4498.974358,4198.461538,4656.410256,3997.948718,4059.487179
9,4398.974358,4546.666666,4541.538461,4275.897435,4514.871794,4212.820512,4444.615384,4217.948717,4247.179487,4496.923076,4205.641025,4656.923076,3993.333334,4057.948717
10,4397.435897,4541.025641,4538.461538,4276.410256,4512.820512,4211.282051,4441.538461,4213.846153,4246.153846,4495.384615,4202.051282,4655.384615,3996.923077,4056.923076
11,4402.564102,4542.051282,4539.487179,4279.487179,4514.358974,4215.897435,4443.076923,4213.333333,4247.179487,4500.000000,4200.000000,4655.897435,4001.538461,4063.076923
12,4406.666666,4539.487179,4544.102564,4280.000000,4510.769230,4216.923076,4446.153846,4221.538461,4249.743589,4506.153846,4212.820512,4660.000000,4001.538461,4067.179487
13,4404.615384,4536.410256,4544.615384,4276.410256,4509.743589,4211.794871,4443.589743,4222.564102,4249.743589,4503.589743,4213.846153,4663.589743,3998.461539,4061.025641
14,4399.487179,4538.461538,4540.000000,4269.230769,4510.769230,4206.153846,4440.000000,4217.435897,4241.025641,4497.435897,4201.538461,4660.000000,3999.487180,4055.897435
15,4395.384615,4537.435897,4538.974358,4267.692307,4506.153846,4208.205128,4440.000000,4214.358974,4232.820512,4494.871794,4204.615384,4653.846153,4001.025641,4057.948717
16,4396.410256,4534.871794,4544.615384,4276.923076,4504.102564,4214.358974,4442.564102,4208.717948,4233.846153,4496.923076,4212.820512,4653.333333,3996.410257,4058.461538
17,4402.051282,4539.487179,4546.666666,4283.076923,4509.743589,4214.871794,4444.615384,4206.666666,4233.846153,4494.358974,4205.641025,4653.846153,3991.794872,4056.923076
18,4401.025641,4538.974358,4541.538461,4278.974358,4513.333333,4212.307692,4441.025641,4209.230769,4228.717948,4487.692307,4200.000000,4650.256410,3991.794872,4058.461538
19,4391.282051,4530.769230,4536.923076,4268.205128,4509.743589,4207.692307,4430.769230,4204.615384,4221.538461,4485.641025,4195.897435,4646.153846,3984.615385,4054.358974
20,4387.692307,4529.743589,4535.897435,4263.076923,4503.589743,4198.461538,4425.128205,4200.512820,4219.487179,4484.102564,4184.615384,4642.564102,3981.025642,4047.692307
21,4394.871794,4536.410256,4538.461538,4274.871794,4504.615384,4197.948717,4430.769230,4210.256410,4229.743589,4488.205128,4191.282051,4646.153846,3991.282052,4053.333333
22,4403.589743,4546.153846,4541.025641,4285.641025,4507.179487,4209.743589,4442.051282,4219.487179,4237.435897,4496.410256,4211.794871,4656.410256,3996.923077,4064.615384
23,4405.128205,4550.769230,4546.153846,4282.564102,4506.666666,4217.435897,4446.153846,4218.461538,4231.282051,4499.487179,4213.846153,4661.025641,3993.333334,4066.153846
24,4400.512820,4545.128205,4549.230769,4280.000000,4506.153846,4217.435897,4442.051282,4217.435897,4229.743589,4495.897435,4204.615384,4656.923076,3997.948718,4062.564102
25,4398.974358,4541.025641,4547.179487,4281.025641,4507.692307,4217.435897,4442.564102,4222.564102,4238.461538,4497.948717,4198.974358,4657.435897,4004.102564,4066.153846
26,4400.512820,4541.538461,4543.589743,4276.410256,4504.615384,4216.923076,4446.666666,4224.102564,4238.974358,4502.564102,4202.051282,4660.000000,4001.538461,4063.076923
27,4393.333333,4536.410256,4534.871794,4268.205128,4501.538461,4210.256410,4437.435897,4211.794871,4226.666666,4494.358974,4204.615384,4649.743589,3989.743590,4045.128205
28,4381.025641,4527.179487,4527.692307,4261.025641,4498.461538,4200.000000,4425.641025,4197.435897,4212.820512,4481.025641,4193.333333,4633.846153,3981.025642,4035.897435
29,4383.589743,4528.205128,4531.794871,4262.051282,4494.871794,4200.000000,4426.666666,4199.487179,4213.333333,4484.615384,4182.564102,4634.871794,3985.641026,4044.615384
30,4390.769230,4534.871794,4536.923076,4266.666666,4498.974358,4209.230769,4430.769230,4209.230769,4227.692307,4494.871794,4193.333333,4642.564102,3991.794872,4050.769230
31,4383.076923,4534.871794,4528.717948,4256.923076,4503.076923,4211.282051,4428.717948,4206.153846,4227.692307,4486.153846,4194.358974,4637.948717,3984.615385,4044.102564
32,4375.897435,4533.846153,4521.538461,4247.692307,4499.487179,4204.615384,4428.205128,4200.512820,4214.871794,4472.307692,4175.897435,4629.743589,3978.974359,4038.461538
33,4380.000000,4534.358974,4525.128205,4258.461538,4501.025641,4203.076923,4429.230769,4204.102564,4212.820512,4474.871794,4172.307692,4630.256410,3982.564103,4038.461538
34,4377.435897,4532.820512,4525.641025,4267.179487,4511.794871,4203.589743,4428.205128,4206.666666,4212.820512,4480.000000,4177.948717,4635.897435,3984.615385,4037.948717
35,4367.179487,4527.692307,4525.128205,4259.487179,4513.333333,4205.128205,4426.666666,4203.589743,4210.256410,4473.333333,4173.333333,4637.948717,3984.102565,4034.871794
36,4371.282051,4531.282051,4533.333333,4257.948717,4504.615384,4207.179487,4430.256410,4208.717948,4216.923076,4470.769230,4178.974358,4641.025641,3986.153847,4040.000000
37,4383.589743,4544.102564,4542.564102,4268.205128,4508.717948,4209.230769,4440.512820,4218.461538,4226.153846,4479.487179,4190.256410,4651.794871,3995.384616,4054.358974
38,4380.000000,4546.153846,4541.025641,4263.589743,4516.410256,4208.717948,4441.538461,4215.384615,4224.102564,4484.102564,4182.564102,4655.897435,3998.461539,4052.820512
39,4369.743589,4537.435897,4534.871794,4250.256410,4511.282051,4206.153846,4433.846153,4209.230769,4220.512820,4478.461538,4175.897435,4647.692307,3990.769231,4039.487179
40,4374.871794,4538.974358,4540.512820,4255.384615,4508.717948,4208.717948,4437.948717,4217.948717,4228.205128,4483.589743,4189.230769,4645.641025,3993.846154,4045.128205
41,4383.076923,4543.589743,4544.615384,4263.076923,4519.487179,4216.410256,4446.666666,4227.692307,4234.871794,4496.410256,4199.487179,4651.794871,4005.641025,4056.923076
42,4381.025641,4538.461538,4538.974358,4260.000000,4526.153846,4219.487179,4445.128205,4228.717948,4235.384615,4497.435897,4201.538461,4652.307692,4011.794871,4054.871794
43,4386.153846,4541.538461,4543.589743,4263.589743,4526.666666,4214.358974,4443.076923,4229.743589,4241.538461,4496.923076,4204.102564,4656.923076,4016.410256,4057.948717
44,4398.461538,4550.769230,4554.871794,4271.282051,4527.179487,4216.410256,4446.666666,4233.333333,4248.717948,4507.179487,4206.153846,4666.153846,4017.948717,4067.692307
45,4395.897435,4550.769230,4555.897435,4266.153846,4530.769230,4219.487179,4445.641025,4235.384615,4248.205128,4510.769230,4210.256410,4666.666666,4013.333333,4066.153846
46,4388.205128,4548.717948,4553.333333,4262.051282,4532.307692,4216.923076,4443.589743,4232.307692,4245.128205,4501.538461,4215.897435,4665.641025,4015.384615,4062.564102
47,4388.205128,4548.205128,4553.333333,4265.641025,4530.256410,4217.435897,4443.589743,4225.128205,4242.564102,4498.974358,4211.282051,4663.589743,4016.923076,4064.102564
48,4389.230769,4546.153846,4550.769230,4265.641025,4527.179487,4217.435897,4442.564102,4221.025641,4237.435897,4503.076923,4201.538461,4656.410256,4007.692307,4061.025641
49,4383.589743,4544.615384,4551.794871,4264.102564,4525.128205,4213.333333,4441.025641,4218.974358,4231.794871,4500.000000,4195.897435,4651.794871,4002.564102,4054.358974
50,4377.435897,4542.051282,4553.846153,4264.615384,4524.102564,4212.820512,4441.538461,4215.384615,4227.179487,4492.307692,4191.282051,4650.769230,4002.051282,4053.846153
51,4380.512820,4542.051282,4546.153846,4263.589743,4522.051282,4213.846153,4440.512820,4212.307692,4225.641025,4487.692307,4193.846153,4649.743589,3996.923077,4054.871794
52,4383.076923,4543.076923,4538.974358,4260.000000,4520.512820,4207.179487,4432.307692,4210.256410,4225.128205,4483.589743,4196.410256,4648.717948,3995.384616,4048.717948
53,4376.923076,4530.769230,4538.461538,4256.410256,4518.974358,4205.128205,4426.153846,4210.256410,4217.435897,4477.948717,4184.615384,4646.666666,3992.307693,4041.025641
54,4372.307692,4518.974358,4538.974358,4251.282051,4516.410256,4209.743589,4433.333333,4212.307692,4213.333333,4475.384615,4179.487179,4641.538461,3986.153847,4041.538461
55,4372.307692,4526.666666,4537.948717,4247.179487,4515.384615,4210.769230,4442.564102,4213.846153,4220.000000,4480.512820,4188.205128,4638.974358,3984.615385,4043.589743
56,4374.358974,4533.846153,4537.948717,4251.282051,4518.974358,4213.333333,4444.102564,4215.897435,4225.641025,4484.102564,4186.666666,4642.051282,3989.230770,4043.589743
57,4378.974358,4529.230769,4540.512820,4256.410256,4521.025641,4219.487179,4444.615384,4220.000000,4225.128205,4482.564102,4182.051282,4646.153846,3993.846154,4045.641025
58,4377.435897,4527.692307,4539.487179,4252.307692,4517.948717,4220.000000,4448.205128,4224.102564,4225.641025,4486.153846,4191.282051,4646.666666,3992.820513,4044.102564
59,4371.282051,4530.256410,4538.974358,4246.666666,4515.384615,4218.461538,4450.769230,4226.666666,4227.692307,4486.153846,4196.923076,4643.589743,3991.282052,4040.512820
60,4372.820512,4525.641025,4535.897435,4247.692307,4514.358974,4218.461538,4446.153846,4223.076923,4226.666666,4478.974358,4187.692307,4638.974358,3991.794872,4042.051282
61,4374.871794,4520.512820,4534.358974,4250.256410,4514.358974,4215.897435,4444.102564,4220.512820,4223.589743,4482.051282,4185.128205,4638.974358,3989.230770,4043.589743
62,4370.769230,4521.538461,4535.897435,4247.692307,4514.871794,4217.435897,4447.179487,4222.051282,4224.102564,4489.230769,4189.230769,4641.538461,3981.538462,4038.461538
63,4367.692307,4519.487179,4529.230769,4241.538461,4514.358974,4216.410256,4442.564102,4213.846153,4217.948717,4483.076923,4178.461538,4636.923076,3975.384616,4032.820512
64,4367.692307,4515.384615,4524.615384,4238.974358,4512.820512,4211.794871,4435.384615,4206.153846,4209.230769,4478.461538,4171.794871,4631.794871,3979.487180,4035.384615
65,4375.384615,4523.589743,4535.384615,4248.717948,4512.307692,4215.384615,4440.000000,4215.897435,4218.461538,4489.743589,4187.692307,4641.025641,3991.794872,4048.205128
66,4383.589743,4531.282051,4544.102564,4257.948717,4512.820512,4218.974358,4446.666666,4225.641025,4232.307692,4501.025641,4202.051282,4650.769230,3999.487180,4055.897435
67,4383.589743,4526.666666,4538.461538,4254.358974,4512.307692,4216.923076,4446.153846,4226.153846,4234.871794,4503.076923,4201.538461,4649.230769,4001.025641,4052.820512
68,4378.974358,4525.128205,4536.923076,4250.769230,4513.333333,4216.923076,4446.666666,4224.615384,4233.333333,4502.051282,4201.025641,4647.179487,4002.564102,4048.205128
69,4374.871794,4527.179487,4538.461538,4252.307692,4515.384615,4216.410256,4447.179487,4216.923076,4230.769230,4500.512820,4200.512820,4642.564102,3997.435898,4044.615384
70,4370.256410,4518.974358,4529.230769,4250.769230,4513.333333,4208.205128,4438.974358,4207.692307,4225.641025,4490.256410,4194.358974,4633.846153,3989.743590,4040.000000
71,4365.128205,4511.282051,4520.000000,4243.589743,4506.153846,4200.000000,4428.717948,4204.615384,4215.897435,4478.461538,4183.076923,4628.717948,3986.666667,4034.358974
72,4362.564102,4513.333333,4518.461538,4233.846153,4504.102564,4198.974358,4424.615384,4205.641025,4213.333333,4482.051282,4178.974358,4626.153846,3983.076924,4029.230769
73,4369.230769,4518.974358,4528.205128,4233.846153,4512.307692,4207.692307,4433.333333,4212.307692,4224.615384,4495.384615,4187.692307,4630.769230,3984.102565,4033.846153
74,4377.435897,4524.102564,4536.410256,4239.487179,4514.871794,4215.384615,4443.076923,4216.410256,4231.794871,4496.923076,4194.358974,4640.000000,3991.282052,4041.025641
75,4378.461538,4526.666666,4537.435897,4243.076923,4509.743589,4215.384615,4443.076923,4217.435897,4229.743589,4494.871794,4194.871794,4645.641025,3996.410257,4044.615384
76,4385.128205,4529.230769,4542.051282,4246.666666,4513.846153,4217.435897,4444.102564,4222.051282,4233.333333,4504.102564,4202.564102,4649.743589,3995.384616,4052.820512
77,4387.692307,4529.743589,4543.076923,4246.153846,4520.000000,4216.410256,4445.128205,4220.000000,4229.743589,4500.512820,4202.564102,4651.794871,3991.282052,4053.846153
78,4379.487179,4526.666666,4535.897435,4241.538461,4510.769230,4211.282051,4441.538461,4210.256410,4215.897435,4487.692307,4191.282051,4647.179487,3989.230770,4043.076923
79,4381.538461,4525.641025,4535.384615,4246.153846,4507.179487,4213.333333,4443.589743,4210.256410,4217.435897,4490.256410,4192.307692,4646.153846,3991.282052,4043.076923
80,4386.153846,4525.128205,4540.000000,4248.205128,4522.051282,4215.897435,4444.102564,4217.435897,4224.615384,4497.435897,4193.333333,4647.179487,3989.743590,4049.743589
81,4380.512820,4523.076923,4536.410256,4237.435897,4525.128205,4215.384615,4441.025641,4217.435897,4226.666666,4497.948717,4187.692307,4644.615384,3988.717949,4046.666666
82,4386.666666,4530.256410,4541.025641,4245.128205,4516.410256,4225.128205,4451.794871,4226.153846,4237.435897,4508.205128,4202.051282,4650.256410,4002.051282,4051.282051
83,4403.589743,4545.128205,4554.358974,4268.205128,4522.051282,4234.871794,4463.589743,4238.974358,4251.794871,4521.538461,4222.564102,4663.076923,4014.358974,4066.153846
84,4402.051282,4543.076923,4550.769230,4267.179487,4524.615384,4229.230769,4455.384615,4235.384615,4250.769230,4515.897435,4217.948717,4663.589743,4010.256410,4066.153846
85,4387.179487,4527.692307,4536.410256,4250.769230,4511.794871,4219.487179,4443.589743,4223.076923,4238.974358,4504.615384,4205.128205,4651.282051,4001.538461,4055.897435
86,4380.512820,4523.589743,4532.820512,4245.641025,4506.666666,4215.384615,4441.538461,4216.923076,4233.846153,4502.564102,4202.564102,4644.615384,3998.974359,4052.820512
87,4384.615384,4532.307692,4540.000000,4250.769230,4515.384615,4215.384615,4442.564102,4215.897435,4234.871794,4502.564102,4197.948717,4649.230769,3997.435898,4054.358974
88,4385.641025,4532.820512,4541.538461,4252.820512,4513.333333,4215.384615,4444.102564,4211.794871,4230.256410,4495.897435,4192.820512,4649.230769,3993.846154,4051.282051
89,4382.051282,4522.051282,4536.923076,4248.717948,4503.589743,4212.307692,4439.487179,4203.589743,4223.589743,4487.179487,4192.307692,4641.538461,3991.282052,4044.615384
90,4380.512820,4520.000000,4536.410256,4246.153846,4505.128205,4213.333333,4431.282051,4201.538461,4222.051282,4487.692307,4189.230769,4641.538461,3990.256411,4041.538461
91,4381.538461,4525.641025,4536.923076,4253.333333,4511.282051,4215.897435,4435.897435,4206.153846,4226.153846,4492.307692,4187.692307,4645.641025,3989.230770,4045.128205
92,4386.666666,4530.769230,4540.512820,4259.487179,4512.307692,4214.871794,4443.589743,4211.794871,4233.846153,4496.410256,4195.897435,4649.743589,3991.794872,4054.358974
93,4394.871794,4528.717948,4545.641025,4257.948717,4510.256410,4216.410256,4442.051282,4218.974358,4238.974358,4505.641025,4204.615384,4654.358974,4001.025641,4061.538461
94,4398.461538,4526.666666,4545.641025,4260.000000,4506.666666,4217.948717,4441.025641,4225.641025,4240.512820,4509.743589,4203.076923,4655.384615,4006.153846,4064.102564
95,4395.897435,4532.307692,4543.076923,4261.538461,4509.230769,4214.358974,4442.564102,4225.128205,4238.461538,4504.615384,4204.102564,4654.358974,4001.025641,4063.589743
96,4390.256410,4531.282051,4544.102564,4258.461538,4510.769230,4214.358974,4438.461538,4218.974358,4237.948717,4500.000000,4206.153846,4657.948717,3997.948718,4055.897435
97,4386.666666,4518.974358,4542.564102,4254.871794,4505.641025,4216.410256,4431.282051,4214.871794,4241.025641,4501.538461,4201.025641,4656.410256,4001.538461,4052.820512
98,4387.179487,4520.000000,4536.923076,4253.846153,4504.615384,4206.666666,4425.641025,4215.897435,4241.025641,4506.153846,4200.512820,4646.666666,4000.512820,4058.461538
99,4392.820512,4536.923076,4537.435897,4263.076923,4507.692307,4203.076923,4425.128205,4216.923076,4236.923076,4505.128205,4201.538461,4647.692307,3997.435898,4062.564102
100,4397.435897,4544.102564,4546.666666,4275.384615,4506.666666,4208.717948,4432.307692,4216.923076,4237.948717,4504.615384,4198.974358,4656.410256,3997.948718,4064.102564
101,4400.512820,4540.512820,4550.769230,4273.333333,4505.641025,4212.307692,4440.000000,4218.974358,4242.051282,4509.230769,4202.564102,4657.435897,4003.589743,4067.692307
102,4401.025641,4537.435897,4545.128205,4263.076923,4507.692307,4212.307692,4440.000000,4220.000000,4241.025641,4509.743589,4207.692307,4656.923076,4008.205128,4067.179487
103,4394.871794,4537.435897,4536.923076,4259.487179,4508.205128,4208.205128,4430.769230,4213.333333,4234.358974,4502.564102,4203.076923,4655.897435,4002.564102,4058.461538
104,4389.743589,4540.000000,4536.410256,4258.461538,4507.692307,4204.615384,4431.282051,4208.717948,4232.307692,4500.000000,4202.564102,4650.769230,3993.333334,4054.871794
105,4389.743589,4534.871794,4538.974358,4261.025641,4503.076923,4211.794871,4442.051282,4214.358974,4240.000000,4503.589743,4202.051282,4648.205128,3992.820513,4054.358974
106,4386.666666,4526.153846,4536.410256,4264.615384,4499.487179,4217.948717,4441.025641,4212.307692,4240.000000,4497.948717,4186.666666,4647.179487,3994.358975,4048.717948
107,4383.589743,4528.717948,4533.333333,4260.512820,4504.102564,4213.333333,4434.358974,4206.666666,4228.205128,4490.256410,4182.564102,4641.538461,3986.666667,4047.179487
108,4389.743589,4534.871794,4537.435897,4263.589743,4503.076923,4215.897435,4441.025641,4209.230769,4231.794871,4494.871794,4197.435897,4643.076923,3985.128206,4055.384615
109,4392.307692,4532.820512,4539.487179,4268.717948,4498.461538,4218.974358,4443.589743,4214.358974,4237.948717,4502.051282,4202.051282,4648.717948,3989.743590,4055.897435
110,4386.666666,4531.282051,4536.410256,4262.564102,4496.923076,4213.333333,4432.307692,4210.256410,4229.743589,4499.487179,4194.871794,4646.153846,3983.589744,4047.179487
111,4388.717948,4530.769230,4536.410256,4262.051282,4498.461538,4215.384615,4429.743589,4205.641025,4229.743589,4498.461538,4192.307692,4643.589743,3980.512821,4050.769230
112,4387.692307,4521.025641,4532.307692,4264.615384,4501.025641,4216.923076,4433.846153,4206.153846,4233.333333,4496.410256,4185.128205,4637.948717,3983.076924,4052.820512
113,4379.487179,4516.923076,4527.692307,4258.974358,4500.000000,4214.871794,4436.923076,4209.230769,4230.256410,4491.794871,4180.512820,4633.846153,3979.487180,4044.102564
114,4385.128205,4525.641025,4534.871794,4266.153846,4501.538461,4223.076923,4442.564102,4212.307692,4236.410256,4497.435897,4196.923076,4642.051282,3978.974359,4047.179487
115,4397.435897,4533.333333,4543.589743,4282.051282,4504.615384,4229.230769,4442.564102,4212.307692,4245.128205,4504.615384,4207.179487,4649.743589,3986.666667,4059.487179
116,4398.461538,4538.974358,4544.102564,4277.435897,4503.076923,4220.000000,4436.410256,4215.897435,4242.051282,4507.692307,4201.538461,4651.794871,3992.820513,4065.128205
117,4395.897435,4538.461538,4544.102564,4267.179487,4502.564102,4217.435897,4432.820512,4218.974358,4242.051282,4510.256410,4203.589743,4654.871794,3992.307693,4060.512820
118,4394.358974,4527.692307,4542.051282,4272.820512,4500.512820,4220.000000,4428.717948,4211.282051,4241.025641,4504.102564,4203.589743,4652.307692,3982.051283,4052.307692
119,4389.230769,4521.538461,4537.948717,4276.410256,4497.435897,4215.897435,4427.179487,4205.641025,4231.282051,4494.358974,4191.794871,4644.102564,3972.820513,4048.717948
120,4389.743589,4525.128205,4539.487179,4273.333333,4498.461538,4217.948717,4431.282051,4209.743589,4232.820512,4497.435897,4191.794871,4646.666666,3978.974359,4052.820512
121,4396.923076,4530.256410,4541.025641,4276.923076,4499.487179,4223.076923,4434.358974,4213.846153,4243.076923,4507.692307,4205.128205,4653.846153,3992.307693,4058.461538
122,4400.512820,4531.282051,4541.025641,4282.051282,4497.435897,4220.000000,4433.846153,4214.358974,4244.615384,4510.769230,4208.205128,4655.384615,3992.307693,4065.128205
123,4396.923076,4525.128205,4541.025641,4275.384615,4498.461538,4213.846153,4430.769230,4212.307692,4236.410256,4504.615384,4204.102564,4651.282051,3982.564103,4066.153846
124,4391.282051,4523.589743,4539.487179,4265.641025,4498.974358,4214.871794,4427.179487,4204.102564,4232.307692,4494.871794,4201.538461,4645.641025,3980.000000,4057.435897
125,4390.769230,4529.230769,4537.435897,4268.205128,4495.897435,4222.051282,4429.230769,4204.615384,4236.410256,4496.923076,4196.410256,4646.666666,3987.692308,4053.333333
126,4395.897435,4530.256410,4536.923076,4277.948717,4497.435897,4223.076923,4435.384615,4213.333333,4240.000000,4504.102564,4198.974358,4652.307692,3987.692308,4057.435897
127,4398.974358,4530.769230,4537.948717,4278.461538,4503.076923,4224.615384,4438.974358,4213.333333,4243.589743,4501.538461,4209.230769,4652.307692,3980.512821,4056.923076
128,4397.948717,4534.871794,4537.435897,4276.923076,4505.128205,4228.205128,4441.538461,4209.230769,4245.128205,4502.051282,4208.205128,4649.230769,3982.564103,4056.410256
129,4396.923076,4535.897435,4536.410256,4282.051282,4503.589743,4225.128205,4442.051282,4213.333333,4243.076923,4511.282051,4198.461538,4647.179487,3985.128206,4061.025641
130,4401.538461,4535.897435,4537.435897,4283.076923,4501.025641,4224.102564,4441.538461,4217.948717,4241.025641,4511.794871,4200.000000,4648.205128,3985.128206,4063.076923
131,4403.589743,4536.410256,4539.487179,4276.923076,4504.102564,4230.769230,4441.538461,4212.820512,4238.974358,4501.025641,4204.615384,4648.717948,3986.153847,4060.000000
132,4393.333333,4534.358974,4533.333333,4274.871794,4507.692307,4225.128205,4438.461538,4209.230769,4237.948717,4497.435897,4196.923076,4645.641025,3981.025642,4052.820512
133,4387.692307,4530.769230,4528.205128,4273.846153,4505.128205,4215.384615,4434.871794,4209.743589,4238.461538,4500.512820,4194.871794,4642.051282,3975.897436,4052.820512
134,4395.897435,4529.230769,4533.333333,4270.256410,4498.461538,4217.435897,4431.794871,4208.717948,4237.435897,4498.461538,4200.000000,4644.102564,3981.025642,4060.512820
135,4402.564102,4532.820512,4538.974358,4274.358974,4495.384615,4218.461538,4435.897435,4209.743589,4239.487179,4499.487179,4203.589743,4649.230769,3991.282052,4066.153846
136,4397.948717,4536.410256,4539.487179,4276.410256,4504.102564,4217.435897,4442.051282,4211.794871,4248.205128,4505.641025,4207.179487,4648.205128,3995.897436,4065.128205
137,4391.282051,4532.307692,4537.948717,4267.179487,4509.230769,4219.487179,4437.948717,4207.692307,4242.564102,4501.538461,4202.051282,4645.641025,3994.871795,4061.025641
138,4388.205128,4531.282051,4536.410256,4266.153846,4505.128205,4217.435897,4433.846153,4200.512820,4227.179487,4488.205128,4182.564102,4646.153846,3987.692308,4054.358974
139,4385.641025,4531.282051,4535.897435,4273.333333,4504.615384,4217.435897,4441.025641,4204.102564,4230.769230,4483.589743,4177.435897,4647.692307,3982.564103,4050.769230
140,4380.000000,4529.743589,4535.897435,4270.256410,4511.794871,4222.051282,4444.615384,4208.205128,4238.974358,4488.717948,4193.846153,4646.666666,3978.974359,4052.307692
141,4377.435897,4530.256410,4533.333333,4264.102564,4514.871794,4222.051282,4440.512820,4202.564102,4232.820512,4485.641025,4196.410256,4644.102564,3973.333334,4050.769230
142,4382.564102,4531.282051,4532.820512,4265.641025,4513.846153,4216.410256,4441.025641,4205.128205,4231.794871,4480.512820,4184.102564,4644.615384,3978.461539,4049.743589
143,4386.153846,4532.307692,4536.410256,4266.666666,4514.871794,4215.384615,4444.102564,4213.333333,4240.000000,4485.641025,4182.051282,4648.205128,3987.692308,4049.743589
144,4384.615384,4535.897435,4537.435897,4265.641025,4512.307692,4217.435897,4443.076923,4211.282051,4239.487179,4490.256410,4186.153846,4650.769230,3982.051283,4046.153846
145,4383.076923,4536.410256,4537.435897,4263.589743,4512.307692,4216.410256,4441.538461,4207.692307,4236.923076,4490.769230,4188.717948,4649.230769,3981.025642,4049.230769
146,4381.538461,4533.333333,4538.461538,4261.538461,4516.410256,4213.846153,4442.564102,4211.794871,4241.538461,4493.846153,4191.282051,4649.743589,3990.256411,4052.307692
147,4382.051282,4533.333333,4537.435897,4263.076923,4516.410256,4216.410256,4443.589743,4214.871794,4244.615384,4497.435897,4192.307692,4655.384615,3986.153847,4049.230769
148,4390.256410,4541.025641,4541.025641,4271.282051,4516.923076,4222.051282,4443.589743,4215.897435,4250.769230,4502.051282,4197.435897,4662.564102,3986.666667,4054.871794
149,4400.000000,4547.692307,4549.743589,4279.487179,4527.179487,4224.615384,4444.615384,4219.487179,4256.410256,4506.153846,4206.666666,4665.641025,4006.153846,4068.717948
150,4401.025641,4544.102564,4548.205128,4276.923076,4531.282051,4218.974358,4446.153846,4219.487179,4255.384615,4506.666666,4207.692307,4663.589743,4012.820512,4071.794871
151,4396.923076,4543.589743,4539.487179,4266.153846,4523.076923,4214.871794,4444.615384,4220.000000,4257.435897,4510.769230,4199.487179,4663.589743,4002.564102,4067.692307
152,4397.435897,4546.666666,4539.487179,4265.128205,4521.025641,4217.948717,4445.128205,4221.538461,4260.000000,4513.333333,4195.384615,4663.589743,4005.641025,4062.564102
153,4399.487179,4537.435897,4541.025641,4267.692307,4522.051282,4217.435897,4444.615384,4215.384615,4249.743589,4504.615384,4194.871794,4657.435897,4009.743589,4056.410256
154,4396.923076,4532.307692,4536.923076,4264.615384,4521.025641,4213.333333,4440.512820,4212.820512,4243.076923,4496.410256,4198.974358,4654.358974,4000.000000,4055.897435
155,4397.948717,4544.615384,4543.076923,4270.769230,4524.615384,4220.000000,4446.153846,4222.051282,4252.307692,4505.128205,4204.615384,4660.000000,4000.000000,4064.615384
156,4407.179487,4552.820512,4555.897435,4282.564102,4533.333333,4231.794871,4457.948717,4232.820512,4263.589743,4515.897435,4202.564102,4666.153846,4010.769230,4069.230769
157,4411.282051,4554.358974,4556.923076,4284.615384,4540.512820,4234.358974,4462.051282,4237.435897,4269.230769,4516.923076,4200.000000,4668.717948,4014.358974,4065.128205
158,4403.076923,4553.846153,4553.333333,4280.000000,4541.538461,4231.282051,4460.512820,4234.358974,4266.153846,4513.846153,4207.692307,4666.666666,4008.205128,4064.102564
159,4393.333333,4550.769230,4552.307692,4277.948717,4534.358974,4226.153846,4459.487179,4226.153846,4255.384615,4511.282051,4213.333333,4663.589743,4001.538461,4067.179487
160,4392.820512,4551.282051,4550.256410,4276.410256,4528.205128,4224.102564,4458.461538,4225.641025,4252.820512,4513.333333,4207.692307,4662.051282,4002.051282,4064.615384
161,4396.923076,4550.769230,4551.282051,4276.410256,4530.256410,4226.666666,4458.461538,4230.769230,4260.000000,4514.358974,4199.487179,4662.564102,4001.025641,4058.974358
162,4391.282051,4543.076923,4550.769230,4273.333333,4531.794871,4225.128205,4454.871794,4228.205128,4257.948717,4508.205128,4192.307692,4661.025641,3991.794872,4056.410256
163,4380.000000,4535.384615,4542.051282,4262.051282,4525.641025,4217.948717,4446.153846,4222.051282,4250.769230,4501.025641,4190.769230,4655.384615,3990.256411,4049.230769
164,4376.410256,4531.794871,4535.897435,4257.948717,4520.000000,4210.769230,4441.538461,4218.974358,4250.256410,4501.538461,4197.435897,4651.282051,3996.410257,4041.025641
165,4380.512820,4530.256410,4539.487179,4263.589743,4521.025641,4211.282051,4446.666666,4218.974358,4252.820512,4503.589743,4203.076923,4650.769230,3995.897436,4040.000000
166,4381.025641,4530.256410,4540.512820,4265.641025,4522.564102,4214.358974,4450.769230,4220.512820,4247.692307,4501.538461,4204.615384,4651.282051,3995.897436,4041.538461
167,4380.000000,4526.666666,4537.435897,4261.538461,4521.538461,4209.743589,4446.153846,4220.000000,4241.538461,4504.615384,4202.051282,4653.333333,4001.025641,4040.512820
168,4384.615384,4526.153846,4544.102564,4262.051282,4522.051282,4206.666666,4443.076923,4223.076923,4247.179487,4511.794871,4207.692307,4661.025641,4003.076923,4043.589743
169,4389.743589,4532.820512,4555.384615,4267.692307,4523.589743,4214.871794,4445.128205,4226.153846,4255.384615,4515.384615,4214.358974,4666.666666,4002.051282,4049.743589
170,4391.794871,4530.769230,4553.333333,4266.666666,4515.897435,4218.461538,4445.641025,4224.102564,4255.897435,4516.410256,4207.179487,4662.564102,4000.000000,4046.153846
171,4386.666666,4518.974358,4542.051282,4263.076923,4510.256410,4212.307692,4443.076923,4222.051282,4251.794871,4513.333333,4196.923076,4657.435897,3995.897436,4039.487179
172,4385.641025,4521.538461,4545.128205,4270.256410,4517.435897,4216.410256,4444.615384,4224.102564,4252.307692,4510.769230,4198.974358,4658.461538,4001.025641,4040.000000
173,4392.820512,4536.410256,4553.333333,4271.794871,4522.564102,4221.025641,4447.179487,4228.205128,4255.384615,4513.846153,4206.666666,4663.589743,4013.333333,4046.153846
174,4395.897435,4535.897435,4545.641025,4262.564102,4523.589743,4217.948717,4444.615384,4229.230769,4256.923076,4518.974358,4210.256410,4663.076923,4012.307692,4049.230769
175,4391.282051,4526.153846,4537.435897,4260.512820,4525.641025,4217.435897,4443.076923,4225.641025,4253.846153,4518.461538,4208.717948,4657.435897,4000.000000,4045.128205
176,4386.153846,4526.666666,4537.435897,4264.615384,4525.128205,4218.461538,4444.102564,4217.948717,4246.153846,4514.358974,4200.000000,4650.256410,3997.435898,4039.487179
177,4388.717948,4531.282051,4537.948717,4261.538461,4521.025641,4215.384615,4444.615384,4215.897435,4244.615384,4512.307692,4198.974358,4646.153846,4000.000000,4040.512820
178,4393.846153,4531.282051,4538.461538,4265.128205,4525.641025,4217.948717,4444.615384,4223.076923,4248.717948,4514.358974,4208.205128,4650.769230,3999.487180,4045.641025
179,4395.384615,4536.410256,4540.512820,4273.333333,4531.282051,4225.128205,4445.128205,4229.230769,4251.282051,4517.948717,4213.333333,4656.410256,4002.051282,4047.179487
180,4396.923076,4542.051282,4541.538461,4271.282051,4530.769230,4228.205128,4449.743589,4229.230769,4252.820512,4524.102564,4210.769230,4656.410256,4009.230769,4047.692307
181,4397.948717,4539.487179,4540.512820,4265.128205,4526.153846,4230.256410,4453.333333,4223.589743,4250.256410,4521.538461,4206.666666,4653.846153,4008.205128,4048.205128
182,4392.820512,4533.846153,4537.435897,4261.538461,4523.589743,4228.717948,4448.205128,4221.025641,4246.153846,4509.743589,4200.000000,4649.230769,4000.000000,4044.102564
183,4382.051282,4527.692307,4535.384615,4262.564102,4525.128205,4220.000000,4441.025641,4217.435897,4243.076923,4507.692307,4196.410256,4644.615384,3994.358975,4036.923076
184,4381.025641,4523.076923,4536.923076,4267.179487,4524.615384,4213.846153,4442.051282,4212.820512,4242.051282,4511.282051,4198.461538,4645.641025,3990.256411,4034.871794
185,4391.794871,4526.153846,4544.102564,4271.794871,4521.538461,4217.435897,4444.102564,4216.923076,4243.589743,4511.794871,4203.076923,4653.333333,3991.794872,4042.564102
186,4397.948717,4533.846153,4550.769230,4275.384615,4521.538461,4225.128205,4445.128205,4225.641025,4252.307692,4517.435897,4210.769230,4661.025641,3998.974359,4048.717948
187,4395.897435,4539.487179,4551.282051,4276.410256,4518.461538,4222.051282,4445.641025,4228.717948,4256.923076,4522.051282,4212.307692,4663.589743,4000.000000,4046.666666
188,4395.384615,4536.923076,4551.282051,4276.410256,4514.358974,4218.461538,4446.153846,4228.205128,4251.282051,4515.384615,4212.820512,4663.076923,3994.871795,4049.743589
189,4399.487179,4537.435897,4554.871794,4279.487179,4517.948717,4225.128205,4447.692307,4230.769230,4250.256410,4513.333333,4218.974358,4665.128205,3995.897436,4058.461538
190,4402.051282,4537.435897,4556.923076,4281.025641,4521.025641,4227.692307,4447.179487,4230.256410,4249.230769,4518.461538,4218.974358,4665.128205,4003.076923,4056.923076
191,4397.435897,4531.282051,4548.717948,4275.897435,4517.435897,4217.948717,4441.025641,4217.948717,4240.512820,4509.743589,4214.871794,4658.461538,4004.102564,4049.230769
192,4394.871794,4526.666666,4545.128205,4273.846153,4515.897435,4213.846153,4440.000000,4213.333333,4236.923076,4501.538461,4211.282051,4657.948717,4000.000000,4049.743589
193,4398.461538,4530.769230,4548.717948,4279.487179,4517.948717,4219.487179,4445.641025,4218.974358,4240.000000,4509.230769,4206.666666,4661.025641,3997.948718,4050.769230
194,4394.358974,4532.307692,4545.128205,4276.410256,4520.000000,4222.051282,4446.666666,4217.435897,4233.846153,4510.769230,4205.128205,4655.384615,3999.487180,4046.666666
195,4385.641025,4525.641025,4537.435897,4268.717948,4518.461538,4222.564102,4444.615384,4213.333333,4227.179487,4497.435897,4206.153846,4651.794871,3998.461539,4044.102564
196,4390.256410,4526.153846,4538.974358,4273.333333,4516.410256,4219.487179,4445.641025,4217.435897,4234.871794,4495.384615,4205.128205,4658.974358,3993.333334,4048.205128
197,4401.025641,4533.333333,4546.153846,4279.487179,4514.358974,4217.435897,4446.153846,4221.538461,4244.102564,4512.307692,4208.717948,4663.076923,3995.897436,4051.794871
198,4400.000000,4529.230769,4544.102564,4271.282051,4512.820512,4220.000000,4445.128205,4217.948717,4241.025641,4516.410256,4210.769230,4658.974358,4000.000000,4048.717948
199,4394.358974,4522.564102,4537.948717,4263.076923,4517.435897,4218.461538,4442.564102,4210.769230,4231.282051,4502.564102,4198.974358,4650.769230,3991.794872,4036.923076
200,4396.410256,4531.282051,4538.461538,4269.743589,4520.000000,4215.897435,4443.076923,4211.282051,4229.743589,4500.512820,4201.538461,4648.205128,3991.282052,4039.487179
201,4402.051282,4542.564102,4543.076923,4282.051282,4515.384615,4220.000000,4446.153846,4220.512820,4238.461538,4514.358974,4216.410256,4654.871794,4007.179487,4056.410256
202,4398.461538,4534.871794,4540.512820,4281.538461,4512.820512,4218.974358,4445.641025,4220.000000,4241.025641,4519.487179,4209.230769,4655.897435,4009.230769,4053.846153
203,4388.205128,4524.615384,4534.358974,4269.230769,4512.820512,4209.743589,4442.051282,4207.692307,4234.871794,4511.282051,4199.487179,4646.666666,3994.358975,4038.461538
204,4386.153846,4528.205128,4536.410256,4268.717948,4510.256410,4209.743589,4442.051282,4207.692307,4234.358974,4504.615384,4200.000000,4644.102564,3988.717949,4040.512820
205,4393.846153,4532.820512,4541.538461,4276.923076,4510.769230,4218.974358,4445.128205,4218.461538,4238.974358,4506.666666,4200.512820,4653.846153,3993.846154,4050.256410
206,4397.948717,4532.820512,4541.538461,4273.333333,4513.333333,4220.000000,4444.102564,4216.923076,4235.384615,4509.230769,4207.179487,4655.897435,3995.897436,4047.692307
207,4395.897435,4530.769230,4539.487179,4269.743589,4511.282051,4213.846153,4441.538461,4210.256410,4227.692307,4504.102564,4211.794871,4650.256410,3995.897436,4042.564102
208,4395.897435,4528.717948,4544.102564,4278.461538,4510.256410,4214.358974,4442.564102,4216.410256,4230.769230,4503.076923,4205.641025,4652.820512,3995.384616,4045.641025
209,4395.897435,4530.769230,4546.666666,4282.051282,4513.333333,4218.974358,4444.102564,4221.025641,4236.923076,4508.717948,4207.179487,4657.435897,3993.846154,4049.230769
210,4396.410256,4535.897435,4543.589743,4277.435897,4514.871794,4217.948717,4442.564102,4215.897435,4232.307692,4509.743589,4213.333333,4658.461538,3993.846154,4049.743589
211,4395.897435,4536.410256,4538.461538,4275.384615,4511.794871,4215.384615,4439.487179,4214.871794,4225.641025,4504.615384,4205.641025,4658.974358,3993.846154,4046.666666
212,4398.974358,4532.820512,4540.000000,4278.974358,4505.641025,4214.871794,4441.025641,4217.948717,4231.794871,4503.589743,4205.128205,4657.948717,3992.307693,4045.128205
213,4406.153846,4532.307692,4546.153846,4281.538461,4505.641025,4214.358974,4443.076923,4213.333333,4237.948717,4503.076923,4211.282051,4656.923076,3992.820513,4048.205128
214,4403.076923,4532.307692,4543.589743,4271.794871,4503.589743,4211.794871,4437.948717,4207.692307,4228.205128,4498.461538,4209.743589,4656.923076,3993.333334,4047.692307
215,4395.384615,4529.743589,4539.487179,4264.102564,4501.538461,4211.794871,4435.384615,4208.717948,4222.564102,4500.000000,4208.717948,4657.435897,3991.282052,4046.153846
216,4401.025641,4531.794871,4544.615384,4276.923076,4507.179487,4215.897435,4441.025641,4216.410256,4234.358974,4508.205128,4210.256410,4661.025641,3992.820513,4052.820512
217,4407.692307,4536.410256,4546.666666,4286.666666,4507.692307,4217.948717,4445.641025,4218.461538,4240.000000,4510.256410,4209.230769,4660.000000,3998.461539,4054.358974
218,4401.025641,4534.358974,4538.974358,4274.358974,4505.641025,4214.871794,4441.538461,4209.230769,4233.846153,4504.615384,4206.666666,4652.820512,3995.384616,4044.102564
219,4394.871794,4529.743589,4536.923076,4266.153846,4510.256410,4211.794871,4440.000000,4207.179487,4232.820512,4503.589743,4207.179487,4652.820512,3993.333334,4042.564102
220,4397.948717,4532.820512,4541.538461,4274.358974,4512.307692,4214.871794,4444.102564,4215.897435,4237.948717,4505.641025,4212.820512,4654.871794,3998.974359,4052.307692
221,4396.923076,4538.974358,4540.000000,4275.384615,4508.717948,4218.461538,4443.589743,4211.794871,4234.358974,4508.717948,4216.923076,4650.256410,4000.000000,4050.769230
222,4391.282051,4540.000000,4531.282051,4269.743589,4506.153846,4215.384615,4436.923076,4199.487179,4225.128205,4508.717948,4203.589743,4646.666666,3988.717949,4037.948717
223,4385.128205,4533.846153,4525.641025,4267.692307,4502.051282,4210.769230,4430.256410,4196.923076,4217.435897,4493.846153,4190.256410,4644.102564,3973.846154,4028.717948
224,4383.076923,4527.692307,4531.282051,4269.230769,4502.051282,4213.333333,4429.230769,4197.435897,4215.897435,4481.538461,4192.307692,4640.512820,3969.743590,4029.743589
225,4390.256410,4529.743589,4537.948717,4266.666666,4504.615384,4216.410256,4433.333333,4198.461538,4221.538461,4490.256410,4198.974358,4643.076923,3980.000000,4038.974358
226,4395.384615,4531.794871,4535.384615,4264.615384,4496.923076,4208.717948,4435.897435,4201.538461,4222.564102,4499.487179,4202.051282,4646.666666,3990.769231,4041.025641
227,4391.282051,4523.076923,4534.358974,4268.205128,4495.384615,4206.666666,4433.333333,4203.589743,4223.076923,4493.333333,4198.461538,4642.564102,3989.230770,4036.410256
228,4386.666666,4520.000000,4536.410256,4269.230769,4498.461538,4210.769230,4430.769230,4206.666666,4226.666666,4488.205128,4193.846153,4641.538461,3990.256411,4037.948717
229,4389.230769,4526.666666,4535.897435,4265.641025,4497.435897,4208.717948,4433.333333,4209.743589,4226.153846,4493.333333,4200.512820,4646.153846,3994.358975,4041.538461
230,4393.846153,4529.230769,4537.435897,4264.615384,4498.461538,4208.205128,4433.846153,4212.307692,4224.615384,4504.102564,4211.794871,4648.717948,3993.333334,4042.051282
231,4394.871794,4527.179487,4539.487179,4269.230769,4497.948717,4211.282051,4430.256410,4210.769230,4225.641025,4506.153846,4208.717948,4649.743589,3992.307693,4044.102564
232,4398.974358,4532.307692,4537.948717,4272.307692,4497.435897,4211.794871,4433.846153,4209.230769,4225.641025,4500.000000,4204.615384,4653.333333,3990.769231,4049.230769
233,4405.128205,4535.384615,4543.589743,4276.410256,4501.025641,4208.205128,4436.923076,4210.769230,4226.666666,4500.000000,4213.846153,4656.923076,3990.256411,4051.794871
234,4405.128205,4531.282051,4549.743589,4282.051282,4500.000000,4206.153846,4434.871794,4212.820512,4234.871794,4506.666666,4211.794871,4656.410256,3991.794872,4052.820512
235,4401.538461,4529.230769,4545.128205,4278.974358,4494.358974,4205.641025,4436.923076,4213.846153,4232.307692,4505.641025,4204.102564,4650.769230,3989.230770,4051.794871
236,4402.564102,4528.717948,4542.564102,4277.435897,4497.948717,4205.128205,4441.538461,4211.282051,4220.512820,4497.435897,4207.179487,4649.230769,3984.102565,4049.743589
237,4404.102564,4527.692307,4547.692307,4278.461538,4497.435897,4209.743589,4442.051282,4211.794871,4222.051282,4498.974358,4211.794871,4653.846153,3990.256411,4048.205128
238,4398.461538,4529.230769,4544.615384,4268.205128,4489.743589,4212.820512,4440.512820,4212.307692,4225.128205,4501.538461,4207.179487,4652.820512,3990.769231,4048.205128
239,4391.282051,4526.666666,4538.461538,4261.025641,4489.743589,4209.743589,4442.051282,4209.743589,4220.512820,4494.871794,4200.512820,4649.230769,3975.384616,4042.564102
240,4391.794871,4521.538461,4540.000000,4269.743589,4490.769230,4208.205128,4441.025641,4208.205128,4220.512820,4493.846153,4200.512820,4653.846153,3974.871795,4040.512820
241,4400.512820,4526.153846,4542.564102,4274.358974,4488.205128,4210.769230,4440.000000,4211.794871,4228.205128,4504.615384,4210.769230,4660.512820,3991.794872,4052.820512
242,4405.128205,4530.256410,4541.538461,4268.717948,4492.820512,4210.256410,4441.538461,4212.820512,4232.307692,4512.820512,4221.538461,4662.564102,4003.076923,4064.102564
243,4401.025641,4522.564102,4541.538461,4267.692307,4498.974358,4209.743589,4442.564102,4212.820512,4230.256410,4507.692307,4215.384615,4657.435897,4002.564102,4058.461538
244,4394.871794,4520.000000,4538.974358,4266.666666,4498.974358,4213.333333,4443.076923,4215.897435,4224.102564,4498.974358,4206.666666,4648.717948,3994.358975,4049.230769
245,4396.923076,4526.666666,4537.435897,4260.512820,4497.948717,4213.846153,4444.102564,4217.435897,4224.615384,4499.487179,4206.666666,4646.666666,3994.871795,4046.666666
246,4396.923076,4528.205128,4535.384615,4258.974358,4504.102564,4212.820512,4444.102564,4215.384615,4228.717948,4503.076923,4205.641025,4649.230769,4002.051282,4045.128205
247,4390.256410,4525.641025,4533.333333,4261.025641,4507.692307,4210.769230,4443.076923,4210.256410,4223.076923,4494.871794,4196.923076,4646.666666,3997.435898,4042.051282
248,4389.743589,4530.256410,4535.384615,4262.051282,4504.615384,4210.256410,4443.589743,4208.205128,4219.487179,4491.794871,4192.820512,4647.179487,3990.256411,4043.076923
249,4396.410256,4533.846153,4540.000000,4266.153846,4505.641025,4216.410256,4444.615384,4216.923076,4232.307692,4505.641025,4204.615384,4655.897435,3998.461539,4051.282051
250,4393.333333,4528.717948,4540.000000,4266.666666,4512.820512,4216.410256,4450.256410,4221.025641,4238.974358,4512.307692,4208.717948,4656.410256,4002.051282,4055.384615
251,4384.102564,4530.769230,4536.923076,4263.589743,4513.846153,4212.820512,4457.435897,4214.871794,4228.717948,4502.051282,4196.923076,4649.743589,3996.410257,4048.205128
252,4386.666666,4540.000000,4538.461538,4264.102564,4512.307692,4216.410256,4458.974358,4213.846153,4223.589743,4501.025641,4201.025641,4652.820512,4002.051282,4049.230769
253,4397.435897,4542.564102,4543.589743,4268.205128,4518.974358,4220.000000,4458.974358,4223.589743,4231.282051,4512.820512,4216.410256,4663.589743,4008.717948,4058.974358
254,4392.820512,4536.410256,4543.589743,4266.666666,4527.179487,4214.871794,4457.948717,4224.615384,4233.846153,4514.871794,4210.769230,4665.128205,4007.179487,4053.846153
255,4380.512820,4532.820512,4538.461538,4262.051282,4524.102564,4209.743589,4453.333333,4221.025641,4227.179487,4505.128205,4195.384615,4656.923076,4006.153846,4039.487179
