,AF3,F7,F3,FC5,T7,P7,O1,O2,P8,T8,FC6,F4,F8,AF4
0,4381.538461,6147.483647,4570.769230,4336.410256,4492.307692,4143.076923,4416.923076,4243.076923,4217.948717,4524.102564,4178.974358,4575.897435,3991.282052,4002.564102
1,4383.076923,6073.846153,4572.820512,4326.153846,4486.153846,4137.435897,4422.051282,4246.666666,4218.461538,4522.051282,4185.641025,4578.974358,3990.256411,4004.615384
2,4383.589743,6035.384615,4572.820512,4331.794871,4486.666666,4135.384615,4417.948717,4246.153846,4215.897435,4515.897435,4193.333333,4577.948717,3991.794872,4004.102564
3,4380.512820,5919.487179,4570.769230,4341.025641,4481.025641,4131.282051,4412.820512,4240.000000,4213.846153,4518.461538,4185.641025,4578.461538,3989.743590,4000.000000
4,4379.487179,5857.435897,4569.743589,4331.794871,4479.487179,4129.743589,4417.948717,4239.487179,4214.871794,4528.205128,4179.487179,4582.051282,3997.948718,4001.025641
5,4380.512820,5962.564102,4574.871794,4330.769230,4489.743589,4137.948717,4424.615384,4242.051282,4217.435897,4528.205128,4183.589743,4583.589743,4012.307692,4004.102564
6,4382.051282,6147.483647,4577.948717,4341.025641,4501.538461,4152.820512,4423.589743,4241.025641,4217.948717,4520.000000,4188.717948,4580.512820,4006.153846,4005.641025
7,4377.948717,6147.483647,4571.282051,4333.333333,4517.435897,4167.692307,4417.435897,4235.897435,4212.307692,4517.435897,4187.179487,4574.871794,3984.102565,4000.000000
8,4373.333333,6147.483647,4567.179487,4321.538461,4535.384615,4178.461538,4410.769230,4232.307692,4207.692307,4521.538461,4176.410256,4573.846153,3983.076924,3991.794872
9,4378.974358,6147.483647,4570.769230,4330.769230,4542.564102,4186.153846,4415.384615,4234.871794,4207.692307,4521.538461,4171.282051,4580.000000,4004.615384,3996.923077
10,4382.564102,6147.483647,4571.794871,4346.666666,4541.025641,4188.205128,4425.641025,4236.410256,4203.589743,4513.846153,4180.000000,4583.589743,4015.384615,4005.128205
11,4378.974358,6147.483647,4567.692307,4341.025641,4538.974358,4186.666666,4427.179487,4237.948717,4204.102564,4514.871794,4189.230769,4581.025641,4008.205128,4001.025641
12,4381.025641,6147.483647,4572.307692,4326.153846,4538.974358,4185.641025,4427.179487,4249.230769,4221.025641,4531.282051,4199.487179,4585.641025,3997.435898,3998.461539
13,4387.179487,6147.483647,4584.102564,4331.282051,4546.153846,4187.692307,4428.205128,4260.512820,4236.923076,4543.589743,4207.179487,4596.410256,4003.076923,4007.179487
14,4390.769230,6147.483647,4588.717948,4348.205128,4553.333333,4194.358974,4427.692307,4258.974358,4235.897435,4538.974358,4201.538461,4601.025641,4023.076923,4015.384615
15,4395.384615,6147.483647,4588.205128,4354.358974,4548.717948,4195.897435,4426.153846,4253.846153,4235.384615,4537.948717,4198.461538,4600.000000,4026.666666,4015.897435
16,4391.794871,6147.483647,4582.051282,4341.538461,4543.589743,4187.179487,4426.153846,4250.769230,4235.897435,4538.461538,4204.615384,4593.846153,4007.692307,4009.743589
17,4377.435897,6147.483647,4572.307692,4323.076923,4547.692307,4186.153846,4425.641025,4247.179487,4222.051282,4528.205128,4204.102564,4586.153846,3995.384616,4000.000000
18,4373.846153,6147.483647,4570.256410,4323.076923,4557.435897,4197.435897,4428.205128,4250.256410,4212.820512,4520.000000,4201.538461,4584.102564,4004.102564,3996.923077
19,4381.538461,6147.483647,4573.333333,4340.512820,4567.692307,4202.051282,4431.282051,4253.846153,4220.512820,4521.025641,4199.487179,4587.692307,4010.256410,4001.025641
20,4382.051282,6147.483647,4577.948717,4341.025641,4572.307692,4201.538461,4427.692307,4247.692307,4224.615384,4522.051282,4185.641025,4588.205128,3999.487180,3999.487180
21,4380.000000,6147.483647,4577.948717,4324.615384,4576.923076,4210.256410,4422.564102,4237.948717,4218.461538,4525.641025,4181.538461,4587.179487,3994.358975,3994.871795
22,4383.589743,6147.483647,4577.948717,4328.717948,4591.282051,4220.512820,4424.102564,4235.384615,4213.846153,4533.333333,4206.666666,4587.692307,4008.205128,3999.487180
23,4388.205128,6147.483647,4578.974358,4345.641025,4599.487179,4221.025641,4428.205128,4238.461538,4214.358974,4526.666666,4220.512820,4586.153846,4016.923076,4006.153846
24,4389.743589,6147.483647,4575.384615,4344.615384,4592.820512,4218.974358,4426.666666,4241.025641,4221.538461,4518.461538,4206.666666,4585.641025,4008.717948,4005.128205
25,4387.179487,6147.483647,4572.307692,4325.128205,4584.102564,4215.384615,4422.564102,4244.615384,4225.128205,4529.743589,4194.358974,4586.153846,4007.179487,4002.051282
26,4384.102564,6147.483647,4574.871794,4321.538461,4580.512820,4206.666666,4419.487179,4249.230769,4224.102564,4541.538461,4201.538461,4585.128205,4011.794871,4005.128205
27,4386.666666,6147.483647,4577.435897,4336.410256,4579.487179,4202.051282,4415.384615,4249.743589,4228.205128,4534.871794,4218.974358,4584.615384,4008.205128,4008.205128
28,4388.205128,6147.483647,4571.794871,4339.487179,4578.461538,4204.615384,4417.435897,4245.128205,4228.205128,4526.666666,4229.230769,4585.641025,4013.333333,4006.666666
29,4386.153846,6147.483647,4569.743589,4331.282051,4573.333333,4207.692307,4426.153846,4242.564102,4224.102564,4537.435897,4219.487179,4585.641025,4023.589743,4005.128205
30,4385.641025,6147.483647,4577.435897,4331.282051,4571.282051,4205.641025,4428.717948,4245.641025,4228.717948,4547.179487,4205.128205,4586.153846,4016.410256,4005.128205
31,4388.205128,6147.483647,4583.589743,4342.051282,4571.794871,4202.564102,4427.692307,4246.666666,4234.358974,4542.051282,4215.384615,4589.230769,4008.205128,4005.128205
32,4393.333333,6147.483647,4580.512820,4346.153846,4566.153846,4201.538461,4429.743589,4243.589743,4232.307692,4534.358974,4236.923076,4590.769230,4020.000000,4007.692307
33,4392.307692,6147.483647,4572.820512,4332.820512,4555.897435,4195.384615,4429.230769,4236.410256,4222.051282,4529.230769,4230.769230,4587.179487,4020.000000,4007.179487
34,4386.153846,6147.483647,4569.230769,4328.205128,4552.820512,4189.743589,4423.589743,4227.179487,4207.179487,4524.102564,4208.717948,4582.051282,4001.538461,4001.025641
35,4388.717948,6147.483647,4571.282051,4347.179487,4553.846153,4192.307692,4424.102564,4233.333333,4209.743589,4526.666666,4212.307692,4581.538461,3998.461539,4002.051282
36,4400.000000,6147.483647,4581.025641,4352.820512,4548.205128,4193.846153,4436.923076,4251.282051,4229.230769,4537.948717,4236.923076,4591.794871,4018.461538,4015.897435
37,4401.538461,6147.483647,4588.717948,4336.923076,4534.871794,4183.589743,4443.076923,4257.435897,4234.358974,4546.153846,4247.179487,4598.974358,4030.769230,4024.615384
38,4394.871794,6147.483647,4577.435897,4329.230769,4523.589743,4170.256410,4432.307692,4249.230769,4228.717948,4545.641025,4234.358974,4593.846153,4017.435897,4014.358974
39,4394.871794,6147.483647,4566.666666,4339.487179,4520.000000,4166.153846,4423.589743,4241.538461,4224.615384,4541.025641,4224.102564,4586.666666,4004.102564,4008.717948
40,4400.512820,6147.483647,4572.820512,4351.282051,4528.205128,4175.384615,4421.025641,4242.051282,4218.974358,4537.435897,4228.717948,4590.256410,4010.769230,4017.435897
41,4395.384615,6147.483647,4571.794871,4339.487179,4529.230769,4175.897435,4413.846153,4242.051282,4216.923076,4533.333333,4231.794871,4590.256410,4015.384615,4012.820512
42,4384.615384,6147.483647,4557.948717,4318.461538,4511.794871,4158.974358,4406.153846,4238.974358,4217.948717,4529.743589,4224.615384,4577.435897,4004.615384,3998.974359
43,4385.128205,6147.483647,4556.923076,4326.153846,4502.564102,4155.384615,4413.846153,4240.512820,4215.897435,4528.205128,4218.974358,4571.794871,3996.410257,3998.974359
44,4387.179487,6147.483647,4562.564102,4340.000000,4515.897435,4168.717948,4421.025641,4243.589743,4216.923076,4524.102564,4218.974358,4572.307692,3997.435898,4003.076923
45,4381.025641,6147.483647,4556.410256,4329.743589,4523.589743,4170.769230,4420.512820,4233.333333,4216.923076,4518.974358,4211.794871,4564.102564,3993.333334,3995.897436
46,4377.435897,6147.483647,4550.769230,4314.358974,4512.820512,4163.589743,4419.487179,4220.000000,4204.102564,4518.974358,4205.641025,4552.307692,3987.179488,3989.230770
47,4381.538461,6147.483647,4554.358974,4315.897435,4505.641025,4160.512820,4417.435897,4223.076923,4197.435897,4518.461538,4208.205128,4550.256410,3996.923077,3993.333334
48,4384.102564,6147.483647,4557.435897,4329.743589,4510.256410,4157.435897,4418.461538,4232.307692,4209.743589,4520.000000,4217.948717,4556.410256,4004.102564,3999.487180
49,4377.948717,6147.483647,4554.871794,4336.410256,4503.589743,4151.282051,4420.512820,4235.384615,4216.923076,4524.102564,4218.461538,4552.820512,3984.102565,3994.358975
50,4372.820512,6147.483647,4552.820512,4322.051282,4491.282051,4146.666666,4421.538461,4237.435897,4212.307692,4524.615384,4199.487179,4549.230769,3974.358975,3986.666667
51,4383.589743,6147.483647,4561.025641,4316.923076,4498.974358,4153.333333,4425.641025,4248.205128,4221.538461,4532.307692,4200.512820,4562.564102,4009.743589,3998.461539
52,4405.641025,6147.483647,4575.384615,4344.102564,4520.512820,4168.205128,4431.794871,4261.025641,4243.076923,4551.282051,4233.846153,4584.102564,4037.948717,4020.512820
53,4414.358974,6147.483647,4583.076923,4369.230769,4526.153846,4174.358974,4431.282051,4260.512820,4247.692307,4557.948717,4255.897435,4592.820512,4023.076923,4027.692307
54,4407.179487,6147.483647,4580.512820,4363.589743,4514.358974,4170.256410,4427.179487,4255.384615,4238.974358,4548.717948,4247.692307,4591.794871,4006.666666,4022.564102
55,4395.897435,6147.483647,4576.410256,4342.564102,4505.641025,4165.128205,4426.153846,4251.794871,4231.794871,4538.974358,4234.358974,4591.282051,4012.820512,4015.897435
56,4384.102564,6147.483647,4567.179487,4329.230769,4500.512820,4153.846153,4421.538461,4246.153846,4222.051282,4531.282051,4212.820512,4586.153846,4008.205128,4005.128205
57,4377.435897,6093.846153,4555.897435,4328.717948,4486.666666,4137.948717,4415.897435,4234.358974,4209.230769,4520.512820,4187.692307,4578.974358,3981.538462,3989.743590
58,4379.487179,5884.615384,4558.461538,4329.743589,4472.820512,4132.307692,4420.000000,4225.641025,4203.076923,4515.897435,4196.923076,4582.564102,3971.282052,3989.743590
59,4383.076923,5763.076923,4565.641025,4331.282051,4472.820512,4134.358974,4427.179487,4228.205128,4204.615384,4520.000000,4218.974358,4587.692307,3985.641026,4001.025641
60,4381.538461,5668.717948,4558.461538,4330.769230,4475.384615,4130.256410,4430.256410,4235.384615,4208.205128,4520.000000,4214.871794,4584.615384,3994.358975,3996.923077
61,4378.974358,5570.256410,4550.256410,4329.743589,4471.794871,4122.564102,4436.410256,4247.179487,4217.948717,4522.564102,4201.025641,4585.128205,3983.076924,3986.153847
62,4376.410256,5596.410256,4553.333333,4326.666666,4470.769230,4124.102564,4441.538461,4256.410256,4229.230769,4527.692307,4198.461538,4588.717948,3974.871795,3989.743590
63,4374.871794,5734.358974,4555.384615,4317.435897,4474.871794,4133.333333,4438.974358,4255.384615,4226.666666,4524.102564,4203.589743,4587.179487,3983.589744,3993.846154
64,4379.487179,5752.820512,4557.435897,4318.461538,4477.435897,4136.923076,4437.435897,4255.897435,4223.589743,4517.948717,4214.871794,4592.307692,3988.205129,3991.794872
65,4382.564102,5620.512820,4561.538461,4335.384615,4477.435897,4136.410256,4442.564102,4265.641025,4233.846153,4527.179487,4220.000000,4602.051282,3976.923077,3993.846154
66,4377.948717,5556.923076,4560.000000,4335.897435,4474.358974,4134.358974,4443.076923,4267.692307,4233.333333,4535.897435,4205.641025,4602.051282,3975.384616,3994.358975
67,4377.435897,5646.666666,4562.564102,4321.025641,4473.846153,4133.846153,4441.538461,4263.589743,4223.589743,4530.256410,4201.538461,4605.128205,3993.846154,3995.384616
68,4386.666666,5804.102564,4570.769230,4328.205128,4482.564102,4141.538461,4446.153846,4270.769230,4234.358974,4529.230769,4223.589743,4616.410256,4001.538461,4005.128205
69,4392.820512,5925.641025,4572.307692,4346.153846,4492.820512,4156.410256,4449.230769,4271.282051,4246.153846,4540.000000,4233.333333,4621.538461,3993.846154,4012.307692
70,4390.769230,5909.230769,4571.282051,4344.615384,4494.358974,4157.948717,4445.641025,4251.282051,4227.179487,4540.000000,4221.538461,4619.487179,3994.871795,4008.717948
71,4385.641025,5732.307692,4571.282051,4332.820512,4482.051282,4138.974358,4440.512820,4235.897435,4207.692307,4525.128205,4213.846153,4617.435897,3991.794872,4003.076923
72,4387.692307,5538.461538,4567.692307,4327.179487,4472.820512,4129.230769,4441.025641,4243.076923,4213.333333,4518.461538,4216.410256,4615.897435,3985.128206,4004.102564
73,4394.358974,5441.025641,4571.282051,4333.846153,4475.384615,4135.897435,4447.692307,4257.435897,4225.641025,4526.153846,4220.512820,4620.000000,3992.820513,4010.256410
74,4387.179487,5373.333333,4570.769230,4335.897435,4471.282051,4125.641025,4444.615384,4257.435897,4223.589743,4527.179487,4211.282051,4616.410256,3997.948718,4005.128205
75,4374.871794,5346.153846,4557.435897,4326.666666,4457.948717,4104.102564,4430.769230,4250.256410,4219.487179,4525.128205,4196.923076,4606.666666,3984.102565,3992.820513
76,4378.461538,5425.641025,4557.948717,4324.102564,4455.897435,4107.179487,4428.205128,4252.820512,4228.717948,4531.794871,4203.589743,4610.256410,3974.871795,3994.871795
77,4384.102564,5497.948717,4567.179487,4325.641025,4464.102564,4118.974358,4435.384615,4258.974358,4236.923076,4531.794871,4208.205128,4618.974358,3980.512821,4002.051282
78,4377.435897,5446.153846,4560.512820,4326.153846,4462.564102,4110.769230,4431.794871,4256.923076,4233.333333,4525.641025,4197.948717,4616.923076,3986.153847,3999.487180
79,4374.358974,5329.230769,4554.871794,4332.820512,4454.358974,4099.487179,4424.615384,4253.333333,4224.615384,4527.692307,4200.000000,4615.384615,3987.692308,3998.461539
80,4381.538461,5212.820512,4561.025641,4330.769230,4448.717948,4095.384615,4428.717948,4254.358974,4222.051282,4526.666666,4200.000000,4621.538461,3984.615385,4003.076923
81,4381.538461,5027.179487,4561.025641,4321.025641,4442.564102,4084.102564,4431.794871,4250.769230,4220.512820,4520.000000,4185.641025,4620.512820,3976.923077,4000.512820
82,4373.846153,4828.205128,4554.358974,4324.615384,4436.410256,4069.230769,4426.666666,4238.461538,4213.333333,4520.512820,4191.794871,4618.974358,3974.358975,3994.871795
83,4373.846153,4769.743589,4555.384615,4331.794871,4435.384615,4065.128205,4425.128205,4229.743589,4203.076923,4521.538461,4213.333333,4625.641025,3980.512821,3999.487180
84,4382.564102,4858.461538,4563.589743,4329.230769,4441.025641,4069.743589,4429.743589,4235.897435,4206.666666,4517.435897,4212.307692,4631.282051,3986.666667,4007.179487
85,4388.205128,5011.282051,4566.153846,4331.282051,4443.076923,4078.461538,4431.282051,4248.717948,4225.128205,4522.051282,4202.564102,4631.794871,3981.538462,4009.743589
86,4388.717948,5134.358974,4560.000000,4338.461538,4442.564102,4086.153846,4427.692307,4256.410256,4233.846153,4524.102564,4200.000000,4633.333333,3978.974359,4009.230769
87,4387.692307,5249.230769,4556.923076,4336.410256,4450.256410,4093.846153,4426.666666,4257.435897,4226.666666,4524.102564,4200.000000,4638.461538,3989.230770,4009.743589
88,4388.205128,5437.435897,4557.948717,4328.205128,4462.051282,4108.717948,4429.743589,4255.384615,4224.615384,4531.282051,4208.205128,4639.487179,3996.410257,4010.256410
89,4390.256410,5702.051282,4557.948717,4327.692307,4473.333333,4127.692307,4431.282051,4256.923076,4232.820512,4530.256410,4214.358974,4636.923076,3989.743590,4011.282051
90,4385.641025,5978.461538,4553.333333,4333.846153,4485.641025,4141.538461,4428.205128,4257.435897,4228.717948,4522.564102,4206.153846,4631.282051,3982.051283,4010.256410
91,4372.307692,6147.483647,4546.666666,4330.256410,4492.307692,4149.230769,4422.051282,4249.230769,4213.333333,4519.487179,4196.410256,4625.128205,3972.307693,3998.974359
92,4369.743589,6147.483647,4548.717948,4317.435897,4495.384615,4154.358974,4424.102564,4245.641025,4216.410256,4515.897435,4196.410256,4628.717948,3968.205129,3992.307693
93,4374.358974,6147.483647,4551.282051,4316.410256,4500.000000,4154.358974,4424.102564,4247.692307,4225.128205,4515.897435,4194.358974,4632.307692,3982.564103,3995.897436
94,4372.820512,6147.483647,4546.666666,4322.564102,4512.307692,4160.000000,4418.461538,4242.564102,4212.820512,4516.923076,4194.358974,4626.666666,3986.666667,3996.410257
95,4371.282051,6147.483647,4546.666666,4323.076923,4522.051282,4169.743589,4416.923076,4232.820512,4199.487179,4511.282051,4205.128205,4626.153846,3968.205129,3993.846154
96,4372.820512,6147.483647,4547.179487,4320.000000,4524.102564,4175.897435,4416.923076,4226.666666,4202.564102,4509.230769,4203.076923,4627.692307,3961.025642,3992.307693
97,4370.769230,6147.483647,4539.487179,4318.974358,4533.333333,4183.589743,4412.307692,4229.230769,4205.641025,4514.358974,4186.153846,4620.000000,3977.948718,3993.333334
98,4369.230769,6147.483647,4535.897435,4320.512820,4541.538461,4187.692307,4411.282051,4237.435897,4201.025641,4508.205128,4181.538461,4614.871794,3986.666667,3990.256411
99,4364.615384,6147.483647,4536.923076,4320.000000,4529.743589,4184.102564,4414.871794,4241.025641,4204.615384,4503.589743,4184.615384,4618.461538,3964.615385,3986.153847
100,4360.512820,6147.483647,4533.846153,4313.333333,4517.948717,4185.128205,4414.358974,4238.974358,4216.410256,4509.743589,4186.666666,4621.025641,3945.641026,3986.666667
101,4363.076923,6147.483647,4535.384615,4311.794871,4521.025641,4185.641025,4413.333333,4235.897435,4218.974358,4510.256410,4191.282051,4619.487179,3960.000000,3987.692308
102,4365.641025,6147.483647,4535.897435,4323.589743,4512.820512,4173.846153,4414.358974,4234.358974,4206.666666,4506.153846,4194.358974,4618.461538,3983.076924,3988.205129
103,4369.743589,6147.483647,4534.358974,4331.282051,4500.000000,4165.641025,4411.794871,4235.897435,4202.051282,4508.717948,4184.102564,4619.487179,3982.051283,3993.846154
104,4377.435897,6147.483647,4536.923076,4325.128205,4510.769230,4175.384615,4415.384615,4242.051282,4215.384615,4517.435897,4181.025641,4624.102564,3968.717949,4001.025641
105,4378.461538,6147.483647,4539.487179,4318.974358,4527.179487,4189.230769,4423.076923,4242.051282,4223.076923,4524.615384,4197.948717,4628.717948,3967.692308,4002.051282
106,4376.410256,6147.483647,4537.948717,4324.102564,4524.102564,4186.153846,4419.487179,4233.846153,4214.358974,4522.564102,4209.743589,4631.794871,3978.974359,4002.564102
107,4382.564102,6147.483647,4539.487179,4332.820512,4511.282051,4173.333333,4414.871794,4230.769230,4210.769230,4516.410256,4199.487179,4637.435897,3987.179488,4006.666666
108,4386.153846,6147.483647,4543.076923,4332.820512,4499.487179,4165.128205,4420.512820,4233.846153,4217.948717,4515.897435,4185.128205,4643.589743,3981.538462,4009.230769
109,4379.487179,6147.483647,4541.025641,4323.589743,4484.615384,4154.358974,4420.000000,4231.282051,4214.358974,4520.000000,4189.743589,4643.076923,3973.333334,4006.153846
110,4371.282051,6147.483647,4535.897435,4318.974358,4473.846153,4141.538461,4410.256410,4223.589743,4202.564102,4512.820512,4203.076923,4633.846153,3969.743590,3995.897436
111,4369.230769,6147.483647,4536.923076,4324.102564,4470.256410,4137.435897,4408.717948,4226.666666,4203.589743,4503.589743,4195.384615,4628.717948,3968.205129,3991.794872
112,4371.282051,6054.358974,4537.948717,4323.076923,4463.076923,4135.384615,4418.974358,4236.410256,4214.871794,4511.282051,4175.897435,4631.282051,3972.307693,3994.871795
113,4375.384615,6034.358974,4537.435897,4321.538461,4459.487179,4131.282051,4424.102564,4236.923076,4218.974358,4527.179487,4182.564102,4634.358974,3970.769231,3993.333334
114,4377.948717,5970.256410,4538.974358,4325.641025,4458.461538,4128.717948,4417.435897,4232.820512,4218.974358,4522.564102,4201.025641,4635.384615,3958.461539,3990.769231
115,4379.487179,5742.051282,4538.974358,4329.230769,4447.179487,4118.974358,4413.333333,4229.230769,4213.846153,4507.179487,4196.410256,4634.871794,3962.564103,3995.897436
116,4378.974358,5610.256410,4538.974358,4328.205128,4437.948717,4110.769230,4423.076923,4225.641025,4208.205128,4511.794871,4184.102564,4634.358974,3978.974359,3999.487180
117,4372.307692,5654.871794,4537.948717,4319.487179,4438.974358,4110.769230,4424.102564,4226.666666,4207.179487,4516.410256,4181.538461,4633.333333,3971.794872,3993.333334
118,4372.820512,5686.666666,4538.461538,4316.410256,4440.512820,4110.769230,4419.487179,4232.307692,4212.820512,4513.333333,4184.102564,4630.769230,3959.487180,3990.256411
119,4382.564102,5747.692307,4547.179487,4331.282051,4446.666666,4115.384615,4427.179487,4234.871794,4217.435897,4516.923076,4190.769230,4632.820512,3969.743590,3998.974359
120,4386.666666,6044.102564,4557.948717,4348.717948,4457.948717,4131.794871,4430.256410,4230.256410,4209.743589,4515.897435,4202.051282,4635.897435,3985.641026,4007.692307
121,4385.128205,6147.483647,4552.307692,4346.153846,4473.333333,4148.717948,4419.487179,4226.666666,4206.666666,4513.846153,4203.589743,4632.307692,3987.179488,4006.153846
122,4385.641025,6147.483647,4544.615384,4330.769230,4495.897435,4165.641025,4414.358974,4229.230769,4212.820512,4517.435897,4189.230769,4630.256410,3983.589744,4000.000000
123,4386.153846,6147.483647,4548.205128,4328.205128,4512.820512,4182.051282,4423.589743,4229.230769,4210.769230,4517.435897,4182.051282,4632.820512,3985.128206,4002.564102
124,4384.615384,6147.483647,4547.179487,4336.410256,4518.974358,4188.717948,4426.666666,4222.564102,4203.589743,4512.820512,4191.282051,4631.794871,3989.743590,4005.128205
125,4382.564102,6147.483647,4544.102564,4341.025641,4530.256410,4191.794871,4414.358974,4223.076923,4210.769230,4512.307692,4195.897435,4629.230769,3993.333334,3997.435898
126,4381.025641,6147.483647,4550.769230,4338.461538,4547.179487,4201.538461,4413.846153,4235.897435,4224.615384,4515.384615,4185.641025,4630.256410,3994.871795,3994.358975
127,4383.076923,6147.483647,4556.923076,4333.333333,4554.358974,4212.307692,4426.153846,4244.615384,4229.743589,4523.589743,4181.025641,4629.743589,3998.461539,4001.025641
128,4378.974358,6147.483647,4552.820512,4329.230769,4557.948717,4216.923076,4422.051282,4238.461538,4225.128205,4522.051282,4185.641025,4626.666666,3994.358975,3997.435898
129,4373.333333,6147.483647,4547.692307,4332.820512,4565.128205,4218.974358,4412.307692,4234.358974,4214.358974,4508.717948,4184.615384,4624.102564,3984.102565,3989.230770
130,4377.948717,6147.483647,4548.205128,4341.538461,4570.769230,4221.538461,4418.974358,4236.923076,4212.820512,4510.256410,4184.615384,4621.025641,3984.615385,3990.256411
131,4384.102564,6147.483647,4549.230769,4336.923076,4571.794871,4223.076923,4423.076923,4237.435897,4218.974358,4524.102564,4186.666666,4617.435897,3993.333334,3991.794872
132,4382.564102,6147.483647,4551.282051,4334.871794,4569.230769,4224.615384,4419.487179,4236.923076,4216.410256,4525.641025,4175.384615,4617.948717,3994.871795,3991.794872
133,4381.025641,6147.483647,4551.794871,4345.128205,4563.589743,4223.076923,4424.102564,4232.820512,4205.641025,4513.846153,4166.153846,4618.974358,3987.179488,3992.820513
134,4385.128205,6147.483647,4552.307692,4335.384615,4556.923076,4217.948717,4422.564102,4228.717948,4201.538461,4503.589743,4177.435897,4615.897435,3988.205129,3994.871795
135,4388.717948,6147.483647,4553.846153,4324.102564,4546.666666,4209.743589,4416.923076,4234.358974,4211.282051,4513.846153,4183.589743,4617.948717,3992.820513,4001.538461
136,4387.179487,6147.483647,4553.333333,4342.051282,4524.615384,4195.897435,4422.051282,4237.948717,4218.974358,4527.179487,4173.846153,4622.051282,3994.871795,4003.589743
137,4380.512820,6147.483647,4551.282051,4352.820512,4505.128205,4182.564102,4425.128205,4234.358974,4216.923076,4520.000000,4166.666666,4619.487179,3991.794872,3996.410257
138,4381.538461,6147.483647,4552.307692,4336.410256,4501.025641,4181.025641,4423.589743,4239.487179,4217.948717,4516.410256,4169.230769,4623.589743,3992.307693,3997.948718
139,4391.794871,6147.483647,4557.435897,4323.076923,4506.153846,4186.666666,4427.179487,4249.230769,4221.538461,4525.128205,4178.974358,4631.282051,3999.487180,4008.205128
140,4394.871794,6147.483647,4557.435897,4331.282051,4514.358974,4188.205128,4430.769230,4249.743589,4216.923076,4526.153846,4189.230769,4626.666666,4003.589743,4004.615384
141,4387.692307,6147.483647,4553.333333,4348.717948,4519.487179,4190.256410,4426.153846,4246.666666,4216.410256,4525.128205,4185.641025,4619.487179,3997.948718,3994.358975
142,4381.025641,6147.483647,4553.333333,4346.666666,4511.282051,4189.230769,4422.564102,4241.025641,4216.923076,4519.487179,4171.794871,4620.000000,3984.102565,3990.769231
143,4379.487179,6147.483647,4553.846153,4326.153846,4492.307692,4173.846153,4421.538461,4235.897435,4205.128205,4508.205128,4167.179487,4617.435897,3978.974359,3990.256411
144,4386.153846,6128.717948,4552.820512,4328.717948,4477.948717,4157.948717,4423.589743,4240.512820,4203.076923,4509.743589,4176.410256,4614.871794,3984.615385,3993.846154
145,4392.307692,5984.615384,4557.948717,4346.153846,4470.256410,4148.717948,4428.205128,4250.256410,4222.051282,4522.564102,4188.205128,4621.538461,3992.820513,4002.564102
146,4389.230769,5617.948717,4564.615384,4346.153846,4455.384615,4130.769230,4428.717948,4253.846153,4228.717948,4526.666666,4186.153846,4628.717948,3995.384616,4007.179487
147,4389.743589,5334.871794,4566.153846,4342.564102,4435.897435,4110.256410,4428.205128,4252.307692,4218.461538,4521.538461,4182.564102,4631.794871,3990.256411,4004.615384
148,4394.358974,5655.384615,4567.692307,4337.435897,4438.974358,4114.871794,4428.205128,4250.256410,4213.846153,4518.974358,4182.051282,4631.282051,3986.153847,4002.051282
149,4390.769230,6147.483647,4566.153846,4334.358974,4465.641025,4142.564102,4426.666666,4249.230769,4217.435897,4520.512820,4176.410256,4624.615384,3985.128206,4002.051282
150,4388.717948,6147.483647,4563.076923,4347.179487,4478.974358,4158.974358,4427.692307,4253.846153,4222.051282,4528.717948,4181.025641,4622.051282,3990.769231,4002.564102
151,4395.897435,6147.483647,4568.205128,4347.692307,4475.897435,4154.871794,4430.769230,4259.487179,4226.153846,4533.846153,4197.948717,4627.692307,4005.128205,4007.179487
152,4399.487179,6147.483647,4575.384615,4333.333333,4482.051282,4159.487179,4432.820512,4257.948717,4230.256410,4531.282051,4204.615384,4632.307692,4010.256410,4011.794871
153,4394.871794,6147.483647,4572.820512,4337.435897,4491.282051,4168.717948,4430.769230,4254.871794,4227.692307,4524.102564,4191.282051,4630.769230,3992.820513,4008.717948
154,4390.769230,6147.483647,4570.256410,4350.256410,4486.153846,4164.615384,4429.743589,4253.846153,4226.666666,4522.564102,4187.692307,4627.692307,3982.564103,4004.615384
155,4392.307692,6147.483647,4571.794871,4346.666666,4483.076923,4160.000000,4430.769230,4254.871794,4227.179487,4529.230769,4196.923076,4623.076923,3994.871795,4006.153846
156,4395.384615,6147.483647,4571.282051,4334.358974,4491.794871,4168.717948,4431.794871,4255.384615,4222.564102,4530.256410,4196.923076,4622.051282,3996.923077,4007.692307
157,4390.769230,6147.483647,4569.230769,4330.769230,4498.974358,4176.410256,4427.692307,4246.666666,4215.384615,4522.564102,4189.743589,4624.615384,3984.615385,4005.641025
158,4380.512820,6147.483647,4565.641025,4332.307692,4490.769230,4168.205128,4422.051282,4239.487179,4209.230769,4517.435897,4172.307692,4618.461538,3980.512821,3997.948718
159,4377.948717,6147.483647,4563.589743,4332.307692,4478.974358,4156.923076,4422.564102,4242.564102,4210.256410,4520.512820,4168.717948,4611.282051,3984.102565,3993.333334
160,4383.076923,6147.483647,4566.153846,4330.769230,4481.025641,4159.487179,4426.153846,4242.564102,4212.307692,4521.538461,4196.923076,4614.358974,3984.615385,3997.948718
161,4389.230769,6147.483647,4570.256410,4341.025641,4491.282051,4168.205128,4431.794871,4244.615384,4216.410256,4521.025641,4218.461538,4619.487179,3987.692308,4006.666666
162,4394.358974,6147.483647,4573.333333,4349.230769,4495.384615,4172.820512,4440.000000,4258.461538,4226.666666,4526.153846,4201.025641,4616.410256,3996.923077,4009.743589
163,4392.820512,6147.483647,4572.820512,4334.871794,4502.564102,4181.538461,4442.051282,4262.051282,4228.717948,4530.256410,4189.743589,4612.307692,3998.974359,4008.717948
164,4391.282051,6147.483647,4570.769230,4331.282051,4520.000000,4190.769230,4435.897435,4252.820512,4224.615384,4535.384615,4206.153846,4612.820512,3991.794872,4006.666666
165,4391.282051,6147.483647,4570.769230,4341.538461,4523.076923,4185.641025,4429.230769,4252.307692,4223.589743,4535.384615,4214.871794,4614.871794,3990.769231,4005.128205
166,4389.230769,6147.483647,4571.282051,4341.025641,4513.846153,4182.564102,4427.179487,4258.974358,4221.025641,4523.589743,4214.358974,4615.384615,3993.846154,4005.641025
167,4387.179487,6147.483647,4570.256410,4333.846153,4516.410256,4187.692307,4429.230769,4260.512820,4220.000000,4522.051282,4210.769230,4614.358974,3996.410257,4005.128205
168,4387.179487,6147.483647,4569.230769,4331.282051,4525.128205,4187.692307,4430.769230,4258.461538,4227.179487,4533.333333,4197.948717,4613.846153,3995.384616,4003.589743
169,4387.692307,6147.483647,4569.230769,4331.282051,4520.000000,4188.205128,4428.205128,4255.384615,4228.205128,4533.846153,4197.435897,4614.358974,3993.846154,4004.615384
170,4388.205128,6147.483647,4569.230769,4334.871794,4504.102564,4184.102564,4428.205128,4250.769230,4217.948717,4522.564102,4216.410256,4614.871794,3994.871795,4006.153846
171,4386.666666,6147.483647,4568.717948,4336.923076,4500.000000,4172.820512,4427.179487,4244.102564,4214.871794,4512.820512,4227.179487,4614.358974,3990.256411,4000.512820
172,4386.666666,6147.483647,4570.769230,4333.333333,4506.666666,4175.897435,4425.128205,4244.615384,4220.000000,4517.435897,4220.000000,4612.820512,3991.282052,3998.461539
173,4388.717948,6147.483647,4572.307692,4328.205128,4507.179487,4181.538461,4425.641025,4252.820512,4223.076923,4531.282051,4202.564102,4609.743589,3993.333334,4001.025641
174,4386.153846,6147.483647,4570.256410,4322.051282,4502.051282,4175.384615,4425.641025,4254.358974,4223.076923,4528.717948,4189.743589,4604.615384,3986.153847,3995.384616
175,4383.589743,6147.483647,4569.230769,4324.615384,4513.333333,4177.948717,4427.179487,4251.794871,4221.538461,4515.384615,4206.153846,4603.076923,3978.461539,3995.384616
176,4385.641025,6147.483647,4572.307692,4330.769230,4522.564102,4189.743589,4429.743589,4250.256410,4220.000000,4518.974358,4224.615384,4605.641025,3982.564103,4000.512820
177,4383.076923,6147.483647,4570.256410,4324.615384,4514.358974,4188.717948,4428.717948,4243.076923,4219.487179,4524.615384,4206.666666,4602.051282,3992.307693,3995.897436
178,4381.538461,6147.483647,4569.230769,4322.564102,4511.282051,4185.128205,4427.692307,4246.666666,4221.538461,4518.461538,4192.820512,4598.974358,3991.282052,3993.846154
179,4385.641025,6147.483647,4575.897435,4334.358974,4515.384615,4185.641025,4430.256410,4258.461538,4224.615384,4520.512820,4203.589743,4605.128205,3984.102565,4001.025641
180,4386.666666,6147.483647,4577.435897,4333.846153,4506.153846,4175.897435,4427.179487,4253.333333,4221.025641,4527.179487,4208.717948,4607.692307,3980.000000,4001.538461
181,4385.128205,6147.483647,4572.307692,4322.564102,4490.769230,4164.615384,4424.615384,4244.102564,4213.846153,4521.025641,4209.743589,4604.102564,3987.692308,3997.435898
182,4383.589743,6147.483647,4569.230769,4322.051282,4481.538461,4158.974358,4425.641025,4244.615384,4211.282051,4511.282051,4210.256410,4599.487179,3989.743590,3995.384616
183,4375.897435,6147.483647,4566.153846,4324.615384,4474.358974,4153.333333,4421.025641,4238.974358,4206.153846,4507.692307,4201.025641,4592.307692,3969.743590,3990.256411
184,4369.743589,6147.483647,4561.025641,4318.974358,4473.846153,4151.794871,4412.820512,4225.128205,4194.358974,4502.564102,4189.230769,4584.102564,3958.974359,3983.589744
185,4368.717948,6147.483647,4553.333333,4308.205128,4473.333333,4150.256410,4407.179487,4218.974358,4190.256410,4497.435897,4182.564102,4580.512820,3966.666667,3978.974359
186,4375.384615,6147.483647,4556.410256,4312.307692,4470.256410,4148.205128,4410.769230,4228.205128,4204.615384,4509.230769,4188.717948,4584.615384,3976.923077,3983.589744
187,4387.179487,6147.483647,4569.230769,4330.769230,4474.358974,4152.307692,4424.102564,4242.564102,4220.512820,4524.615384,4212.307692,4596.410256,3985.128206,4000.512820
188,4392.820512,6147.483647,4575.897435,4339.487179,4477.948717,4156.410256,4429.743589,4243.076923,4218.974358,4521.025641,4223.589743,4602.564102,3993.846154,4007.692307
189,4384.102564,6147.483647,4569.743589,4332.307692,4471.282051,4148.205128,4422.564102,4231.282051,4207.692307,4512.307692,4208.717948,4592.307692,3990.769231,3995.897436
190,4374.871794,6147.483647,4558.974358,4317.435897,4465.641025,4141.025641,4415.897435,4225.641025,4202.051282,4507.692307,4197.948717,4582.051282,3973.846154,3984.102565
191,4376.410256,6147.483647,4557.948717,4313.846153,4468.205128,4146.666666,4415.384615,4228.205128,4204.102564,4505.128205,4200.512820,4585.128205,3967.692308,3984.615385
192,4378.461538,6147.483647,4563.076923,4324.102564,4476.923076,4157.435897,4416.410256,4227.179487,4209.230769,4509.743589,4201.538461,4588.717948,3977.435898,3988.717949
193,4373.846153,6147.483647,4560.000000,4329.230769,4487.692307,4165.128205,4413.846153,4222.564102,4208.205128,4510.769230,4201.025641,4583.076923,3976.923077,3987.692308
194,4370.769230,6147.483647,4553.846153,4324.102564,4492.820512,4169.230769,4413.333333,4223.589743,4203.589743,4498.974358,4202.564102,4581.025641,3966.666667,3984.102565
195,4371.794871,6147.483647,4554.871794,4316.410256,4498.974358,4170.769230,4417.435897,4225.128205,4199.487179,4496.923076,4191.282051,4583.589743,3966.666667,3982.564103
196,4371.282051,6147.483647,4555.384615,4310.769230,4503.076923,4168.717948,4415.897435,4222.051282,4196.410256,4504.102564,4183.076923,4580.000000,3971.794872,3981.538462
197,4371.794871,6147.483647,4558.461538,4321.025641,4495.384615,4166.153846,4410.769230,4223.076923,4196.923076,4501.538461,4197.948717,4579.487179,3973.333334,3985.641026
198,4374.358974,6147.483647,4562.564102,4335.897435,4494.358974,4165.128205,4412.820512,4230.256410,4198.974358,4496.923076,4208.205128,4584.615384,3974.871795,3989.743590
199,4372.820512,6147.483647,4559.487179,4321.538461,4501.538461,4168.717948,4412.820512,4230.769230,4200.512820,4502.051282,4202.564102,4585.641025,3970.769231,3987.692308
200,4371.794871,6147.483647,4556.923076,4304.102564,4500.000000,4169.743589,4408.205128,4225.641025,4202.051282,4509.743589,4197.948717,4583.589743,3971.282052,3985.128206
201,4372.307692,6147.483647,4559.487179,4316.923076,4494.871794,4167.692307,4408.717948,4224.102564,4200.512820,4509.230769,4197.948717,4578.461538,3982.051283,3985.128206
202,4368.205128,6147.483647,4554.358974,4331.794871,4497.435897,4168.205128,4406.153846,4223.076923,4191.794871,4495.384615,4196.923076,4573.846153,3978.974359,3981.538462
203,4366.666666,6147.483647,4552.820512,4323.076923,4493.333333,4167.692307,4400.512820,4221.538461,4188.205128,4494.358974,4200.512820,4578.461538,3962.051283,3979.487180
204,4375.897435,6147.483647,4562.051282,4310.256410,4489.230769,4167.692307,4401.538461,4226.666666,4200.000000,4512.820512,4203.589743,4587.179487,3967.692308,3984.615385
205,4384.615384,6147.483647,4567.692307,4324.102564,4498.974358,4171.794871,4407.692307,4237.435897,4215.897435,4525.128205,4198.974358,4588.205128,3991.794872,3995.384616
206,4383.589743,6147.483647,4569.743589,4337.948717,4504.102564,4173.846153,4413.846153,4243.076923,4219.487179,4519.487179,4202.564102,4589.230769,3992.820513,4000.512820
207,4378.974358,6147.483647,4569.230769,4323.076923,4494.358974,4171.282051,4417.435897,4240.512820,4210.256410,4509.230769,4211.282051,4589.230769,3975.897436,3994.871795
208,4377.435897,6147.483647,4567.179487,4308.717948,4487.179487,4167.692307,4418.461538,4236.923076,4201.538461,4508.717948,4208.717948,4585.641025,3976.410257,3991.282052
209,4379.487179,6147.483647,4566.666666,4326.666666,4495.897435,4173.333333,4422.564102,4238.461538,4202.051282,4516.923076,4196.923076,4586.666666,3985.128206,3995.897436
210,4381.538461,6147.483647,4567.179487,4340.512820,4507.179487,4184.102564,4427.179487,4238.974358,4204.102564,4511.794871,4195.384615,4586.153846,3975.897436,3994.358975
211,4380.000000,6147.483647,4569.230769,4330.769230,4506.666666,4185.641025,4425.128205,4235.384615,4200.512820,4496.923076,4207.179487,4586.666666,3968.717949,3989.743590
212,4380.512820,6147.483647,4571.282051,4324.102564,4503.076923,4180.512820,4424.615384,4237.435897,4200.000000,4503.589743,4214.358974,4595.384615,3980.000000,3994.358975
213,4379.487179,6147.483647,4568.205128,4329.743589,4503.589743,4182.051282,4421.538461,4240.000000,4203.589743,4515.384615,4207.179487,4596.410256,3981.025642,3993.846154
214,4376.923076,6147.483647,4562.051282,4338.974358,4505.641025,4183.076923,4415.384615,4238.461538,4202.564102,4508.205128,4197.948717,4588.717948,3967.179488,3987.179488
215,4380.000000,6147.483647,4563.076923,4338.461538,4506.666666,4184.615384,4415.384615,4236.923076,4200.512820,4502.051282,4197.435897,4591.794871,3970.256411,3988.717949
216,4381.025641,6147.483647,4568.717948,4325.641025,4510.769230,4191.794871,4417.435897,4233.333333,4206.153846,4510.256410,4200.000000,4594.871794,3985.128206,3992.820513
217,4379.487179,6147.483647,4568.205128,4322.564102,4518.461538,4192.820512,4417.948717,4229.743589,4207.179487,4519.487179,4208.205128,4591.794871,3983.589744,3995.897436
218,4381.025641,6147.483647,4565.641025,4330.256410,4518.974358,4188.205128,4421.025641,4233.846153,4207.179487,4521.538461,4220.000000,4592.820512,3975.897436,3998.461539
219,4381.025641,6147.483647,4566.666666,4331.794871,4511.282051,4186.666666,4417.948717,4239.487179,4212.820512,4512.820512,4215.897435,4593.846153,3977.435898,3997.948718
220,4382.051282,6147.483647,4568.717948,4331.794871,4507.179487,4183.076923,4408.717948,4234.871794,4209.230769,4506.153846,4202.564102,4593.846153,3985.641026,3999.487180
221,4391.282051,6147.483647,4572.307692,4340.512820,4508.717948,4181.025641,4410.256410,4232.820512,4202.051282,4515.384615,4214.358974,4600.000000,3991.282052,4006.666666
222,4392.820512,6147.483647,4575.384615,4342.051282,4512.307692,4186.153846,4421.025641,4240.000000,4210.256410,4525.128205,4231.794871,4605.641025,3984.102565,4007.179487
223,4382.051282,6147.483647,4568.205128,4329.743589,4510.256410,4183.589743,4424.615384,4238.974358,4218.974358,4511.794871,4220.512820,4598.461538,3976.410257,3994.871795
224,4377.435897,6147.483647,4560.000000,4324.615384,4497.948717,4170.769230,4422.051282,4236.410256,4212.820512,4498.461538,4204.102564,4593.333333,3981.538462,3984.615385
225,4385.641025,6147.483647,4567.692307,4332.307692,4491.282051,4166.666666,4422.051282,4242.051282,4206.666666,4508.717948,4206.153846,4600.512820,3982.051283,3986.153847
226,4387.179487,6147.483647,4572.820512,4335.897435,4490.256410,4164.615384,4419.487179,4240.000000,4207.692307,4515.897435,4213.846153,4603.076923,3973.846154,3988.205129
227,4375.897435,6147.483647,4560.512820,4321.025641,4476.410256,4152.820512,4412.820512,4233.333333,4206.153846,4505.641025,4212.307692,4591.282051,3977.435898,3979.487180
228,4371.282051,6147.483647,4551.282051,4308.717948,4455.384615,4136.923076,4416.923076,4236.410256,4204.102564,4504.102564,4211.282051,4583.076923,3983.589744,3972.307693
229,4382.051282,5940.000000,4556.923076,4320.000000,4447.179487,4124.615384,4430.256410,4242.051282,4207.692307,4514.358974,4215.384615,4591.794871,3982.051283,3983.076924
230,4385.128205,5816.410256,4561.538461,4334.358974,4442.564102,4111.282051,4431.282051,4244.102564,4215.897435,4524.102564,4215.384615,4598.461538,3982.051283,3990.256411
231,4376.410256,5713.846153,4558.461538,4330.769230,4431.282051,4104.615384,4426.153846,4243.076923,4218.974358,4526.153846,4206.666666,4595.897435,3982.051283,3981.538462
232,4371.282051,5594.871794,4555.384615,4315.897435,4426.153846,4101.025641,4424.102564,4237.948717,4213.846153,4512.307692,4200.000000,4590.256410,3976.923077,3975.384616
233,4368.205128,5562.051282,4552.820512,4310.256410,4425.641025,4095.384615,4419.487179,4231.794871,4203.589743,4497.948717,4209.743589,4583.076923,3973.846154,3973.846154
234,4368.205128,5594.871794,4556.410256,4320.000000,4424.102564,4095.897435,4414.871794,4232.820512,4204.102564,4505.641025,4212.820512,4581.538461,3983.589744,3973.333334
235,4375.897435,5598.974358,4566.153846,4329.230769,4425.128205,4102.564102,4420.512820,4238.461538,4213.333333,4516.923076,4201.538461,4587.692307,3995.384616,3980.000000
236,4380.000000,5596.410256,4570.769230,4319.487179,4429.230769,4104.615384,4424.615384,4239.487179,4210.769230,4514.358974,4198.974358,4593.846153,3987.179488,3982.564103
237,4371.794871,5654.358974,4568.205128,4304.615384,4427.179487,4100.512820,4419.487179,4229.230769,4199.487179,4504.102564,4201.538461,4588.717948,3975.384616,3972.820513
238,4364.615384,5769.230769,4564.102564,4306.666666,4423.589743,4103.076923,4414.358974,4213.333333,4188.717948,4494.358974,4195.384615,4579.487179,3989.743590,3969.743590
239,4371.282051,5942.051282,4565.128205,4313.846153,4436.410256,4116.410256,4416.923076,4210.769230,4182.564102,4494.871794,4184.615384,4578.974358,3991.282052,3973.333334
240,4378.974358,6038.974358,4566.666666,4311.794871,4448.205128,4130.769230,4422.051282,4218.974358,4188.717948,4503.589743,4186.153846,4582.564102,3973.846154,3972.307693
241,4375.384615,5937.435897,4570.256410,4307.692307,4445.128205,4136.410256,4424.615384,4224.102564,4198.461538,4503.076923,4198.974358,4582.051282,3982.564103,3971.794872
242,4374.871794,5880.512820,4574.358974,4312.820512,4446.666666,4135.384615,4427.179487,4233.846153,4204.615384,4498.461538,4207.692307,4583.589743,4008.205128,3974.871795
243,4380.000000,6005.641025,4571.794871,4321.538461,4459.487179,4141.538461,4427.692307,4242.051282,4211.794871,4508.205128,4205.641025,4586.153846,4006.153846,3974.871795
244,4378.461538,6062.051282,4568.717948,4312.820512,4464.102564,4151.794871,4427.692307,4239.487179,4217.435897,4523.589743,4203.076923,4584.102564,3986.153847,3972.820513
245,4379.487179,5983.076923,4578.461538,4293.333333,4461.538461,4155.384615,4428.205128,4238.974358,4219.487179,4527.692307,4214.871794,4585.641025,3991.794872,3978.974359
246,4387.179487,5937.948717,4588.205128,4299.487179,4463.076923,4152.820512,4426.666666,4243.589743,4222.564102,4518.461538,4224.102564,4590.769230,4019.487179,3991.794872
247,4384.102564,5923.589743,4579.487179,4317.948717,4463.589743,4152.820512,4424.102564,4239.487179,4220.000000,4513.846153,4217.948717,4585.641025,4022.564102,3990.256411
248,4374.358974,5872.307692,4572.820512,4308.205128,4461.538461,4151.282051,4421.538461,4233.846153,4208.205128,4521.538461,4213.846153,4576.923076,3998.461539,3977.948718
249,4379.487179,5763.589743,4583.589743,4294.871794,4463.076923,4148.717948,4424.102564,4238.461538,4208.205128,4525.641025,4218.974358,4580.000000,3998.974359,3983.589744
250,4388.205128,5569.230769,4589.230769,4302.564102,4456.923076,4140.000000,4430.256410,4241.025641,4215.897435,4518.461538,4219.487179,4582.051282,4012.820512,3994.871795
251,4385.641025,5405.128205,4584.102564,4305.641025,4442.564102,4123.589743,4428.205128,4236.923076,4212.820512,4510.769230,4216.923076,4572.820512,4003.076923,3989.230770
252,4376.923076,5370.769230,4581.025641,4292.307692,4432.307692,4111.794871,4420.000000,4230.769230,4205.641025,4514.358974,4216.923076,4566.666666,3994.358975,3982.564103
253,4376.410256,5345.641025,4584.102564,4285.641025,4428.717948,4106.666666,4419.487179,4234.358974,4210.256410,4523.076923,4213.846153,4568.717948,4001.538461,3984.102565
254,4390.256410,5277.435897,4590.769230,4292.820512,4432.820512,4108.205128,4428.717948,4248.205128,4228.717948,4528.205128,4222.051282,4571.794871,4009.743589,3992.307693
255,4395.897435,5289.230769,4592.820512,4300.000000,4436.923076,4115.384615,4430.769230,4251.794871,4231.282051,4520.512820,4231.794871,4571.794871,4014.358974,3997.948718
256,4387.692307,5393.846153,4586.666666,4296.923076,4436.923076,4120.000000,4426.153846,4239.487179,4209.743589,4512.307692,4223.589743,4568.205128,4014.358974,3995.384616
257,4385.641025,5432.820512,4584.615384,4290.769230,4438.461538,4122.564102,4425.641025,4233.846153,4196.923076,4517.948717,4222.051282,4565.641025,4002.564102,3990.769231
258,4394.358974,5405.641025,4592.820512,4295.384615,4446.153846,4128.717948,4428.717948,4244.102564,4208.717948,4520.000000,4234.358974,4567.692307,4000.000000,3993.846154
259,4399.487179,5492.307692,4597.435897,4304.615384,4452.307692,4136.923076,4435.384615,4254.358974,4225.128205,4514.871794,4235.897435,4568.717948,4016.923076,3999.487180
