,AF3,F7,F3,FC5,T7,P7,O1,O2,P8,T8,FC6,F4,F8,AF4
0,4414.871794,4504.615384,4523.589743,4260.512820,4493.333333,4188.205128,4419.487179,4210.769230,4220.512820,4497.435897,4198.461538,4645.128205,3973.333334,4057.435897
1,4430.769230,4512.820512,4530.256410,4266.666666,4513.846153,4203.589743,4428.205128,4224.102564,4232.307692,4517.948717,4205.641025,4653.846153,3994.358975,4072.307692
2,4435.897435,4523.076923,4532.820512,4263.076923,4521.025641,4203.589743,4437.435897,4234.358974,4243.589743,4532.307692,4220.000000,4662.051282,4002.564102,4078.461538
3,4433.333333,4518.461538,4529.743589,4260.000000,4513.333333,4202.051282,4436.410256,4232.820512,4244.615384,4526.666666,4224.615384,4663.076923,4004.102564,4074.871794
4,4430.256410,4510.769230,4529.230769,4260.000000,4509.230769,4203.589743,4429.743589,4224.615384,4236.410256,4521.538461,4219.487179,4658.974358,3999.487180,4074.358974
5,4426.666666,4511.282051,4529.230769,4255.384615,4503.076923,4200.000000,4426.666666,4215.384615,4228.205128,4520.512820,4216.923076,4653.846153,3986.153847,4069.743589
6,4427.692307,4516.923076,4527.692307,4251.282051,4497.435897,4199.487179,4427.692307,4215.384615,4226.666666,4511.282051,4216.923076,4651.794871,3982.564103,4064.102564
7,4432.307692,4520.512820,4528.205128,4254.358974,4502.564102,4201.025641,4428.205128,4220.512820,4227.692307,4504.615384,4219.487179,4656.923076,3988.205129,4068.717948
8,4435.384615,4521.025641,4535.384615,4263.076923,4508.717948,4202.051282,4428.717948,4221.025641,4230.256410,4511.794871,4222.051282,4661.538461,3993.846154,4074.871794
9,4443.076923,4524.615384,4542.051282,4267.692307,4512.820512,4207.692307,4435.897435,4219.487179,4232.820512,4516.923076,4222.564102,4662.051282,4003.076923,4076.923076
10,4442.051282,4529.230769,4536.923076,4259.487179,4517.435897,4207.692307,4438.461538,4216.923076,4227.179487,4505.641025,4215.384615,4656.923076,4000.512820,4073.846153
11,4433.333333,4526.666666,4530.256410,4251.282051,4513.846153,4199.487179,4431.794871,4210.769230,4221.025641,4493.333333,4208.205128,4650.256410,3982.051283,4065.641025
12,4434.871794,4520.512820,4532.820512,4256.410256,4504.102564,4200.000000,4427.692307,4212.307692,4223.076923,4500.000000,4212.820512,4650.769230,3977.948718,4065.641025
13,4439.487179,4521.025641,4536.410256,4265.128205,4502.051282,4205.128205,4429.743589,4218.974358,4227.179487,4511.282051,4212.820512,4651.282051,3987.692308,4070.256410
14,4436.923076,4523.589743,4535.897435,4263.589743,4511.282051,4202.564102,4430.256410,4218.974358,4220.000000,4499.487179,4206.666666,4648.717948,3981.025642,4067.179487
15,4435.897435,4523.076923,4537.435897,4257.435897,4517.948717,4200.000000,4429.743589,4213.333333,4214.358974,4482.564102,4206.666666,4647.179487,3968.205129,4062.051282
16,4434.871794,4518.974358,4536.410256,4252.307692,4504.102564,4200.000000,4430.256410,4207.692307,4216.923076,4489.230769,4201.025641,4642.564102,3972.820513,4060.000000
17,4427.179487,4509.230769,4529.743589,4248.205128,4489.230769,4196.410256,4427.692307,4208.205128,4217.435897,4497.435897,4190.256410,4635.897435,3975.897436,4054.871794
18,4426.666666,4504.102564,4525.128205,4244.102564,4500.512820,4198.974358,4426.666666,4214.358974,4213.846153,4491.282051,4195.384615,4637.948717,3970.769231,4053.846153
19,4431.282051,4508.205128,4524.615384,4243.589743,4516.410256,4204.615384,4431.282051,4220.000000,4218.461538,4494.358974,4203.076923,4643.589743,3969.743590,4058.974358
20,4428.717948,4512.820512,4523.589743,4243.076923,4506.153846,4199.487179,4430.769230,4223.076923,4226.153846,4500.000000,4197.435897,4640.512820,3969.230770,4058.974358
21,4428.205128,4509.230769,4523.076923,4242.051282,4488.717948,4194.871794,4426.153846,4222.051282,4224.615384,4491.794871,4197.435897,4636.410256,3970.256411,4056.410256
22,4432.307692,4504.615384,4527.692307,4240.000000,4493.846153,4199.487179,4433.846153,4223.589743,4223.589743,4494.871794,4204.615384,4641.538461,3976.923077,4058.461538
23,4431.794871,4503.589743,4530.256410,4238.974358,4505.641025,4202.564102,4442.564102,4226.153846,4229.230769,4503.589743,4204.615384,4646.153846,3976.410257,4061.025641
24,4428.717948,4508.205128,4526.666666,4233.846153,4502.051282,4197.948717,4432.307692,4221.538461,4228.717948,4495.384615,4204.615384,4643.589743,3969.743590,4060.000000
25,4434.871794,4516.410256,4529.230769,4228.717948,4496.923076,4198.461538,4429.230769,4219.487179,4225.128205,4494.871794,4208.205128,4647.692307,3973.846154,4064.102564
26,4438.974358,4521.025641,4534.358974,4233.333333,4500.512820,4201.538461,4443.076923,4230.256410,4231.794871,4511.282051,4208.205128,4657.435897,3982.564103,4070.769230
27,4432.307692,4519.487179,4531.794871,4235.897435,4497.948717,4204.102564,4445.641025,4237.948717,4235.384615,4510.769230,4205.641025,4651.282051,3978.461539,4065.641025
28,4427.692307,4515.384615,4527.692307,4231.282051,4498.974358,4206.666666,4439.487179,4235.897435,4232.307692,4501.025641,4211.282051,4645.641025,3970.256411,4057.948717
29,4431.794871,4515.897435,4528.717948,4233.846153,4513.846153,4210.769230,4443.076923,4235.897435,4234.871794,4505.641025,4214.871794,4655.897435,3974.358975,4063.589743
30,4438.461538,4520.000000,4529.743589,4238.974358,4516.410256,4211.282051,4441.538461,4233.333333,4235.384615,4508.717948,4209.230769,4658.974358,3985.641026,4071.282051
31,4443.076923,4524.102564,4530.256410,4236.923076,4506.153846,4205.128205,4433.846153,4228.205128,4227.179487,4505.641025,4208.205128,4652.820512,3984.102565,4069.230769
32,4445.641025,4523.589743,4532.307692,4236.923076,4506.153846,4201.538461,4436.923076,4226.666666,4227.692307,4505.641025,4220.000000,4658.461538,3980.512821,4069.230769
33,4442.564102,4520.000000,4535.897435,4244.615384,4508.205128,4201.538461,4442.564102,4229.230769,4231.282051,4501.538461,4222.051282,4665.641025,3978.461539,4068.205128
34,4440.000000,4525.641025,4534.358974,4248.205128,4506.666666,4202.051282,4442.051282,4229.743589,4224.102564,4494.871794,4208.205128,4659.487179,3975.384616,4064.102564
35,4447.179487,4537.948717,4532.307692,4247.692307,4512.820512,4206.666666,4441.025641,4231.282051,4222.051282,4498.974358,4206.153846,4655.384615,3980.000000,4068.717948
36,4455.384615,4546.666666,4536.923076,4249.230769,4518.974358,4213.333333,4445.641025,4236.410256,4234.358974,4505.641025,4216.410256,4657.435897,3984.102565,4075.897435
37,4450.256410,4543.076923,4537.948717,4255.384615,4511.794871,4216.410256,4446.666666,4238.461538,4235.897435,4508.205128,4214.871794,4653.846153,3976.923077,4070.769230
38,4442.051282,4538.461538,4531.282051,4261.538461,4508.205128,4215.384615,4444.102564,4233.333333,4228.717948,4512.307692,4209.743589,4647.179487,3974.358975,4062.564102
39,4443.589743,4540.512820,4529.230769,4263.589743,4506.666666,4207.692307,4443.589743,4225.641025,4231.794871,4508.205128,4211.282051,4649.743589,3982.564103,4064.615384
40,4440.512820,4533.846153,4529.230769,4265.641025,4492.307692,4198.974358,4442.564102,4223.589743,4231.794871,4499.487179,4204.102564,4650.256410,3983.589744,4064.102564
41,4431.282051,4521.025641,4527.692307,4279.487179,4494.358974,4206.153846,4441.538461,4229.743589,4228.205128,4499.487179,4194.871794,4643.589743,3980.512821,4061.538461
42,4430.769230,4529.230769,4530.769230,4297.435897,4520.512820,4221.025641,4445.641025,4235.897435,4233.846153,4507.179487,4204.102564,4646.153846,3989.230770,4068.205128
43,4433.333333,4547.179487,4532.820512,4304.102564,4526.153846,4217.948717,4447.692307,4231.282051,4231.282051,4501.538461,4211.282051,4654.358974,3994.358975,4074.871794
44,4426.153846,4543.076923,4531.282051,4306.153846,4505.128205,4204.615384,4441.025641,4220.512820,4218.461538,4491.282051,4199.487179,4651.794871,3984.615385,4071.794871
45,4421.538461,4538.974358,4534.871794,4317.435897,4504.102564,4202.051282,4438.974358,4216.410256,4214.358974,4495.897435,4190.769230,4647.179487,3980.000000,4067.692307
46,4424.102564,4548.717948,4537.435897,4327.692307,4520.512820,4205.128205,4443.076923,4215.384615,4217.435897,4500.000000,4196.410256,4652.307692,3995.384616,4073.333333
47,4421.025641,4547.692307,4531.794871,4323.589743,4515.897435,4201.025641,4437.948717,4215.897435,4214.871794,4495.897435,4200.000000,4654.358974,4007.179487,4077.435897
48,4412.820512,4543.589743,4529.230769,4321.025641,4501.025641,4198.974358,4435.384615,4222.051282,4217.948717,4494.358974,4199.487179,4652.820512,4002.051282,4076.410256
49,4408.205128,4543.589743,4532.307692,4324.102564,4506.153846,4203.589743,4443.589743,4226.153846,4224.615384,4497.435897,4202.051282,4653.333333,3994.358975,4072.820512
50,4395.897435,4531.282051,4525.128205,4316.410256,4508.205128,4202.564102,4440.000000,4221.025641,4218.461538,4495.897435,4195.897435,4641.538461,3982.051283,4060.512820
51,4376.923076,4515.897435,4512.820512,4305.128205,4498.974358,4194.871794,4428.205128,4211.282051,4207.692307,4484.615384,4182.564102,4626.153846,3969.230770,4047.179487
52,4380.512820,4522.051282,4511.282051,4308.205128,4502.051282,4201.538461,4437.948717,4214.358974,4211.794871,4478.974358,4183.076923,4628.717948,3975.384616,4051.282051
53,4393.333333,4532.820512,4516.923076,4314.358974,4509.743589,4211.794871,4451.282051,4223.076923,4219.487179,4482.564102,4189.230769,4636.410256,3983.589744,4060.000000
54,4388.205128,4535.384615,4522.051282,4310.256410,4507.692307,4206.666666,4448.205128,4222.051282,4217.948717,4489.743589,4185.641025,4630.769230,3975.897436,4053.333333
55,4383.076923,4538.974358,4524.102564,4308.717948,4507.179487,4206.666666,4451.282051,4224.615384,4221.538461,4494.358974,4184.615384,4629.743589,3971.794872,4051.794871
56,4390.769230,4538.974358,4522.564102,4313.333333,4507.179487,4212.820512,4457.948717,4230.769230,4232.307692,4502.051282,4193.333333,4637.948717,3984.615385,4060.512820
57,4393.333333,4535.384615,4521.538461,4315.897435,4507.179487,4210.769230,4453.333333,4228.205128,4234.871794,4512.307692,4202.564102,4642.051282,3991.794872,4064.615384
58,4390.256410,4533.846153,4524.615384,4311.794871,4516.923076,4211.794871,4453.333333,4220.512820,4231.282051,4510.256410,4203.076923,4643.589743,3991.794872,4068.205128
59,4395.384615,4538.461538,4528.205128,4308.205128,4522.051282,4214.871794,4458.974358,4219.487179,4228.205128,4497.435897,4200.000000,4647.179487,3995.384616,4072.307692
60,4398.974358,4547.692307,4528.717948,4310.256410,4510.769230,4207.692307,4451.794871,4220.512820,4227.692307,4495.384615,4203.076923,4650.769230,3994.358975,4071.282051
61,4395.897435,4549.743589,4529.230769,4313.846153,4502.051282,4202.564102,4442.564102,4213.846153,4229.230769,4505.641025,4209.230769,4648.205128,3988.717949,4071.282051
62,4394.871794,4541.538461,4529.743589,4313.846153,4505.128205,4205.128205,4443.589743,4206.666666,4226.153846,4506.666666,4205.641025,4641.025641,3987.692308,4071.794871
63,4396.410256,4535.384615,4527.692307,4312.307692,4508.717948,4201.025641,4442.051282,4204.615384,4216.410256,4497.948717,4193.846153,4634.871794,3990.769231,4065.128205
64,4391.794871,4537.948717,4525.128205,4307.179487,4507.179487,4196.923076,4439.487179,4202.564102,4213.333333,4492.820512,4180.512820,4631.794871,3988.717949,4058.974358
65,4384.615384,4535.897435,4525.641025,4300.512820,4507.692307,4204.615384,4442.564102,4206.666666,4221.538461,4492.820512,4177.435897,4633.333333,3980.512821,4060.000000
66,4386.666666,4532.307692,4528.717948,4302.051282,4513.333333,4211.794871,4445.641025,4213.846153,4226.153846,4495.897435,4187.179487,4637.435897,3976.410257,4060.000000
67,4393.333333,4540.000000,4527.692307,4306.153846,4510.256410,4206.153846,4443.589743,4209.230769,4220.000000,4496.923076,4191.794871,4639.487179,3980.000000,4060.512820
68,4394.871794,4549.743589,4526.666666,4308.205128,4505.128205,4202.564102,4441.538461,4203.589743,4219.487179,4500.512820,4192.307692,4637.435897,3987.692308,4064.102564
69,4393.333333,4548.205128,4529.230769,4308.717948,4512.307692,4210.256410,4443.076923,4209.743589,4225.641025,4501.538461,4195.384615,4638.461538,3989.743590,4064.615384
70,4398.461538,4543.589743,4530.256410,4307.179487,4516.410256,4211.794871,4446.666666,4213.846153,4222.564102,4496.923076,4198.461538,4642.051282,3983.076924,4064.102564
71,4402.564102,4543.076923,4527.692307,4305.128205,4506.666666,4201.025641,4444.615384,4205.641025,4214.358974,4494.871794,4195.384615,4641.025641,3973.333334,4064.102564
72,4400.512820,4542.051282,4527.179487,4300.000000,4500.000000,4197.948717,4435.384615,4202.564102,4214.871794,4496.410256,4189.743589,4640.000000,3970.769231,4062.051282
73,4405.128205,4538.974358,4527.692307,4294.871794,4512.307692,4204.615384,4435.897435,4206.153846,4220.512820,4500.000000,4193.333333,4645.128205,3980.000000,4065.641025
74,4408.717948,4538.461538,4529.230769,4291.794871,4515.384615,4206.666666,4442.564102,4206.666666,4220.512820,4504.102564,4195.897435,4645.128205,3987.179488,4069.743589
75,4402.564102,4538.461538,4527.179487,4289.743589,4503.076923,4201.538461,4436.923076,4203.076923,4215.897435,4495.897435,4191.282051,4635.897435,3981.025642,4063.589743
76,4396.923076,4540.512820,4520.512820,4284.102564,4502.564102,4198.461538,4431.282051,4197.435897,4214.871794,4486.666666,4184.615384,4630.769230,3967.692308,4052.307692
77,4407.692307,4550.256410,4522.051282,4284.615384,4518.974358,4207.692307,4441.538461,4201.025641,4224.615384,4501.025641,4187.179487,4637.435897,3969.743590,4055.897435
78,4422.564102,4558.461538,4531.794871,4295.897435,4528.717948,4218.461538,4450.256410,4213.333333,4236.410256,4518.974358,4197.435897,4648.205128,3986.153847,4071.794871
79,4418.974358,4548.205128,4532.820512,4293.846153,4515.897435,4213.846153,4447.179487,4216.410256,4235.384615,4514.871794,4202.051282,4648.205128,3990.256411,4074.871794
80,4409.230769,4534.871794,4524.102564,4283.076923,4497.948717,4204.102564,4442.051282,4209.743589,4226.666666,4508.205128,4197.435897,4640.000000,3982.564103,4064.102564
81,4410.256410,4537.435897,4520.000000,4284.615384,4494.358974,4201.538461,4438.461538,4208.717948,4225.128205,4508.717948,4192.307692,4637.948717,3980.000000,4060.512820
82,4413.846153,4536.410256,4520.512820,4286.666666,4502.564102,4201.538461,4439.487179,4209.230769,4224.102564,4507.179487,4196.923076,4642.051282,3977.948718,4065.128205
83,4409.743589,4527.692307,4518.461538,4276.923076,4507.179487,4205.128205,4443.589743,4207.692307,4221.025641,4503.589743,4194.358974,4637.948717,3970.769231,4060.512820
84,4405.128205,4528.717948,4516.923076,4272.307692,4507.692307,4213.333333,4445.128205,4211.282051,4225.128205,4504.102564,4182.051282,4632.820512,3965.128206,4055.384615
85,4402.564102,4529.230769,4515.384615,4275.384615,4506.153846,4209.230769,4445.128205,4210.769230,4225.641025,4499.487179,4179.487179,4630.769230,3963.589744,4054.871794
86,4399.487179,4524.615384,4510.256410,4272.307692,4499.487179,4200.512820,4443.076923,4205.641025,4219.487179,4490.256410,4181.025641,4622.051282,3964.102565,4051.282051
87,4405.641025,4531.794871,4512.307692,4274.358974,4500.000000,4204.102564,4442.051282,4211.794871,4224.615384,4496.410256,4183.076923,4620.512820,3971.282052,4053.846153
88,4420.000000,4547.692307,4526.153846,4283.589743,4514.871794,4214.871794,4444.615384,4221.538461,4236.410256,4516.410256,4194.358974,4636.923076,3979.487180,4064.615384
89,4426.666666,4552.820512,4534.871794,4285.641025,4523.076923,4216.410256,4446.153846,4217.948717,4233.333333,4522.051282,4203.076923,4648.205128,3979.487180,4069.743589
90,4416.410256,4541.538461,4525.128205,4284.102564,4509.743589,4205.641025,4440.512820,4209.230769,4220.512820,4506.153846,4192.307692,4636.923076,3976.410257,4061.025641
91,4405.641025,4529.230769,4513.333333,4283.076923,4504.102564,4203.589743,4434.358974,4202.051282,4218.974358,4492.307692,4178.461538,4624.615384,3972.307693,4051.794871
92,4407.692307,4530.769230,4516.410256,4282.051282,4515.897435,4212.307692,4440.512820,4200.000000,4224.102564,4501.025641,4181.538461,4627.692307,3971.794872,4052.307692
93,4414.871794,4543.076923,4523.589743,4280.512820,4517.948717,4214.871794,4445.641025,4204.102564,4226.666666,4512.307692,4189.230769,4631.794871,3973.333334,4055.897435
94,4418.974358,4550.256410,4523.589743,4283.589743,4514.358974,4212.307692,4442.564102,4208.205128,4226.153846,4507.692307,4192.307692,4631.282051,3977.435898,4061.025641
95,4426.666666,4554.871794,4527.692307,4287.692307,4519.487179,4212.820512,4440.512820,4209.230769,4224.102564,4502.564102,4198.974358,4642.564102,3987.692308,4071.794871
96,4438.974358,4558.461538,4536.410256,4281.538461,4513.846153,4207.179487,4436.923076,4204.615384,4222.564102,4507.692307,4205.641025,4657.435897,3989.743590,4080.000000
97,4440.000000,4551.282051,4540.512820,4275.897435,4498.461538,4196.923076,4428.205128,4199.487179,4223.076923,4513.333333,4199.487179,4656.410256,3985.128206,4080.512820
98,4434.358974,4544.102564,4542.564102,4281.025641,4502.051282,4200.000000,4426.666666,4205.128205,4225.128205,4513.846153,4194.871794,4651.794871,3989.230770,4081.025641
99,4434.871794,4548.717948,4538.974358,4281.025641,4517.435897,4209.230769,4435.897435,4209.230769,4225.128205,4508.205128,4195.897435,4650.256410,3991.282052,4078.461538
100,4434.358974,4552.820512,4530.769230,4274.871794,4518.974358,4210.256410,4442.564102,4206.153846,4223.076923,4502.051282,4192.307692,4640.512820,3977.948718,4067.179487
101,4427.179487,4546.153846,4525.641025,4276.923076,4512.307692,4211.794871,4443.076923,4208.205128,4220.512820,4504.615384,4187.692307,4632.820512,3969.743590,4056.410256
102,4420.512820,4536.923076,4518.974358,4276.410256,4508.205128,4212.820512,4434.358974,4205.128205,4214.871794,4503.589743,4180.512820,4629.743589,3968.205129,4051.794871
103,4420.000000,4535.384615,4511.794871,4269.230769,4510.256410,4206.153846,4427.179487,4198.461538,4214.358974,4496.410256,4175.384615,4627.179487,3966.153847,4053.846153
104,4422.564102,4543.076923,4517.948717,4270.769230,4518.974358,4205.128205,4434.358974,4202.564102,4221.538461,4498.461538,4186.153846,4633.846153,3974.358975,4064.615384
105,4429.743589,4549.230769,4529.230769,4272.820512,4521.538461,4214.358974,4441.025641,4207.179487,4226.153846,4508.717948,4198.974358,4642.564102,3988.205129,4070.769230
106,4431.282051,4546.153846,4531.282051,4270.769230,4513.846153,4214.358974,4438.974358,4206.153846,4225.641025,4515.897435,4192.820512,4637.435897,3992.307693,4067.692307
107,4428.717948,4547.692307,4529.230769,4275.384615,4507.692307,4209.230769,4440.512820,4210.769230,4227.179487,4515.897435,4185.641025,4629.743589,3986.666667,4064.102564
108,4430.256410,4556.410256,4528.205128,4276.410256,4512.307692,4215.384615,4445.128205,4219.487179,4234.358974,4513.846153,4189.743589,4634.871794,3980.512821,4062.051282
109,4428.205128,4549.743589,4524.615384,4265.641025,4518.461538,4216.410256,4443.076923,4217.948717,4234.358974,4514.358974,4188.205128,4638.461538,3980.512821,4057.948717
110,4425.128205,4534.871794,4518.461538,4261.025641,4518.461538,4212.307692,4441.025641,4214.871794,4230.769230,4513.846153,4186.153846,4632.307692,3984.102565,4059.487179
111,4426.153846,4535.897435,4515.897435,4264.102564,4521.025641,4217.948717,4440.512820,4217.948717,4234.358974,4516.410256,4194.871794,4631.282051,3988.205129,4064.102564
112,4426.153846,4539.487179,4520.512820,4259.487179,4517.435897,4215.384615,4432.820512,4213.333333,4232.307692,4518.461538,4200.512820,4638.974358,3994.871795,4067.179487
113,4427.692307,4540.000000,4529.230769,4260.512820,4504.615384,4202.051282,4423.076923,4202.564102,4222.051282,4511.794871,4198.461538,4646.153846,3997.948718,4073.846153
114,4437.948717,4546.666666,4538.461538,4273.333333,4503.589743,4199.487179,4423.589743,4205.641025,4222.051282,4506.666666,4204.102564,4653.846153,3992.307693,4082.051282
115,4448.717948,4555.897435,4544.615384,4278.974358,4513.846153,4205.641025,4434.358974,4220.000000,4230.769230,4515.384615,4211.794871,4662.564102,3985.641026,4082.051282
116,4450.769230,4558.461538,4543.589743,4274.358974,4515.897435,4208.205128,4443.589743,4228.205128,4236.923076,4525.128205,4208.205128,4662.564102,3992.307693,4082.051282
117,4453.846153,4555.897435,4539.487179,4271.794871,4516.410256,4211.282051,4445.128205,4230.256410,4242.051282,4525.128205,4200.000000,4654.358974,3998.461539,4082.051282
118,4440.512820,4543.589743,4531.794871,4263.076923,4514.358974,4208.717948,4438.461538,4218.461538,4234.358974,4515.897435,4187.692307,4640.512820,3981.538462,4066.153846
119,4412.820512,4526.153846,4521.025641,4250.256410,4498.974358,4201.025641,4430.256410,4201.025641,4215.384615,4501.025641,4177.435897,4627.692307,3965.128206,4048.205128
120,4405.641025,4525.641025,4524.615384,4250.256410,4502.051282,4203.589743,4428.717948,4203.589743,4212.307692,4502.051282,4188.717948,4632.307692,3983.076924,4054.871794
121,4415.897435,4535.897435,4534.871794,4255.384615,4525.128205,4211.794871,4431.794871,4215.384615,4220.000000,4511.794871,4207.179487,4644.102564,4000.000000,4066.153846
122,4414.871794,4537.948717,4533.846153,4249.743589,4526.666666,4210.769230,4435.384615,4212.820512,4219.487179,4505.128205,4201.538461,4644.615384,3988.205129,4061.538461
123,4414.358974,4535.897435,4529.230769,4247.179487,4513.333333,4205.641025,4438.974358,4214.871794,4221.538461,4498.974358,4189.743589,4643.589743,3983.589744,4059.487179
124,4428.205128,4546.153846,4533.846153,4258.974358,4515.897435,4211.282051,4443.589743,4229.743589,4236.410256,4511.794871,4200.000000,4650.256410,3995.897436,4070.769230
125,4433.846153,4558.461538,4537.435897,4265.641025,4518.974358,4217.435897,4443.076923,4235.384615,4244.102564,4518.974358,4209.230769,4652.307692,3996.410257,4072.820512
126,4430.256410,4553.333333,4532.820512,4259.487179,4508.717948,4215.897435,4443.076923,4230.769230,4240.000000,4513.846153,4202.564102,4647.692307,3989.230770,4066.153846
127,4435.897435,4542.564102,4531.282051,4252.820512,4504.102564,4218.974358,4449.230769,4234.871794,4243.076923,4522.564102,4204.615384,4648.717948,3995.897436,4068.205128
128,4443.589743,4538.461538,4534.358974,4253.333333,4510.769230,4225.641025,4459.487179,4244.615384,4254.871794,4541.538461,4218.461538,4656.923076,4003.589743,4077.948717
129,4444.102564,4529.743589,4535.384615,4252.307692,4509.743589,4224.102564,4462.051282,4247.179487,4256.410256,4540.512820,4216.410256,4662.564102,4003.076923,4081.538461
130,4435.897435,4515.897435,4534.871794,4247.179487,4503.076923,4214.358974,4450.769230,4242.564102,4246.666666,4516.923076,4198.974358,4653.846153,3998.461539,4072.307692
131,4421.538461,4517.435897,4529.743589,4245.641025,4504.102564,4207.692307,4440.512820,4233.333333,4236.410256,4503.076923,4189.230769,4637.435897,3983.589744,4058.974358
132,4414.871794,4527.179487,4518.461538,4245.128205,4505.641025,4206.666666,4433.333333,4220.000000,4222.051282,4504.615384,4184.102564,4628.717948,3968.717949,4049.230769
133,4415.897435,4531.794871,4512.820512,4241.538461,4510.256410,4209.743589,4429.230769,4211.282051,4210.769230,4494.871794,4176.923076,4626.153846,3963.076924,4044.102564
134,4422.051282,4541.025641,4521.538461,4245.128205,4524.102564,4215.384615,4436.923076,4215.897435,4217.948717,4489.230769,4183.076923,4632.820512,3968.205129,4052.820512
135,4433.846153,4551.794871,4532.820512,4255.384615,4527.692307,4216.923076,4444.615384,4222.051282,4229.230769,4502.051282,4196.923076,4649.230769,3982.564103,4069.743589
136,4442.564102,4555.897435,4533.333333,4256.923076,4515.897435,4212.307692,4441.538461,4220.000000,4231.794871,4513.333333,4201.538461,4655.384615,3993.846154,4075.897435
137,4445.128205,4555.384615,4530.769230,4252.820512,4507.179487,4207.692307,4436.923076,4224.102564,4234.871794,4517.948717,4204.615384,4650.769230,3996.410257,4074.358974
138,4454.358974,4552.820512,4537.435897,4261.538461,4509.230769,4213.333333,4445.128205,4241.538461,4248.205128,4528.717948,4213.333333,4658.461538,4004.615384,4082.051282
139,4462.051282,4545.641025,4545.128205,4266.666666,4510.769230,4220.512820,4458.461538,4260.000000,4265.128205,4545.128205,4222.564102,4672.307692,4020.000000,4090.256410
140,4457.948717,4539.487179,4545.128205,4252.820512,4509.230769,4218.974358,4462.051282,4266.153846,4270.256410,4554.358974,4230.256410,4673.846153,4021.538461,4090.769230
141,4450.256410,4533.333333,4543.589743,4236.410256,4502.051282,4214.871794,4456.410256,4257.435897,4258.461538,4538.974358,4225.128205,4669.743589,4003.076923,4087.179487
142,4445.641025,4530.256410,4545.641025,4238.461538,4496.923076,4215.897435,4455.897435,4248.205128,4246.153846,4515.384615,4208.205128,4666.666666,3989.230770,4080.000000
143,4441.025641,4530.256410,4543.589743,4245.128205,4503.589743,4215.384615,4453.846153,4245.128205,4242.051282,4515.897435,4196.923076,4657.948717,3993.846154,4074.358974
144,4431.282051,4525.641025,4529.230769,4246.666666,4508.205128,4206.666666,4441.025641,4231.794871,4228.717948,4525.128205,4190.769230,4643.076923,3995.897436,4065.128205
145,4420.512820,4525.128205,4517.435897,4252.820512,4506.666666,4203.589743,4434.871794,4212.820512,4214.871794,4514.358974,4184.615384,4634.358974,3985.641026,4054.358974
146,4416.923076,4536.410256,4521.025641,4263.589743,4509.230769,4207.692307,4441.538461,4214.871794,4215.384615,4497.435897,4187.179487,4635.384615,3979.487180,4050.769230
147,4414.871794,4540.000000,4522.051282,4270.256410,4513.846153,4206.666666,4441.538461,4218.974358,4215.897435,4489.230769,4189.230769,4633.846153,3977.948718,4050.256410
148,4409.743589,4534.871794,4516.923076,4279.487179,4517.948717,4203.589743,4438.974358,4211.282051,4213.333333,4492.307692,4180.512820,4630.256410,3976.410257,4049.230769
149,4414.871794,4538.461538,4521.538461,4300.000000,4522.564102,4207.692307,4441.538461,4218.974358,4223.076923,4506.666666,4179.487179,4635.384615,3987.179488,4056.923076
150,4426.666666,4545.128205,4529.743589,4316.410256,4515.384615,4213.333333,4443.589743,4237.948717,4239.487179,4518.461538,4192.307692,4644.615384,4007.692307,4068.205128
151,4426.666666,4537.435897,4528.205128,4317.948717,4503.589743,4215.384615,4443.589743,4242.051282,4246.666666,4524.102564,4201.538461,4648.205128,4023.589743,4073.333333
152,4417.948717,4527.179487,4524.615384,4312.307692,4504.615384,4215.384615,4445.641025,4237.435897,4246.153846,4532.820512,4205.128205,4647.692307,4028.205128,4077.948717
153,4414.358974,4526.153846,4530.256410,4314.358974,4506.153846,4212.307692,4451.794871,4242.564102,4245.128205,4538.974358,4209.743589,4653.846153,4025.641025,4083.589743
154,4414.358974,4527.692307,4534.358974,4321.538461,4507.179487,4216.410256,4460.000000,4249.743589,4249.230769,4533.846153,4212.307692,4663.589743,4024.102564,4085.128205
155,4407.692307,4527.179487,4531.794871,4323.589743,4510.769230,4220.512820,4460.512820,4248.717948,4252.307692,4528.717948,4210.769230,4664.102564,4026.153846,4082.564102
156,4403.076923,4530.256410,4531.794871,4328.205128,4504.102564,4212.307692,4456.410256,4245.641025,4248.205128,4532.307692,4210.256410,4662.051282,4029.743589,4082.564102
157,4408.717948,4542.564102,4536.923076,4339.487179,4502.564102,4209.230769,4457.435897,4250.256410,4252.307692,4538.461538,4217.948717,4668.717948,4034.871794,4092.820512
158,4414.871794,4548.717948,4537.948717,4344.615384,4515.897435,4215.897435,4458.974358,4256.923076,4263.076923,4540.512820,4227.179487,4676.410256,4034.871794,4102.564102
159,4418.461538,4542.564102,4539.487179,4343.076923,4520.000000,4216.923076,4458.461538,4255.384615,4261.538461,4543.589743,4225.641025,4678.974358,4035.897435,4105.641025
160,4416.923076,4537.948717,4547.692307,4341.025641,4515.384615,4209.230769,4454.871794,4248.205128,4252.820512,4543.589743,4222.051282,4681.538461,4042.051282,4105.641025
161,4410.769230,4538.974358,4550.256410,4338.974358,4514.871794,4202.564102,4444.102564,4245.128205,4249.230769,4533.846153,4224.102564,4679.487179,4041.538461,4101.538461
162,4410.769230,4545.128205,4546.666666,4344.102564,4514.358974,4203.076923,4444.102564,4246.666666,4250.256410,4524.615384,4224.615384,4677.435897,4038.461538,4097.948717
163,4412.820512,4552.307692,4548.205128,4350.769230,4516.410256,4209.743589,4457.948717,4247.179487,4254.358974,4529.743589,4220.000000,4678.974358,4038.974358,4095.897435
164,4406.153846,4556.410256,4546.666666,4345.641025,4517.948717,4217.435897,4457.435897,4241.538461,4250.256410,4540.512820,4221.538461,4672.820512,4030.769230,4090.256410
165,4396.410256,4551.794871,4536.923076,4332.307692,4515.897435,4217.435897,4443.589743,4231.794871,4240.000000,4534.358974,4221.025641,4662.051282,4017.948717,4083.076923
166,4389.230769,4542.564102,4529.230769,4323.589743,4512.820512,4214.358974,4445.641025,4226.666666,4235.897435,4519.487179,4206.153846,4653.846153,4009.230769,4075.897435
167,4389.743589,4538.461538,4528.205128,4326.153846,4511.794871,4217.435897,4460.000000,4230.769230,4239.487179,4521.538461,4200.512820,4651.794871,4010.769230,4074.358974
168,4397.948717,4537.435897,4533.846153,4331.282051,4507.692307,4219.487179,4459.487179,4236.410256,4244.615384,4532.820512,4215.897435,4659.487179,4025.128205,4081.538461
169,4402.051282,4536.923076,4539.487179,4329.743589,4500.000000,4210.769230,4446.153846,4237.435897,4248.205128,4539.487179,4223.589743,4668.205128,4034.358974,4086.666666
170,4400.512820,4538.461538,4539.487179,4325.641025,4502.051282,4205.128205,4446.153846,4240.512820,4251.282051,4538.974358,4218.461538,4669.743589,4032.820512,4087.692307
171,4401.025641,4543.589743,4540.512820,4328.205128,4510.256410,4212.307692,4454.358974,4246.153846,4256.923076,4538.974358,4222.564102,4671.282051,4032.820512,4092.820512
172,4401.025641,4545.641025,4545.641025,4329.230769,4512.307692,4217.948717,4455.897435,4251.794871,4263.589743,4541.538461,4233.846153,4680.000000,4034.358974,4097.435897
173,4402.564102,4541.025641,4548.717948,4324.615384,4512.307692,4214.871794,4454.358974,4254.871794,4264.102564,4541.025641,4234.358974,4683.076923,4032.820512,4098.461538
174,4403.076923,4537.435897,4545.641025,4324.102564,4515.897435,4214.358974,4457.435897,4253.333333,4262.564102,4537.948717,4227.692307,4675.384615,4030.769230,4100.000000
175,4400.512820,4541.025641,4536.923076,4328.205128,4514.358974,4216.923076,4460.512820,4250.769230,4260.512820,4534.358974,4226.153846,4671.282051,4027.179487,4097.948717
176,4404.102564,4546.153846,4534.871794,4330.769230,4515.384615,4219.487179,4455.384615,4247.179487,4257.948717,4534.871794,4227.692307,4672.820512,4026.153846,4094.871794
177,4407.692307,4546.153846,4536.410256,4325.128205,4524.615384,4213.846153,4444.615384,4240.000000,4254.358974,4536.410256,4224.615384,4668.205128,4028.717948,4092.820512
178,4402.564102,4546.666666,4533.846153,4311.794871,4525.128205,4205.128205,4437.435897,4229.743589,4249.743589,4536.410256,4216.410256,4660.512820,4026.666666,4087.179487
179,4398.974358,4546.666666,4529.230769,4305.128205,4517.948717,4204.102564,4438.974358,4229.230769,4245.128205,4534.871794,4215.384615,4660.000000,4021.025641,4080.512820
180,4399.487179,4541.538461,4528.205128,4307.692307,4513.846153,4207.179487,4440.512820,4231.794871,4242.051282,4534.871794,4219.487179,4658.461538,4013.333333,4078.974358
181,4400.512820,4541.025641,4531.282051,4309.743589,4509.743589,4209.230769,4440.512820,4231.282051,4242.051282,4534.358974,4218.974358,4656.923076,4012.307692,4081.538461
182,4408.205128,4550.256410,4535.384615,4308.717948,4506.666666,4207.692307,4444.102564,4228.205128,4244.102564,4526.666666,4211.282051,4658.461538,4017.948717,4085.128205
183,4417.948717,4555.897435,4536.923076,4309.743589,4509.743589,4209.230769,4445.128205,4227.692307,4242.564102,4526.153846,4209.230769,4663.076923,4018.974358,4087.179487
184,4419.487179,4552.820512,4540.512820,4308.717948,4515.897435,4209.743589,4446.153846,4229.230769,4243.589743,4530.769230,4219.487179,4669.230769,4016.410256,4089.230769
185,4414.871794,4544.615384,4543.589743,4303.076923,4511.282051,4206.153846,4445.641025,4233.333333,4248.205128,4528.717948,4223.589743,4670.256410,4016.410256,4091.282051
186,4415.897435,4538.974358,4539.487179,4301.538461,4501.025641,4205.128205,4443.589743,4237.435897,4248.205128,4525.128205,4215.897435,4666.666666,4017.435897,4087.692307
187,4422.564102,4542.564102,4540.512820,4303.589743,4501.025641,4205.641025,4449.743589,4237.435897,4246.666666,4524.615384,4213.333333,4667.692307,4015.384615,4088.717948
188,4429.743589,4547.179487,4551.282051,4308.205128,4508.717948,4208.205128,4458.974358,4242.051282,4250.769230,4530.769230,4223.076923,4677.435897,4015.384615,4100.000000
189,4433.333333,4549.743589,4557.435897,4311.282051,4511.794871,4213.333333,4463.589743,4248.717948,4255.897435,4537.435897,4230.769230,4684.615384,4020.512820,4106.153846
190,4427.692307,4541.538461,4553.333333,4306.153846,4513.333333,4217.435897,4460.512820,4245.641025,4252.307692,4528.205128,4222.564102,4680.000000,4017.435897,4097.948717
191,4414.358974,4525.128205,4543.589743,4292.820512,4514.358974,4213.333333,4450.256410,4233.333333,4236.410256,4508.205128,4203.589743,4667.179487,3999.487180,4085.641025
192,4395.384615,4517.435897,4528.717948,4277.948717,4510.256410,4206.153846,4441.025641,4218.461538,4220.000000,4500.000000,4189.743589,4650.769230,3986.666667,4071.282051
193,4379.487179,4521.538461,4514.871794,4275.897435,4504.102564,4203.076923,4439.487179,4206.153846,4214.358974,4499.487179,4187.179487,4632.820512,3984.102565,4053.333333
194,4382.051282,4529.743589,4513.333333,4284.615384,4511.282051,4209.743589,4443.076923,4207.692307,4220.000000,4504.615384,4192.820512,4627.692307,3990.256411,4052.820512
195,4398.461538,4541.538461,4521.538461,4296.410256,4526.666666,4216.923076,4443.589743,4219.487179,4230.769230,4520.512820,4203.076923,4641.538461,4003.589743,4069.743589
196,4405.128205,4550.256410,4527.692307,4304.615384,4525.641025,4206.153846,4436.410256,4218.461538,4238.974358,4529.230769,4211.282051,4651.794871,4011.794871,4077.435897
197,4414.871794,4549.743589,4527.692307,4304.615384,4515.384615,4197.435897,4429.743589,4213.846153,4243.589743,4530.256410,4213.333333,4653.846153,4015.897435,4082.564102
198,4433.333333,4544.615384,4527.692307,4299.487179,4513.846153,4203.589743,4437.435897,4223.589743,4249.230769,4540.512820,4221.025641,4660.000000,4021.025641,4093.846153
199,4429.230769,4536.923076,4526.153846,4287.179487,4506.666666,4209.743589,4444.615384,4231.794871,4249.743589,4540.512820,4228.205128,4658.461538,4017.435897,4092.820512
200,4415.384615,4535.384615,4525.128205,4278.974358,4501.025641,4213.333333,4448.205128,4231.794871,4246.666666,4530.769230,4225.128205,4653.846153,4017.948717,4086.666666
201,4421.538461,4541.025641,4530.256410,4284.615384,4513.846153,4217.948717,4456.410256,4232.820512,4245.128205,4534.358974,4223.076923,4660.000000,4027.692307,4090.256410
202,4425.128205,4538.461538,4534.358974,4291.794871,4521.538461,4213.846153,4452.820512,4229.743589,4237.948717,4531.794871,4217.948717,4662.564102,4021.538461,4086.666666
203,4421.025641,4537.948717,4537.435897,4293.333333,4512.820512,4203.076923,4436.410256,4221.025641,4232.307692,4514.871794,4211.794871,4657.435897,4007.692307,4078.974358
204,4427.179487,4546.153846,4541.538461,4294.871794,4507.179487,4196.410256,4428.205128,4220.000000,4234.358974,4511.794871,4212.307692,4660.000000,4005.128205,4078.461538
205,4436.923076,4545.641025,4545.128205,4300.512820,4510.256410,4198.974358,4427.692307,4222.051282,4237.948717,4523.589743,4211.794871,4666.666666,4000.512820,4081.538461
206,4438.461538,4540.000000,4546.666666,4301.025641,4515.897435,4203.076923,4427.692307,4219.487179,4241.025641,4524.615384,4206.153846,4665.641025,3994.871795,4086.666666
207,4433.846153,4540.000000,4540.000000,4291.282051,4514.871794,4198.974358,4426.153846,4215.897435,4238.461538,4517.948717,4205.128205,4657.948717,3997.435898,4084.615384
208,4429.743589,4544.102564,4530.769230,4282.564102,4515.897435,4203.076923,4430.256410,4215.384615,4234.871794,4523.589743,4209.230769,4650.769230,4004.102564,4080.000000
209,4428.205128,4548.717948,4528.717948,4285.641025,4526.666666,4217.435897,4443.589743,4223.589743,4243.589743,4537.435897,4215.897435,4653.333333,4011.282051,4085.641025
210,4425.128205,4546.153846,4529.230769,4288.205128,4525.128205,4216.923076,4448.717948,4229.743589,4252.820512,4536.410256,4218.974358,4655.384615,4011.794871,4082.564102
211,4418.974358,4536.923076,4528.717948,4282.051282,4505.128205,4205.128205,4445.128205,4226.153846,4245.641025,4527.692307,4212.307692,4649.743589,4006.666666,4069.230769
212,4422.051282,4536.410256,4533.333333,4277.948717,4500.512820,4209.743589,4453.846153,4228.205128,4242.564102,4533.333333,4208.205128,4650.256410,4005.641025,4071.282051
213,4431.794871,4541.025641,4536.923076,4274.871794,4510.769230,4218.974358,4464.102564,4236.410256,4250.769230,4535.384615,4208.205128,4656.410256,4001.538461,4078.974358
214,4432.307692,4537.435897,4536.410256,4272.307692,4513.846153,4215.384615,4458.974358,4232.820512,4250.256410,4520.000000,4200.512820,4657.435897,3989.743590,4073.333333
215,4432.307692,4531.794871,4538.974358,4277.948717,4512.820512,4215.897435,4458.461538,4229.743589,4245.641025,4513.846153,4201.025641,4656.410256,3987.692308,4074.358974
216,4431.282051,4526.666666,4534.358974,4275.897435,4514.358974,4221.025641,4463.076923,4233.333333,4245.641025,4520.512820,4208.205128,4654.358974,3995.897436,4080.512820
217,4421.538461,4521.538461,4520.000000,4261.538461,4510.769230,4215.897435,4451.794871,4222.051282,4238.974358,4516.923076,4200.512820,4645.641025,3985.128206,4068.717948
218,4421.538461,4523.076923,4518.974358,4260.000000,4511.282051,4212.307692,4440.000000,4212.820512,4233.846153,4511.282051,4196.410256,4644.615384,3973.333334,4065.641025
219,4436.410256,4525.641025,4528.717948,4271.282051,4518.461538,4216.410256,4443.076923,4224.102564,4240.000000,4516.410256,4210.769230,4655.384615,3990.256411,4083.076923
220,4446.153846,4521.538461,4532.820512,4272.307692,4515.384615,4211.794871,4443.076923,4231.794871,4247.692307,4517.435897,4221.025641,4664.615384,4012.820512,4093.333333
221,4447.179487,4522.564102,4535.897435,4268.717948,4507.179487,4206.153846,4443.076923,4235.897435,4256.923076,4524.615384,4224.615384,4668.205128,4021.025641,4091.282051
222,4448.205128,4535.897435,4542.051282,4276.923076,4513.846153,4213.846153,4456.923076,4245.128205,4265.641025,4546.153846,4231.282051,4672.820512,4025.128205,4095.384615
223,4448.717948,4547.179487,4536.410256,4283.076923,4528.717948,4221.538461,4460.512820,4241.025641,4264.102564,4555.384615,4231.282051,4670.769230,4024.615384,4095.384615
224,4446.153846,4543.076923,4522.051282,4272.307692,4525.641025,4218.974358,4447.179487,4226.666666,4254.871794,4541.538461,4219.487179,4656.923076,4009.230769,4079.487179
225,4435.384615,4534.871794,4515.897435,4261.025641,4517.435897,4214.871794,4441.025641,4222.051282,4249.743589,4529.230769,4210.769230,4644.102564,3995.897436,4068.717948
226,4430.256410,4537.435897,4519.487179,4263.076923,4525.128205,4217.435897,4446.153846,4226.666666,4251.794871,4531.282051,4212.307692,4646.666666,3996.410257,4075.384615
227,4435.897435,4540.512820,4523.076923,4268.205128,4523.076923,4215.897435,4445.128205,4226.666666,4248.717948,4525.128205,4214.358974,4652.820512,3997.435898,4079.487179
228,4433.333333,4527.692307,4522.564102,4266.666666,4507.692307,4203.076923,4433.333333,4221.025641,4237.948717,4508.717948,4206.666666,4648.717948,3987.692308,4068.717948
229,4432.307692,4523.076923,4527.179487,4264.615384,4509.230769,4202.564102,4433.333333,4217.435897,4235.897435,4505.128205,4202.564102,4649.743589,3985.128206,4070.256410
230,4446.666666,4533.846153,4535.897435,4266.153846,4520.000000,4214.871794,4443.076923,4216.410256,4245.641025,4515.897435,4206.153846,4659.487179,3998.461539,4085.128205
231,4453.333333,4540.512820,4532.820512,4263.076923,4513.846153,4214.871794,4444.102564,4214.871794,4247.692307,4524.615384,4210.256410,4660.512820,4005.641025,4087.692307
232,4452.307692,4543.076923,4531.282051,4263.589743,4510.256410,4211.794871,4449.230769,4227.692307,4253.333333,4534.358974,4227.179487,4666.666666,4012.820512,4090.256410
233,4460.000000,4548.205128,4538.974358,4269.230769,4511.794871,4219.487179,4464.615384,4252.307692,4270.256410,4546.153846,4249.230769,4683.589743,4028.717948,4106.666666
234,4463.076923,4545.641025,4544.102564,4270.256410,4507.692307,4222.564102,4467.692307,4258.461538,4277.435897,4550.256410,4247.692307,4685.128205,4029.230769,4114.871794
235,4455.897435,4534.358974,4546.153846,4270.256410,4509.230769,4217.435897,4461.538461,4249.230769,4270.256410,4550.769230,4235.384615,4676.923076,4018.461538,4103.589743
236,4449.743589,4524.615384,4545.128205,4266.666666,4517.435897,4218.461538,4457.948717,4239.487179,4262.564102,4545.128205,4229.230769,4673.333333,4011.794871,4092.820512
237,4438.461538,4516.410256,4535.384615,4252.820512,4514.358974,4216.923076,4445.641025,4220.000000,4248.205128,4522.564102,4215.384615,4655.384615,3995.897436,4081.538461
238,4424.615384,4511.794871,4521.538461,4240.512820,4507.692307,4206.666666,4430.769230,4200.000000,4233.846153,4502.564102,4197.435897,4630.256410,3979.487180,4067.692307
239,4423.589743,4512.820512,4517.948717,4245.641025,4517.435897,4208.717948,4432.820512,4200.000000,4229.230769,4501.025641,4193.333333,4631.282051,3984.102565,4066.153846
240,4429.230769,4516.923076,4515.384615,4251.794871,4518.974358,4212.820512,4437.948717,4207.179487,4228.205128,4501.025641,4194.358974,4641.538461,3988.205129,4071.794871
241,4432.820512,4526.153846,4512.307692,4253.333333,4509.230769,4206.153846,4437.435897,4212.820512,4233.846153,4500.512820,4197.948717,4642.564102,3984.102565,4073.846153
242,4438.461538,4534.871794,4521.538461,4262.051282,4520.000000,4207.692307,4447.179487,4229.230769,4252.820512,4516.410256,4207.692307,4648.205128,3993.333334,4080.000000
243,4445.641025,4540.512820,4533.333333,4272.307692,4532.307692,4216.923076,4456.923076,4242.564102,4266.666666,4535.384615,4220.512820,4658.974358,4010.769230,4090.256410
244,4449.743589,4545.128205,4534.358974,4272.307692,4516.410256,4209.230769,4449.743589,4235.384615,4258.974358,4532.820512,4225.128205,4656.923076,4008.717948,4089.743589
245,4453.333333,4546.153846,4530.256410,4265.128205,4500.000000,4196.923076,4438.974358,4225.128205,4246.666666,4520.000000,4215.897435,4650.769230,3998.974359,4084.102564
246,4457.948717,4544.615384,4532.307692,4260.512820,4504.615384,4200.000000,4442.564102,4229.743589,4246.666666,4515.897435,4213.333333,4656.410256,4000.512820,4087.692307
247,4465.128205,4542.564102,4537.948717,4262.051282,4502.564102,4209.230769,4453.846153,4237.948717,4254.871794,4516.410256,4224.615384,4665.128205,4006.666666,4094.871794
248,4466.153846,4534.358974,4539.487179,4264.102564,4498.974358,4213.846153,4457.948717,4235.384615,4260.512820,4524.615384,4230.769230,4665.128205,4006.666666,4095.384615
249,4454.871794,4520.512820,4532.307692,4257.948717,4506.666666,4212.820512,4451.282051,4228.717948,4255.384615,4528.205128,4223.076923,4656.923076,4000.512820,4086.153846
250,4440.000000,4514.358974,4521.025641,4245.641025,4513.333333,4211.794871,4442.051282,4224.102564,4245.641025,4517.948717,4213.846153,4643.076923,3987.692308,4072.307692
251,4432.307692,4520.000000,4519.487179,4241.025641,4522.051282,4216.410256,4444.615384,4222.051282,4245.128205,4518.974358,4207.179487,4632.820512,3985.128206,4064.102564
252,4433.333333,4530.769230,4520.000000,4243.589743,4529.230769,4222.051282,4450.256410,4220.000000,4250.769230,4532.820512,4206.153846,4629.743589,3997.948718,4063.076923
253,4437.435897,4532.820512,4516.923076,4248.717948,4521.025641,4215.897435,4446.666666,4215.384615,4245.641025,4526.153846,4206.666666,4630.769230,3993.333334,4063.589743
254,4443.589743,4528.205128,4521.025641,4258.461538,4513.846153,4207.179487,4443.076923,4214.871794,4236.410256,4506.153846,4204.102564,4638.974358,3982.051283,4070.256410
255,4458.974358,4538.974358,4531.794871,4273.846153,4519.487179,4207.179487,4442.564102,4224.615384,4241.538461,4509.743589,4210.769230,4653.333333,3993.333334,4083.076923
