,AF3,F7,F3,FC5,T7,P7,O1,O2,P8,T8,FC6,F4,F8,AF4
0,4416.923076,4540.512820,4536.923076,4280.512820,4396.410256,4174.358974,4448.717948,4235.897435,4243.589743,4513.846153,4242.051282,4509.743589,3983.076924,4069.230769
1,4420.512820,4535.897435,4540.512820,4278.974358,4395.384615,4172.307692,4447.692307,4232.307692,4236.410256,4514.358974,4233.333333,4508.205128,3978.461539,4071.794871
2,4415.897435,4531.794871,4534.358974,4274.871794,4397.435897,4172.307692,4445.641025,4221.538461,4229.743589,4504.102564,4211.794871,4502.564102,3973.846154,4061.025641
3,4414.358974,4540.000000,4535.384615,4282.564102,4402.564102,4173.333333,4444.102564,4219.487179,4226.666666,4491.282051,4213.846153,4502.564102,3976.923077,4058.974358
4,4417.948717,4550.256410,4540.000000,4293.846153,4410.769230,4180.000000,4451.794871,4228.717948,4233.846153,4495.897435,4229.230769,4505.128205,3982.564103,4067.179487
5,4420.512820,4547.692307,4538.974358,4290.769230,4412.820512,4187.179487,4460.000000,4235.897435,4244.102564,4510.769230,4235.384615,4507.692307,3982.564103,4068.205128
6,4420.512820,4538.974358,4537.435897,4282.051282,4405.128205,4184.615384,4460.000000,4232.820512,4246.666666,4515.897435,4222.051282,4507.179487,3981.538462,4067.692307
7,4418.974358,4534.871794,4538.974358,4278.974358,4397.948717,4177.435897,4454.358974,4231.794871,4246.666666,4518.461538,4212.820512,4502.564102,3983.076924,4066.666666
8,4415.897435,4538.974358,4536.923076,4281.025641,4396.923076,4175.897435,4448.205128,4236.410256,4246.666666,4511.794871,4223.589743,4494.871794,3983.589744,4057.948717
9,4417.435897,4548.717948,4535.384615,4285.641025,4400.512820,4178.461538,4448.717948,4239.487179,4243.589743,4501.538461,4230.769230,4492.307692,3982.051283,4058.974358
10,4422.051282,4546.153846,4534.871794,4284.615384,4403.589743,4177.435897,4450.769230,4237.435897,4244.102564,4506.153846,4220.000000,4489.743589,3982.051283,4066.666666
11,4415.384615,4534.871794,4531.794871,4279.487179,4406.666666,4175.897435,4448.717948,4231.794871,4241.025641,4511.282051,4204.102564,4483.589743,3984.102565,4057.435897
12,4408.205128,4535.384615,4533.846153,4278.974358,4407.179487,4180.000000,4452.820512,4229.230769,4232.307692,4500.000000,4206.153846,4484.102564,3984.615385,4054.358974
13,4417.435897,4542.564102,4540.512820,4281.025641,4406.153846,4182.564102,4460.512820,4230.769230,4235.384615,4496.410256,4226.153846,4490.769230,3982.051283,4068.205128
14,4426.666666,4545.128205,4542.051282,4283.589743,4404.615384,4180.512820,4457.948717,4232.820512,4243.076923,4509.743589,4236.923076,4493.333333,3984.615385,4075.384615
15,4422.051282,4544.102564,4539.487179,4285.128205,4403.589743,4175.384615,4450.256410,4229.743589,4240.512820,4510.256410,4221.025641,4490.769230,3987.179488,4067.179487
16,4412.820512,4537.948717,4532.820512,4279.487179,4404.102564,4173.846153,4446.153846,4219.487179,4229.743589,4491.282051,4200.000000,4486.666666,3980.000000,4056.410256
17,4411.282051,4533.846153,4530.769230,4273.333333,4404.102564,4175.384615,4444.615384,4214.871794,4228.717948,4483.076923,4206.666666,4485.641025,3975.897436,4053.846153
18,4415.384615,4540.000000,4533.846153,4276.410256,4403.076923,4177.435897,4446.666666,4220.512820,4235.897435,4496.923076,4223.589743,4491.282051,3976.923077,4058.461538
19,4413.333333,4541.025641,4531.282051,4277.435897,4398.974358,4174.358974,4445.128205,4216.923076,4231.282051,4504.102564,4218.974358,4489.743589,3977.948718,4056.410256
20,4411.282051,4531.794871,4524.615384,4275.384615,4397.435897,4171.282051,4441.538461,4212.820512,4228.205128,4495.384615,4206.153846,4477.435897,3984.615385,4053.333333
21,4417.948717,4529.743589,4524.615384,4279.487179,4401.025641,4174.358974,4442.564102,4216.923076,4235.897435,4492.820512,4211.282051,4474.871794,3990.769231,4061.025641
22,4420.512820,4536.923076,4531.282051,4281.538461,4405.128205,4175.384615,4444.102564,4217.948717,4237.948717,4496.923076,4222.564102,4479.487179,3985.128206,4065.128205
23,4416.410256,4541.538461,4534.358974,4281.025641,4406.153846,4175.384615,4444.102564,4215.897435,4235.897435,4499.487179,4216.410256,4478.974358,3980.512821,4060.000000
24,4415.897435,4537.948717,4529.230769,4283.589743,4405.641025,4175.897435,4443.076923,4216.410256,4233.333333,4498.461538,4208.205128,4475.384615,3984.102565,4056.410256
25,4415.384615,4533.846153,4526.666666,4282.564102,4405.641025,4175.384615,4440.512820,4212.820512,4225.641025,4493.846153,4212.820512,4471.794871,3982.564103,4055.897435
26,4418.461538,4541.538461,4535.384615,4279.487179,4406.666666,4175.897435,4445.641025,4215.897435,4222.051282,4487.692307,4215.384615,4470.256410,3982.564103,4057.435897
27,4420.512820,4545.641025,4538.974358,4278.974358,4407.692307,4178.461538,4449.743589,4223.589743,4228.205128,4485.641025,4205.641025,4471.794871,3984.102565,4056.923076
28,4416.410256,4539.487179,4533.333333,4280.000000,4408.205128,4180.512820,4445.128205,4220.512820,4232.820512,4491.282051,4208.205128,4473.846153,3979.487180,4054.358974
29,4418.974358,4540.512820,4537.948717,4283.589743,4406.666666,4181.538461,4450.256410,4223.589743,4241.025641,4501.025641,4227.179487,4476.410256,3981.538462,4058.974358
30,4427.692307,4545.128205,4543.589743,4286.666666,4407.692307,4185.641025,4462.051282,4238.974358,4247.179487,4508.205128,4228.717948,4480.000000,3992.307693,4067.692307
31,4427.692307,4546.666666,4542.051282,4287.179487,4412.307692,4188.717948,4462.051282,4239.487179,4238.974358,4506.666666,4217.435897,4480.000000,3994.358975,4066.153846
32,4421.538461,4546.153846,4539.487179,4287.179487,4413.333333,4190.256410,4457.435897,4230.256410,4233.846153,4499.487179,4219.487179,4475.897435,3988.717949,4060.000000
33,4420.000000,4542.051282,4537.948717,4283.589743,4414.871794,4191.282051,4456.923076,4232.820512,4238.974358,4496.410256,4226.153846,4474.871794,3991.282052,4059.487179
34,4422.051282,4542.051282,4537.948717,4282.564102,4420.512820,4188.205128,4451.282051,4235.384615,4238.974358,4499.487179,4223.589743,4476.923076,3992.307693,4062.564102
35,4420.512820,4544.615384,4537.948717,4283.076923,4416.923076,4180.512820,4441.538461,4225.128205,4234.358974,4499.487179,4222.051282,4472.820512,3985.641026,4061.025641
36,4418.974358,4542.564102,4536.923076,4283.076923,4403.076923,4174.871794,4437.948717,4224.102564,4233.333333,4498.974358,4223.589743,4465.641025,3985.128206,4056.923076
37,4424.615384,4542.051282,4536.923076,4284.615384,4402.051282,4176.410256,4439.487179,4230.256410,4234.871794,4508.205128,4222.051282,4467.179487,3997.435898,4061.538461
38,4433.333333,4547.692307,4538.974358,4286.666666,4412.820512,4177.435897,4441.025641,4226.153846,4237.948717,4513.333333,4225.641025,4476.410256,4003.076923,4068.205128
39,4430.256410,4549.230769,4538.974358,4287.692307,4412.820512,4177.435897,4440.000000,4223.076923,4238.974358,4506.153846,4231.794871,4475.897435,3998.461539,4068.205128
40,4426.666666,4546.153846,4537.948717,4288.205128,4407.692307,4179.487179,4441.025641,4226.666666,4232.820512,4505.128205,4230.256410,4470.769230,4003.589743,4067.179487
41,4430.256410,4551.794871,4538.461538,4291.794871,4412.307692,4180.512820,4444.615384,4227.692307,4232.820512,4513.333333,4217.435897,4472.820512,4009.743589,4066.153846
42,4427.692307,4551.794871,4537.435897,4289.230769,4412.820512,4177.948717,4441.538461,4224.615384,4237.948717,4506.153846,4212.307692,4472.820512,4002.564102,4061.538461
43,4425.641025,4542.564102,4536.410256,4283.076923,4409.230769,4180.000000,4439.487179,4224.615384,4237.435897,4496.410256,4227.179487,4469.230769,4001.025641,4061.538461
44,4432.820512,4543.589743,4538.974358,4289.743589,4414.358974,4183.589743,4451.794871,4226.666666,4236.923076,4503.076923,4235.384615,4475.897435,4007.692307,4067.179487
45,4437.435897,4554.871794,4541.538461,4298.461538,4417.948717,4184.102564,4461.025641,4229.230769,4237.948717,4512.307692,4230.769230,4485.641025,4008.205128,4069.743589
46,4435.384615,4554.358974,4541.025641,4293.333333,4414.358974,4189.743589,4453.846153,4233.333333,4240.000000,4511.794871,4230.769230,4481.025641,4009.230769,4070.769230
47,4429.230769,4540.000000,4537.948717,4283.076923,4410.256410,4186.153846,4443.589743,4232.307692,4240.512820,4505.128205,4230.769230,4473.846153,4007.179487,4063.076923
48,4421.538461,4534.871794,4536.410256,4283.589743,4407.692307,4173.846153,4443.076923,4227.179487,4238.974358,4504.615384,4223.076923,4475.384615,3994.871795,4052.307692
49,4422.564102,4543.076923,4538.461538,4290.769230,4409.230769,4174.358974,4445.641025,4229.743589,4243.076923,4509.230769,4225.128205,4478.974358,3993.333334,4053.846153
50,4424.615384,4545.641025,4540.000000,4289.743589,4410.256410,4178.974358,4444.102564,4229.743589,4240.512820,4504.615384,4222.051282,4476.923076,4001.025641,4056.410256
51,4417.435897,4538.461538,4536.410256,4282.051282,4404.615384,4171.282051,4438.974358,4222.051282,4224.615384,4493.333333,4204.615384,4471.794871,3996.410257,4051.282051
52,4419.487179,4540.512820,4535.384615,4285.641025,4400.512820,4170.769230,4440.512820,4221.538461,4221.538461,4496.410256,4210.769230,4471.282051,3991.282052,4049.230769
53,4428.205128,4547.692307,4538.461538,4294.871794,4410.769230,4180.000000,4443.589743,4227.179487,4233.846153,4503.589743,4228.205128,4475.384615,3997.948718,4050.256410
54,4426.153846,4545.128205,4536.923076,4293.333333,4417.435897,4177.435897,4441.025641,4225.641025,4235.897435,4503.076923,4229.230769,4477.435897,4003.589743,4052.307692
55,4424.615384,4545.128205,4537.948717,4290.256410,4409.743589,4171.794871,4438.974358,4225.128205,4233.333333,4503.076923,4226.153846,4475.897435,4001.025641,4057.948717
56,4426.153846,4547.692307,4537.435897,4290.256410,4407.692307,4175.384615,4440.512820,4224.615384,4229.743589,4495.897435,4217.435897,4472.307692,3996.410257,4054.358974
57,4415.384615,4537.948717,4526.666666,4281.025641,4411.282051,4174.871794,4439.487179,4215.384615,4220.512820,4485.641025,4203.076923,4462.564102,3988.205129,4040.000000
58,4407.692307,4527.692307,4522.564102,4274.358974,4402.564102,4170.256410,4440.000000,4211.794871,4220.512820,4485.128205,4205.641025,4455.384615,3982.564103,4036.923076
59,4416.410256,4531.794871,4532.307692,4278.461538,4397.435897,4171.282051,4445.128205,4225.128205,4234.871794,4495.384615,4222.051282,4464.615384,3992.820513,4048.205128
60,4426.153846,4540.512820,4541.025641,4284.615384,4408.205128,4175.897435,4447.692307,4235.384615,4246.153846,4507.179487,4229.230769,4475.384615,4007.179487,4055.897435
61,4422.564102,4540.000000,4536.410256,4287.179487,4411.794871,4176.923076,4444.102564,4228.717948,4237.435897,4502.564102,4229.230769,4470.256410,4002.564102,4049.230769
62,4412.820512,4535.384615,4524.102564,4278.974358,4400.000000,4170.256410,4441.025641,4216.410256,4221.025641,4482.564102,4218.461538,4458.974358,3991.794872,4040.512820
63,4412.307692,4533.333333,4527.179487,4274.358974,4395.384615,4166.153846,4442.051282,4218.461538,4221.025641,4478.461538,4210.769230,4457.948717,3990.256411,4044.102564
64,4412.307692,4527.692307,4534.358974,4278.461538,4402.051282,4172.307692,4445.128205,4229.230769,4237.435897,4493.333333,4218.461538,4462.564102,3986.666667,4043.589743
65,4408.205128,4525.641025,4527.692307,4276.923076,4404.102564,4178.461538,4448.717948,4235.384615,4245.641025,4500.000000,4216.923076,4467.179487,3984.615385,4037.435897
66,4410.769230,4533.333333,4528.205128,4275.384615,4405.128205,4176.923076,4454.358974,4237.435897,4241.538461,4498.461538,4212.820512,4471.282051,3993.333334,4045.128205
67,4417.435897,4535.384615,4537.435897,4280.512820,4410.769230,4177.435897,4456.923076,4234.358974,4242.564102,4500.000000,4222.564102,4472.820512,3999.487180,4054.871794
68,4415.384615,4529.743589,4530.769230,4279.487179,4410.256410,4180.000000,4455.897435,4227.692307,4243.589743,4499.487179,4223.076923,4469.743589,3996.410257,4043.589743
69,4408.717948,4528.717948,4521.025641,4269.743589,4402.564102,4177.948717,4457.435897,4223.589743,4235.384615,4493.846153,4211.794871,4464.102564,3993.846154,4031.282051
70,4407.692307,4526.666666,4526.666666,4269.230769,4403.589743,4178.461538,4459.487179,4227.179487,4233.846153,4491.282051,4211.282051,4460.512820,3991.282052,4036.923076
71,4408.205128,4522.051282,4527.179487,4276.410256,4407.179487,4180.512820,4457.435897,4228.717948,4238.461538,4491.282051,4214.358974,4461.538461,3986.153847,4041.538461
72,4406.153846,4517.435897,4521.538461,4270.769230,4406.153846,4178.461538,4450.256410,4219.487179,4229.743589,4484.102564,4203.589743,4461.025641,3987.692308,4035.897435
73,4400.512820,4515.384615,4522.564102,4261.025641,4405.641025,4178.461538,4445.128205,4212.307692,4221.025641,4477.435897,4197.948717,4457.435897,3982.051283,4028.717948
74,4393.846153,4522.564102,4519.487179,4261.025641,4402.564102,4176.410256,4445.641025,4217.435897,4222.564102,4480.512820,4200.512820,4454.358974,3965.641026,4025.641025
75,4394.358974,4523.589743,4511.794871,4266.153846,4400.000000,4171.282051,4443.589743,4217.948717,4218.974358,4474.358974,4196.923076,4453.333333,3969.743590,4026.153846
76,4406.153846,4518.974358,4520.512820,4272.820512,4408.717948,4174.871794,4440.512820,4213.333333,4223.589743,4467.692307,4203.589743,4462.051282,3988.205129,4033.333333
77,4416.923076,4527.179487,4535.897435,4281.025641,4413.846153,4181.538461,4448.717948,4224.102564,4239.487179,4484.615384,4218.974358,4473.846153,3988.205129,4045.128205
78,4415.897435,4538.461538,4531.794871,4279.487179,4411.282051,4181.538461,4456.410256,4233.846153,4241.025641,4495.897435,4218.974358,4475.384615,3977.435898,4050.769230
79,4411.794871,4541.538461,4523.076923,4277.948717,4413.333333,4185.128205,4451.794871,4226.666666,4233.333333,4483.589743,4210.256410,4471.282051,3978.974359,4049.743589
80,4411.282051,4538.974358,4526.666666,4281.025641,4413.846153,4186.666666,4446.666666,4224.615384,4233.846153,4481.538461,4207.692307,4470.769230,3978.974359,4048.717948
81,4409.743589,4534.358974,4525.641025,4274.871794,4409.230769,4177.948717,4447.179487,4226.153846,4234.358974,4488.205128,4204.102564,4471.282051,3967.179488,4051.282051
82,4408.205128,4533.846153,4521.538461,4270.769230,4408.717948,4174.358974,4445.128205,4221.025641,4231.282051,4483.589743,4207.179487,4471.794871,3960.512821,4052.307692
83,4409.230769,4540.512820,4525.128205,4276.410256,4411.282051,4177.948717,4444.102564,4220.512820,4235.384615,4484.102564,4213.846153,4473.846153,3961.538462,4052.307692
84,4412.307692,4538.974358,4526.666666,4277.948717,4409.743589,4177.435897,4446.666666,4226.153846,4242.564102,4492.820512,4207.692307,4475.897435,3966.666667,4056.923076
85,4410.769230,4532.820512,4524.615384,4274.871794,4405.128205,4170.769230,4443.589743,4222.051282,4237.435897,4488.205128,4207.179487,4476.923076,3966.666667,4055.384615
86,4405.641025,4531.282051,4520.512820,4268.717948,4399.487179,4167.179487,4439.487179,4214.871794,4228.205128,4481.538461,4211.282051,4475.384615,3959.487180,4049.743589
87,4408.717948,4533.333333,4518.461538,4264.615384,4399.487179,4169.743589,4443.589743,4221.025641,4231.282051,4491.794871,4205.641025,4473.333333,3956.923077,4054.871794
88,4412.307692,4535.897435,4521.538461,4269.230769,4404.615384,4171.794871,4445.128205,4229.743589,4238.461538,4500.000000,4206.666666,4479.487179,3961.538462,4059.487179
89,4411.794871,4535.384615,4523.589743,4273.846153,4406.666666,4171.794871,4441.538461,4229.743589,4238.461538,4491.794871,4220.000000,4488.205128,3968.205129,4058.974358
90,4420.000000,4536.410256,4525.641025,4275.897435,4412.307692,4175.897435,4449.230769,4229.743589,4240.512820,4489.230769,4228.205128,4489.743589,3972.307693,4065.641025
91,4426.666666,4541.538461,4528.205128,4278.974358,4419.487179,4182.051282,4457.948717,4234.358974,4245.128205,4498.974358,4224.102564,4489.743589,3970.256411,4070.256410
92,4419.487179,4543.589743,4525.128205,4279.487179,4417.435897,4183.589743,4451.282051,4236.923076,4248.205128,4503.076923,4218.461538,4491.794871,3971.794872,4066.666666
93,4417.435897,4545.641025,4525.641025,4281.025641,4416.923076,4183.076923,4446.153846,4237.435897,4255.384615,4501.538461,4221.538461,4492.307692,3979.487180,4064.615384
94,4423.589743,4549.230769,4534.871794,4282.051282,4421.025641,4180.512820,4448.717948,4238.461538,4254.871794,4505.641025,4222.564102,4491.282051,3982.051283,4061.538461
95,4426.153846,4549.230769,4538.461538,4281.025641,4418.461538,4178.974358,4449.743589,4235.897435,4243.589743,4509.230769,4220.000000,4493.333333,3981.025642,4063.589743
96,4423.076923,4543.076923,4528.717948,4281.025641,4411.282051,4177.435897,4445.641025,4229.230769,4237.435897,4496.923076,4220.000000,4490.769230,3978.461539,4069.230769
97,4415.384615,4534.871794,4522.051282,4277.948717,4409.230769,4171.282051,4436.410256,4222.051282,4236.923076,4482.564102,4213.846153,4480.512820,3973.333334,4063.076923
98,4409.743589,4533.846153,4524.615384,4272.307692,4407.179487,4167.692307,4433.846153,4221.538461,4231.282051,4484.102564,4205.128205,4476.410256,3970.256411,4054.358974
99,4412.820512,4533.846153,4526.153846,4270.256410,4404.615384,4165.128205,4436.923076,4221.025641,4228.717948,4491.282051,4212.307692,4476.923076,3967.692308,4052.820512
100,4414.871794,4533.333333,4523.076923,4274.358974,4404.615384,4163.076923,4437.948717,4218.974358,4232.307692,4493.846153,4225.641025,4478.461538,3966.153847,4054.871794
101,4418.461538,4536.410256,4527.179487,4279.487179,4410.769230,4169.743589,4438.974358,4223.589743,4235.897435,4495.384615,4222.051282,4485.128205,3973.333334,4058.461538
102,4430.256410,4547.692307,4538.461538,4285.128205,4417.435897,4177.435897,4446.153846,4232.820512,4243.076923,4500.000000,4216.923076,4492.820512,3984.102565,4066.666666
103,4433.846153,4554.871794,4542.051282,4287.692307,4416.410256,4174.871794,4447.692307,4235.384615,4248.205128,4501.538461,4228.205128,4495.384615,3987.692308,4068.717948
104,4420.000000,4543.589743,4535.897435,4282.564102,4411.282051,4170.769230,4443.589743,4230.769230,4238.974358,4494.358974,4236.923076,4486.153846,3982.564103,4063.076923
105,4413.846153,4532.820512,4532.307692,4277.948717,4411.794871,4170.769230,4441.025641,4226.153846,4232.307692,4492.307692,4228.205128,4478.461538,3977.435898,4062.564102
106,4423.076923,4538.461538,4536.923076,4283.076923,4412.820512,4172.307692,4441.538461,4229.743589,4244.615384,4507.692307,4222.051282,4483.076923,3983.076924,4068.205128
107,4425.128205,4545.128205,4537.435897,4285.128205,4410.769230,4173.333333,4445.128205,4236.410256,4252.307692,4514.358974,4228.717948,4485.128205,3990.256411,4068.205128
108,4418.461538,4540.512820,4532.307692,4277.435897,4409.230769,4171.794871,4444.102564,4235.384615,4243.076923,4499.487179,4228.717948,4475.897435,3985.128206,4062.051282
109,4421.538461,4541.538461,4534.871794,4280.000000,4410.769230,4171.794871,4441.538461,4233.333333,4238.974358,4495.897435,4221.538461,4480.000000,3987.692308,4066.666666
110,4431.794871,4550.769230,4542.051282,4291.794871,4414.871794,4176.410256,4445.641025,4236.923076,4248.205128,4509.743589,4223.589743,4493.846153,4000.000000,4073.333333
111,4434.871794,4554.358974,4542.564102,4291.282051,4420.000000,4178.974358,4451.794871,4241.538461,4256.410256,4517.948717,4234.358974,4494.358974,4001.025641,4072.820512
112,4428.717948,4552.307692,4537.948717,4285.128205,4425.128205,4178.461538,4450.769230,4243.076923,4253.333333,4517.948717,4241.538461,4486.153846,3994.871795,4073.846153
113,4421.025641,4547.179487,4536.410256,4283.589743,4424.615384,4178.461538,4444.102564,4234.871794,4245.128205,4512.820512,4235.897435,4481.025641,3993.846154,4072.307692
114,4421.025641,4543.076923,4536.923076,4283.076923,4415.897435,4179.487179,4443.076923,4227.692307,4243.589743,4505.641025,4229.230769,4478.461538,3995.384616,4070.256410
115,4427.179487,4545.128205,4537.948717,4281.538461,4409.230769,4176.410256,4445.641025,4233.846153,4246.153846,4505.641025,4226.153846,4479.487179,3994.871795,4070.256410
116,4425.128205,4545.641025,4535.897435,4278.974358,4410.256410,4169.743589,4444.615384,4236.410256,4240.512820,4507.179487,4211.794871,4475.897435,3990.256411,4063.589743
117,4417.435897,4540.000000,4534.871794,4277.948717,4409.743589,4167.179487,4442.564102,4229.230769,4234.871794,4501.538461,4208.205128,4472.820512,3982.051283,4058.461538
118,4421.538461,4540.512820,4538.461538,4283.589743,4411.282051,4173.333333,4445.128205,4230.769230,4239.487179,4500.000000,4227.179487,4476.923076,3982.051283,4063.589743
119,4428.717948,4545.128205,4539.487179,4288.205128,4419.487179,4177.948717,4446.666666,4234.871794,4245.128205,4509.230769,4234.358974,4478.461538,3992.307693,4070.769230
120,4430.256410,4547.179487,4538.974358,4288.205128,4421.538461,4176.410256,4447.179487,4234.358974,4248.717948,4517.435897,4229.230769,4477.435897,3999.487180,4077.435897
121,4434.358974,4548.717948,4541.538461,4288.717948,4420.000000,4175.897435,4449.743589,4237.948717,4252.820512,4512.820512,4234.358974,4483.589743,3999.487180,4081.538461
122,4437.948717,4553.846153,4542.051282,4291.794871,4421.538461,4180.000000,4448.717948,4238.974358,4250.769230,4505.128205,4239.487179,4490.769230,4002.051282,4077.435897
123,4434.871794,4555.384615,4539.487179,4292.307692,4422.564102,4182.051282,4450.256410,4237.948717,4245.641025,4509.230769,4235.897435,4490.769230,4004.102564,4075.897435
124,4433.333333,4549.230769,4542.051282,4290.256410,4421.025641,4180.512820,4452.820512,4242.564102,4245.641025,4515.897435,4237.948717,4488.717948,4002.051282,4076.923076
125,4436.410256,4550.769230,4545.641025,4294.871794,4424.615384,4184.615384,4448.717948,4240.000000,4247.179487,4512.820512,4238.461538,4489.743589,4003.589743,4077.435897
126,4440.000000,4561.025641,4543.589743,4303.076923,4428.205128,4186.153846,4448.205128,4237.435897,4244.615384,4508.717948,4239.487179,4491.794871,4011.282051,4083.076923
127,4441.538461,4565.641025,4548.205128,4302.564102,4427.692307,4183.589743,4451.794871,4241.025641,4247.179487,4511.282051,4246.153846,4488.717948,4016.410256,4085.128205
128,4442.051282,4560.512820,4552.307692,4297.948717,4429.230769,4186.153846,4450.769230,4240.512820,4254.358974,4517.435897,4244.615384,4484.615384,4010.256410,4082.051282
129,4440.000000,4554.358974,4545.641025,4297.435897,4427.692307,4185.128205,4448.205128,4236.410256,4250.256410,4519.487179,4230.769230,4483.589743,4001.025641,4081.025641
130,4434.871794,4553.846153,4537.435897,4293.846153,4423.589743,4181.538461,4446.153846,4236.923076,4237.435897,4514.871794,4216.410256,4478.974358,3999.487180,4074.358974
131,4434.871794,4559.487179,4540.000000,4289.743589,4426.153846,4185.128205,4447.692307,4235.384615,4237.948717,4506.153846,4225.128205,4474.871794,4003.589743,4074.358974
132,4438.974358,4564.615384,4547.179487,4295.897435,4429.743589,4188.205128,4451.794871,4233.333333,4245.641025,4503.589743,4245.641025,4477.948717,4008.205128,4084.615384
133,4436.410256,4561.538461,4546.666666,4303.076923,4423.076923,4183.589743,4447.179487,4233.333333,4239.487179,4506.666666,4234.871794,4475.897435,4005.128205,4081.538461
134,4427.692307,4552.820512,4540.000000,4296.410256,4417.948717,4179.487179,4437.948717,4229.230769,4233.333333,4506.153846,4214.358974,4469.743589,3998.974359,4069.230769
135,4422.564102,4546.153846,4535.384615,4285.641025,4423.589743,4178.974358,4439.487179,4226.153846,4237.948717,4501.538461,4229.743589,4468.205128,3998.974359,4068.205128
136,4427.692307,4542.564102,4536.410256,4286.666666,4426.666666,4180.512820,4447.179487,4230.256410,4241.538461,4498.461538,4243.589743,4466.666666,4000.000000,4074.871794
137,4434.871794,4547.692307,4544.102564,4296.923076,4425.641025,4183.589743,4449.743589,4234.871794,4241.025641,4503.589743,4227.692307,4468.205128,4000.512820,4079.487179
138,4435.384615,4556.410256,4550.256410,4301.025641,4425.128205,4186.153846,4448.717948,4235.897435,4239.487179,4509.230769,4223.589743,4474.871794,4007.692307,4078.461538
139,4433.846153,4554.358974,4546.153846,4293.846153,4425.641025,4189.743589,4450.256410,4235.897435,4238.974358,4509.230769,4238.461538,4475.384615,4009.743589,4074.358974
140,4436.923076,4550.256410,4543.076923,4291.282051,4426.666666,4189.743589,4458.974358,4245.641025,4249.230769,4514.871794,4250.256410,4474.871794,4007.179487,4078.974358
141,4436.923076,4551.282051,4549.743589,4293.846153,4428.205128,4189.230769,4464.615384,4256.410256,4262.564102,4524.102564,4252.307692,4478.974358,4014.871794,4087.179487
142,4434.358974,4550.769230,4546.153846,4291.282051,4431.282051,4193.333333,4459.487179,4247.692307,4258.974358,4522.051282,4240.000000,4475.897435,4017.948717,4078.974358
143,4436.410256,4552.307692,4536.923076,4291.794871,4435.384615,4193.846153,4455.384615,4235.897435,4250.769230,4513.333333,4232.820512,4472.820512,4012.820512,4070.256410
144,4434.871794,4556.410256,4539.487179,4296.410256,4431.282051,4188.205128,4458.974358,4239.487179,4251.282051,4507.692307,4236.410256,4473.333333,4010.769230,4074.358974
145,4428.717948,4550.769230,4541.538461,4294.871794,4422.051282,4182.051282,4456.410256,4240.000000,4248.205128,4506.153846,4229.743589,4467.692307,4009.230769,4075.897435
146,4425.641025,4543.589743,4536.923076,4289.230769,4423.076923,4181.538461,4450.769230,4230.769230,4238.974358,4510.769230,4225.128205,4460.000000,4011.282051,4070.769230
147,4423.589743,4545.128205,4534.871794,4288.205128,4424.615384,4181.025641,4450.256410,4227.692307,4238.461538,4508.717948,4230.769230,4459.487179,4010.769230,4065.128205
148,4424.615384,4545.128205,4535.384615,4288.717948,4416.923076,4176.410256,4450.769230,4229.743589,4246.153846,4497.435897,4229.230769,4460.000000,4000.512820,4063.589743
149,4426.666666,4543.589743,4535.897435,4286.153846,4416.923076,4174.871794,4449.743589,4227.692307,4244.615384,4492.820512,4227.692307,4458.461538,3996.410257,4068.205128
150,4427.692307,4543.076923,4537.948717,4287.179487,4426.153846,4181.025641,4450.769230,4229.230769,4238.461538,4504.615384,4228.717948,4460.512820,4008.717948,4072.820512
151,4431.282051,4546.153846,4539.487179,4293.333333,4429.230769,4186.153846,4451.282051,4234.358974,4242.564102,4512.307692,4228.205128,4462.564102,4015.897435,4071.282051
152,4433.333333,4552.307692,4540.512820,4294.358974,4425.128205,4181.538461,4445.641025,4233.846153,4248.205128,4506.666666,4235.384615,4462.564102,4014.358974,4071.794871
153,4426.153846,4547.692307,4539.487179,4285.128205,4418.461538,4175.384615,4439.487179,4229.230769,4242.051282,4504.102564,4243.589743,4460.512820,4012.307692,4075.897435
154,4418.974358,4537.435897,4530.769230,4282.564102,4413.333333,4174.358974,4436.410256,4225.641025,4236.923076,4506.666666,4234.358974,4455.897435,4005.128205,4072.307692
155,4423.076923,4543.076923,4528.717948,4286.153846,4416.923076,4177.435897,4438.461538,4227.692307,4241.025641,4502.051282,4224.102564,4454.871794,4005.128205,4068.717948
156,4427.179487,4549.743589,4536.410256,4286.666666,4426.666666,4184.102564,4446.153846,4233.846153,4247.179487,4498.974358,4228.717948,4460.512820,4012.307692,4071.282051
157,4423.589743,4538.974358,4532.820512,4286.153846,4428.717948,4187.692307,4448.205128,4233.846153,4246.153846,4504.615384,4230.256410,4458.974358,4005.641025,4067.692307
158,4417.948717,4533.846153,4525.641025,4283.589743,4423.589743,4181.538461,4445.641025,4226.153846,4240.512820,4503.076923,4219.487179,4448.717948,3994.358975,4055.897435
159,4420.000000,4538.974358,4531.794871,4281.025641,4421.025641,4175.897435,4445.641025,4225.641025,4241.538461,4503.076923,4217.435897,4449.230769,4002.564102,4056.923076
160,4425.641025,4542.051282,4534.358974,4282.564102,4418.974358,4179.487179,4447.692307,4230.256410,4244.615384,4504.102564,4227.692307,4457.948717,4013.846153,4068.205128
161,4422.051282,4533.846153,4525.128205,4278.461538,4412.820512,4178.974358,4442.051282,4223.589743,4231.794871,4487.179487,4229.230769,4452.820512,4003.076923,4067.179487
162,4410.769230,4523.589743,4520.000000,4268.205128,4408.717948,4168.205128,4433.846153,4210.769230,4218.974358,4475.384615,4220.512820,4440.512820,3992.307693,4056.410256
163,4408.717948,4529.743589,4522.051282,4270.769230,4412.307692,4165.641025,4437.435897,4212.307692,4227.692307,4488.205128,4216.410256,4439.487179,3996.923077,4052.307692
164,4418.974358,4543.076923,4524.615384,4282.564102,4418.974358,4177.948717,4446.666666,4218.461538,4238.461538,4501.025641,4214.358974,4446.666666,4004.102564,4056.410256
165,4421.025641,4537.948717,4525.128205,4284.615384,4419.487179,4181.538461,4446.666666,4216.410256,4235.384615,4499.487179,4211.282051,4446.153846,4005.641025,4061.538461
166,4411.282051,4523.076923,4521.025641,4281.025641,4417.948717,4172.820512,4441.538461,4215.384615,4232.820512,4493.846153,4216.410256,4439.487179,3999.487180,4057.948717
167,4406.153846,4525.128205,4520.512820,4277.948717,4421.025641,4173.846153,4441.538461,4216.923076,4234.871794,4487.179487,4226.666666,4437.435897,3995.897436,4049.230769
168,4412.307692,4536.410256,4524.615384,4278.974358,4419.487179,4179.487179,4444.102564,4216.410256,4231.282051,4485.128205,4228.717948,4442.051282,4000.512820,4051.794871
169,4416.410256,4537.435897,4523.589743,4281.025641,4411.794871,4175.897435,4442.564102,4214.358974,4226.153846,4492.820512,4218.461538,4445.641025,4002.051282,4060.000000
170,4413.333333,4532.307692,4523.076923,4276.923076,4411.282051,4172.820512,4440.512820,4214.358974,4229.743589,4494.871794,4220.512820,4445.641025,3996.923077,4059.487179
171,4414.358974,4532.307692,4527.179487,4276.923076,4418.461538,4174.358974,4443.076923,4215.384615,4234.358974,4491.794871,4233.333333,4446.153846,4001.025641,4056.923076
172,4423.589743,4540.512820,4531.282051,4286.666666,4420.000000,4177.435897,4443.589743,4222.051282,4234.871794,4498.974358,4224.615384,4451.794871,4015.384615,4064.102564
173,4430.256410,4549.230769,4538.461538,4294.871794,4424.615384,4182.564102,4441.025641,4230.256410,4241.538461,4505.641025,4212.820512,4460.512820,4017.948717,4071.282051
174,4425.641025,4550.256410,4538.461538,4293.846153,4432.307692,4184.102564,4443.076923,4225.128205,4245.641025,4497.435897,4227.179487,4462.564102,4008.717948,4064.615384
175,4420.000000,4537.948717,4526.666666,4286.153846,4428.717948,4180.000000,4442.564102,4212.820512,4234.358974,4495.384615,4241.025641,4460.000000,4010.256410,4061.538461
176,4424.102564,4534.358974,4527.179487,4281.025641,4421.538461,4185.128205,4438.974358,4212.307692,4229.230769,4508.205128,4236.410256,4461.025641,4021.025641,4070.256410
177,4431.282051,4554.358974,4538.461538,4290.256410,4425.128205,4190.256410,4447.179487,4226.666666,4243.076923,4512.820512,4232.307692,4464.102564,4016.410256,4078.461538
178,4430.256410,4562.051282,4533.333333,4300.000000,4429.743589,4184.615384,4453.333333,4228.205128,4244.102564,4502.564102,4230.769230,4464.102564,3997.948718,4074.358974
179,4422.051282,4547.692307,4522.051282,4291.282051,4424.615384,4178.461538,4446.666666,4217.948717,4232.307692,4499.487179,4225.641025,4461.025641,3994.871795,4069.230769
180,4419.487179,4543.589743,4524.615384,4280.000000,4420.000000,4180.000000,4445.128205,4220.512820,4231.794871,4503.076923,4225.128205,4457.948717,3996.923077,4069.230769
181,4420.512820,4548.717948,4525.641025,4279.487179,4420.512820,4181.538461,4448.717948,4226.153846,4237.948717,4498.461538,4225.641025,4458.461538,3984.102565,4068.717948
182,4421.538461,4545.128205,4523.589743,4281.538461,4422.051282,4180.512820,4447.179487,4228.205128,4238.461538,4492.820512,4218.461538,4460.000000,3972.820513,4066.666666
183,4419.487179,4538.974358,4525.128205,4279.487179,4418.974358,4178.974358,4444.615384,4227.179487,4231.794871,4493.846153,4210.256410,4457.435897,3971.282052,4064.615384
184,4415.897435,4538.974358,4523.076923,4275.897435,4410.769230,4175.384615,4443.589743,4224.615384,4231.794871,4495.897435,4216.410256,4457.948717,3970.769231,4066.153846
185,4418.461538,4544.615384,4523.589743,4277.948717,4411.794871,4176.923076,4449.230769,4226.666666,4241.538461,4499.487179,4223.076923,4467.692307,3969.743590,4071.794871
186,4420.512820,4546.666666,4531.282051,4284.102564,4421.538461,4184.102564,4456.410256,4232.307692,4242.051282,4498.974358,4210.256410,4473.333333,3965.641026,4071.794871
187,4422.051282,4544.615384,4535.897435,4282.564102,4425.128205,4188.717948,4458.461538,4232.307692,4233.846153,4495.897435,4206.153846,4473.846153,3966.666667,4069.743589
188,4426.153846,4548.717948,4538.974358,4279.487179,4425.128205,4191.282051,4456.923076,4231.282051,4237.435897,4499.487179,4223.076923,4481.025641,3976.923077,4075.384615
189,4422.564102,4550.256410,4536.923076,4281.538461,4429.743589,4191.794871,4452.307692,4231.794871,4245.128205,4497.948717,4228.717948,4481.025641,3981.025642,4078.461538
190,4415.384615,4545.641025,4527.179487,4282.564102,4429.230769,4184.615384,4445.128205,4227.179487,4242.564102,4490.256410,4214.358974,4471.794871,3972.307693,4068.717948
191,4418.461538,4545.641025,4529.743589,4283.589743,4422.564102,4183.076923,4445.641025,4229.230769,4238.461538,4493.333333,4211.282051,4471.794871,3971.282052,4064.102564
192,4423.076923,4551.282051,4533.846153,4284.615384,4421.538461,4186.666666,4448.717948,4235.384615,4238.974358,4501.538461,4222.051282,4481.538461,3976.923077,4071.282051
193,4417.435897,4549.230769,4527.179487,4282.564102,4423.589743,4184.615384,4445.128205,4229.743589,4238.461538,4494.358974,4224.102564,4482.564102,3977.435898,4075.384615
194,4416.410256,4546.666666,4528.717948,4280.000000,4424.102564,4184.102564,4443.589743,4226.153846,4238.974358,4494.871794,4218.461538,4478.974358,3978.461539,4076.410256
195,4420.000000,4547.179487,4532.307692,4282.564102,4425.641025,4186.153846,4445.128205,4228.717948,4240.000000,4503.589743,4215.384615,4482.564102,3973.333334,4072.820512
196,4416.923076,4542.564102,4525.641025,4281.025641,4426.153846,4182.564102,4443.076923,4227.692307,4236.923076,4492.820512,4214.871794,4482.051282,3967.692308,4067.692307
197,4421.538461,4545.641025,4528.717948,4282.564102,4425.641025,4182.564102,4444.102564,4230.256410,4244.102564,4491.282051,4224.615384,4482.051282,3976.923077,4073.846153
198,4433.846153,4560.000000,4542.564102,4290.256410,4433.333333,4191.794871,4451.794871,4241.025641,4256.923076,4512.820512,4236.410256,4493.846153,3987.692308,4083.076923
199,4436.410256,4561.025641,4543.076923,4291.794871,4441.025641,4195.384615,4453.333333,4245.128205,4253.846153,4520.512820,4230.256410,4501.538461,3986.666667,4082.564102
200,4430.256410,4547.179487,4535.384615,4286.153846,4434.871794,4189.743589,4446.666666,4236.923076,4243.076923,4508.205128,4220.000000,4494.871794,3983.076924,4082.564102
201,4425.128205,4544.615384,4532.820512,4283.076923,4425.128205,4184.615384,4444.102564,4229.743589,4242.051282,4503.589743,4225.641025,4486.153846,3985.128206,4083.076923
202,4421.538461,4553.846153,4532.820512,4283.076923,4425.641025,4182.564102,4445.641025,4232.307692,4243.589743,4502.051282,4226.666666,4483.076923,3982.051283,4073.333333
203,4416.410256,4547.179487,4526.666666,4275.897435,4426.666666,4182.051282,4443.589743,4231.794871,4235.897435,4497.435897,4213.333333,4479.487179,3971.282052,4063.589743
204,4416.923076,4538.461538,4523.076923,4272.820512,4423.076923,4182.051282,4442.051282,4222.051282,4236.410256,4500.512820,4212.820512,4478.461538,3967.179488,4068.205128
205,4424.102564,4548.717948,4533.333333,4285.128205,4424.102564,4182.051282,4448.717948,4222.564102,4246.153846,4501.025641,4223.076923,4481.538461,3977.435898,4073.333333
206,4427.179487,4559.487179,4541.538461,4294.358974,4428.205128,4184.102564,4453.846153,4230.256410,4246.666666,4497.435897,4214.871794,4487.179487,3983.589744,4069.743589
207,4424.615384,4555.384615,4536.923076,4287.692307,4425.641025,4186.666666,4455.897435,4227.179487,4237.948717,4497.948717,4203.076923,4489.743589,3976.410257,4070.256410
208,4421.538461,4544.615384,4535.897435,4282.564102,4421.025641,4185.641025,4455.897435,4220.000000,4230.256410,4497.435897,4215.897435,4483.589743,3974.358975,4072.820512
209,4418.461538,4538.974358,4534.871794,4281.538461,4417.948717,4182.564102,4450.769230,4218.974358,4224.102564,4488.717948,4224.615384,4478.461538,3973.333334,4066.666666
210,4412.307692,4540.000000,4526.153846,4275.384615,4417.435897,4179.487179,4445.128205,4217.948717,4220.000000,4485.128205,4211.794871,4474.871794,3965.128206,4059.487179
211,4410.769230,4545.128205,4525.641025,4277.948717,4420.000000,4180.512820,4444.102564,4216.923076,4224.615384,4492.820512,4206.153846,4472.307692,3965.641026,4060.512820
212,4414.871794,4545.641025,4532.820512,4284.102564,4422.051282,4184.102564,4445.128205,4220.512820,4230.256410,4496.410256,4203.589743,4474.871794,3975.384616,4061.025641
213,4417.948717,4543.076923,4536.923076,4285.641025,4421.025641,4185.641025,4450.256410,4227.179487,4232.820512,4496.410256,4202.564102,4476.923076,3984.102565,4062.564102
214,4420.512820,4547.692307,4539.487179,4287.692307,4421.025641,4185.641025,4454.358974,4231.282051,4239.487179,4502.051282,4222.564102,4476.923076,3988.205129,4067.179487
215,4418.974358,4548.205128,4535.897435,4286.153846,4417.948717,4184.102564,4452.820512,4230.256410,4241.025641,4503.589743,4231.794871,4477.435897,3985.128206,4066.666666
216,4416.410256,4546.153846,4529.743589,4283.589743,4416.923076,4181.025641,4451.282051,4226.153846,4232.820512,4498.974358,4214.358974,4475.384615,3981.538462,4066.666666
217,4423.589743,4552.820512,4532.820512,4292.820512,4426.153846,4184.615384,4457.435897,4229.743589,4236.410256,4503.589743,4218.974358,4475.897435,3988.205129,4072.820512
218,4430.256410,4557.948717,4540.000000,4300.512820,4431.282051,4190.769230,4462.051282,4235.897435,4247.692307,4511.282051,4238.974358,4483.076923,3994.871795,4076.923076
219,4423.076923,4549.230769,4540.000000,4292.307692,4423.076923,4186.153846,4455.384615,4230.769230,4245.128205,4504.102564,4229.230769,4485.128205,3992.820513,4073.846153
220,4414.871794,4541.025641,4531.282051,4285.641025,4417.948717,4180.000000,4448.205128,4221.538461,4235.897435,4492.307692,4213.333333,4475.384615,3992.307693,4064.102564
221,4411.794871,4543.076923,4526.153846,4284.615384,4414.871794,4181.538461,4449.743589,4221.025641,4233.333333,4493.846153,4217.948717,4471.282051,3988.717949,4057.435897
222,4414.871794,4548.205128,4530.769230,4284.102564,4414.358974,4186.666666,4452.820512,4223.076923,4233.333333,4507.692307,4226.666666,4477.435897,3981.538462,4066.666666
223,4424.102564,4553.846153,4540.000000,4289.743589,4423.589743,4189.230769,4453.333333,4225.641025,4235.384615,4512.307692,4224.102564,4477.948717,3982.564103,4076.410256
224,4424.102564,4551.794871,4538.461538,4289.230769,4425.641025,4185.128205,4450.256410,4226.153846,4235.897435,4498.974358,4211.794871,4473.846153,3990.256411,4072.307692
225,4417.948717,4545.641025,4533.846153,4283.589743,4418.461538,4182.564102,4447.692307,4227.692307,4236.923076,4493.846153,4209.230769,4475.897435,3994.871795,4069.230769
226,4421.538461,4548.205128,4537.435897,4286.666666,4423.076923,4186.666666,4450.256410,4229.230769,4241.025641,4503.076923,4225.128205,4477.948717,3991.282052,4074.871794
227,4422.051282,4549.230769,4537.948717,4290.256410,4428.717948,4185.641025,4451.794871,4225.128205,4234.871794,4501.538461,4223.589743,4475.897435,3982.564103,4071.282051
228,4413.846153,4542.051282,4534.871794,4286.153846,4422.051282,4181.025641,4445.128205,4223.076923,4226.666666,4490.769230,4203.076923,4473.333333,3973.333334,4057.948717
229,4415.897435,4547.692307,4537.435897,4287.692307,4419.487179,4180.000000,4438.974358,4228.205128,4233.846153,4496.410256,4209.230769,4476.410256,3975.897436,4060.512820
230,4432.820512,4561.538461,4550.769230,4296.923076,4425.641025,4182.564102,4443.076923,4231.794871,4244.615384,4510.256410,4239.487179,4488.205128,3998.461539,4080.000000
231,4444.615384,4558.461538,4557.435897,4296.410256,4428.205128,4189.230769,4451.794871,4230.256410,4245.128205,4513.846153,4242.564102,4496.923076,4017.948717,4093.846153
232,4439.487179,4548.717948,4546.666666,4293.846153,4427.692307,4195.384615,4455.384615,4230.256410,4242.051282,4507.692307,4220.512820,4491.282051,4008.717948,4089.743589
233,4427.179487,4547.692307,4535.897435,4291.794871,4428.717948,4190.769230,4447.692307,4222.564102,4236.923076,4496.923076,4215.384615,4478.974358,3995.384616,4076.410256
234,4422.564102,4544.102564,4537.948717,4287.179487,4427.692307,4182.564102,4440.000000,4211.282051,4230.256410,4494.871794,4229.743589,4473.846153,3992.820513,4064.615384
235,4423.589743,4542.564102,4540.000000,4287.179487,4428.717948,4184.615384,4443.076923,4215.384615,4234.871794,4503.589743,4232.820512,4473.333333,3991.794872,4065.128205
236,4422.564102,4548.717948,4537.948717,4292.307692,4434.358974,4192.307692,4448.205128,4223.076923,4241.538461,4511.794871,4221.538461,4474.871794,4000.000000,4072.307692
237,4426.666666,4551.794871,4544.102564,4294.871794,4435.384615,4192.307692,4448.717948,4225.641025,4242.051282,4513.333333,4223.589743,4475.384615,4014.871794,4072.820512
238,4433.333333,4550.769230,4548.205128,4291.282051,4433.846153,4188.205128,4448.205128,4227.179487,4240.000000,4506.666666,4235.384615,4474.871794,4013.333333,4073.333333
239,4428.205128,4549.230769,4540.512820,4287.179487,4430.769230,4191.282051,4449.743589,4229.230769,4240.000000,4499.487179,4234.358974,4472.820512,4003.589743,4076.410256
240,4421.538461,4548.205128,4536.923076,4288.205128,4429.743589,4195.384615,4455.897435,4232.307692,4248.205128,4506.666666,4229.230769,4468.717948,4006.153846,4074.871794
241,4424.615384,4551.794871,4541.538461,4293.333333,4437.948717,4197.435897,4460.512820,4237.435897,4250.256410,4518.974358,4233.846153,4471.794871,4012.820512,4070.769230
242,4424.615384,4551.794871,4541.538461,4289.230769,4440.512820,4198.461538,4456.410256,4235.897435,4246.666666,4517.435897,4240.000000,4473.333333,4009.743589,4071.282051
243,4416.923076,4543.076923,4536.410256,4278.974358,4429.230769,4191.282051,4447.692307,4226.153846,4246.153846,4509.230769,4241.025641,4466.666666,4000.000000,4070.769230
244,4416.410256,4537.948717,4537.948717,4280.512820,4422.564102,4182.564102,4444.102564,4224.102564,4241.025641,4503.076923,4233.846153,4464.615384,3996.410257,4067.179487
245,4424.615384,4542.051282,4545.128205,4287.692307,4428.205128,4186.666666,4447.179487,4229.230769,4234.871794,4502.564102,4220.000000,4472.307692,4005.641025,4069.230769
246,4427.692307,4546.666666,4547.179487,4289.230769,4429.230769,4190.256410,4447.179487,4231.794871,4238.974358,4509.743589,4223.076923,4476.923076,4012.307692,4075.384615
247,4425.128205,4548.717948,4541.025641,4289.230769,4423.076923,4181.538461,4442.564102,4228.205128,4242.051282,4511.282051,4242.051282,4473.846153,4005.641025,4073.333333
248,4424.102564,4547.692307,4538.974358,4289.230769,4422.051282,4179.487179,4442.051282,4226.666666,4237.948717,4509.743589,4245.128205,4468.717948,4000.512820,4069.230769
249,4421.538461,4541.025641,4538.461538,4282.051282,4424.615384,4184.102564,4443.076923,4227.179487,4237.948717,4508.717948,4227.692307,4464.615384,4006.153846,4070.256410
250,4412.307692,4530.769230,4529.230769,4274.871794,4425.128205,4180.512820,4443.076923,4216.410256,4232.307692,4494.358974,4217.435897,4456.923076,4003.076923,4063.589743
251,4403.589743,4522.051282,4517.948717,4271.794871,4417.948717,4173.333333,4442.564102,4206.153846,4222.564102,4476.923076,4220.512820,4447.692307,3990.769231,4051.282051
252,4404.615384,4526.153846,4521.538461,4271.794871,4411.794871,4176.923076,4441.025641,4211.282051,4230.256410,4488.717948,4213.333333,4450.256410,3990.256411,4050.769230
253,4414.871794,4540.000000,4535.384615,4280.512820,4417.435897,4185.641025,4443.589743,4221.538461,4241.025641,4510.769230,4209.743589,4463.589743,4002.564102,4058.974358
254,4422.051282,4544.615384,4537.435897,4285.641025,4425.128205,4186.153846,4450.256410,4224.102564,4232.307692,4510.256410,4223.589743,4465.128205,4005.128205,4060.512820
255,4415.897435,4534.358974,4526.666666,4282.051282,4424.102564,4184.102564,4452.820512,4221.538461,4227.692307,4497.948717,4231.282051,4457.435897,3997.435898,4058.461538
256,4408.717948,4528.205128,4521.025641,4280.512820,4423.589743,4185.641025,4449.743589,4223.076923,4235.384615,4496.923076,4230.256410,4458.461538,3992.307693,4056.923076
257,4409.230769,4530.256410,4526.153846,4278.461538,4423.589743,4186.153846,4447.692307,4223.589743,4233.333333,4499.487179,4229.230769,4460.000000,3989.743590,4052.307692
258,4408.717948,4526.666666,4524.615384,4271.794871,4418.974358,4180.000000,4446.666666,4218.974358,4228.717948,4495.384615,4215.384615,4452.820512,3988.205129,4053.333333
259,4405.641025,4525.641025,4518.974358,4272.307692,4417.435897,4176.923076,4442.051282,4216.410256,4231.282051,4496.923076,4203.076923,4449.743589,3992.307693,4053.846153
