,AF3,F7,F3,FC5,T7,P7,O1,O2,P8,T8,FC6,F4,F8,AF4
0,4423.589743,4478.974358,4610.769230,4288.717948,3786.666667,4144.102564,4388.717948,3667.692308,4175.897435,4483.589743,4082.564102,4593.333333,3535.384616,4014.871794
1,4421.538461,4480.512820,4609.230769,4294.871794,3788.717949,4148.717948,4392.820512,3662.564103,4165.128205,4488.717948,4077.435897,4588.205128,3524.102565,4013.846153
2,4430.256410,4488.205128,4609.743589,4301.538461,3784.615385,4152.307692,4406.153846,3666.153847,4171.282051,4487.692307,4072.820512,4589.743589,3517.435898,4007.692307
3,4418.974358,4482.051282,4601.538461,4289.743589,3772.820513,4144.615384,4403.076923,3657.948718,4168.205128,4468.205128,4068.717948,4585.128205,3507.692308,3993.333334
4,4408.717948,4474.358974,4598.461538,4284.102564,3770.769231,4141.538461,4394.871794,3650.769231,4162.051282,4473.846153,4071.794871,4581.025641,3504.615385,3997.948718
5,4423.589743,4481.538461,4608.205128,4294.871794,3774.358975,4148.205128,4398.461538,3661.538462,4174.358974,4498.461538,4085.128205,4588.717948,3516.923077,4016.410256
6,4431.282051,4489.230769,4611.282051,4301.538461,3777.435898,4151.794871,4396.923076,3665.641026,4180.512820,4497.435897,4091.794871,4592.307692,3518.974359,4022.564102
7,4418.974358,4483.589743,4606.153846,4295.897435,3778.461539,4141.538461,4383.589743,3657.948718,4170.769230,4477.435897,4077.948717,4586.153846,3503.076924,4004.102564
8,4418.461538,4482.051282,4611.282051,4294.871794,3774.871795,4133.846153,4378.461538,3659.487180,4171.282051,4473.846153,4070.256410,4587.692307,3496.923077,3992.307693
9,4428.717948,4489.230769,4618.974358,4303.076923,3771.794872,4140.000000,4388.717948,3669.743590,4175.897435,4489.230769,4080.512820,4590.769230,3504.102565,4013.333333
10,4415.897435,4486.153846,4612.820512,4299.487179,3773.333334,4145.128205,4394.871794,3671.282052,4173.333333,4495.384615,4078.461538,4586.153846,3502.051283,4022.051282
11,4409.230769,4478.974358,4607.179487,4290.769230,3781.538462,4143.589743,4395.897435,3669.743590,4174.358974,4484.102564,4071.282051,4583.589743,3492.820513,4005.128205
12,4429.743589,4484.102564,4607.692307,4293.846153,3788.717949,4148.205128,4400.000000,3669.230770,4172.307692,4476.410256,4074.358974,4583.589743,3487.692308,4003.076923
13,4430.256410,4486.153846,4602.051282,4294.358974,3786.666667,4150.769230,4400.512820,3664.615385,4162.564102,4478.461538,4067.179487,4577.948717,3485.641026,4006.666666
14,4411.794871,4487.179487,4597.435897,4290.769230,3786.153847,4143.589743,4397.435897,3665.641026,4165.128205,4481.025641,4060.000000,4573.846153,3489.230770,4002.051282
15,4418.974358,4489.743589,4604.102564,4296.410256,3790.256411,4142.051282,4394.358974,3671.794872,4176.923076,4484.615384,4078.461538,4581.025641,3499.487180,4010.256410
16,4431.794871,4488.205128,4608.717948,4298.461538,3788.717949,4145.128205,4390.769230,3672.820513,4175.384615,4489.230769,4091.794871,4588.205128,3501.538462,4022.564102
17,4432.820512,4491.282051,4608.717948,4296.923076,3788.205129,4142.564102,4391.282051,3672.820513,4170.769230,4494.358974,4084.615384,4591.794871,3496.923077,4028.205128
18,4428.205128,4494.358974,4610.256410,4302.564102,3791.794872,4136.410256,4390.256410,3671.794872,4170.769230,4490.769230,4080.512820,4589.743589,3493.333334,4020.000000
19,4407.692307,4483.076923,4603.076923,4296.410256,3791.794872,4134.358974,4384.615384,3661.538462,4167.179487,4473.333333,4070.256410,4575.897435,3481.538462,3996.923077
20,4395.384615,4476.410256,4595.384615,4289.230769,3793.846154,4142.564102,4388.205128,3657.948718,4166.153846,4465.128205,4063.589743,4564.102564,3467.179488,3986.666667
21,4405.128205,4482.051282,4598.461538,4295.897435,3800.000000,4150.769230,4399.487179,3665.128206,4167.179487,4478.461538,4074.871794,4567.692307,3462.564103,3993.333334
22,4410.769230,4478.974358,4598.461538,4291.794871,3802.564103,4147.179487,4397.948717,3664.102565,4163.589743,4485.128205,4076.923076,4572.307692,3466.666667,3993.846154
23,4404.102564,4469.230769,4593.333333,4277.948717,3801.025642,4134.358974,4387.179487,3658.461539,4160.512820,4471.282051,4061.025641,4568.717948,3466.666667,3988.205129
24,4398.461538,4471.282051,4592.820512,4276.410256,3795.384616,4132.820512,4385.128205,3657.948718,4160.512820,4469.743589,4055.897435,4566.666666,3459.487180,3984.615385
25,4401.538461,4476.923076,4593.846153,4283.076923,3788.717949,4136.923076,4386.153846,3657.948718,4154.871794,4477.948717,4060.000000,4566.666666,3453.846154,3978.974359
26,4415.897435,4478.461538,4594.358974,4288.717948,3798.974359,4136.923076,4388.717948,3658.974359,4156.923076,4478.461538,4053.846153,4569.230769,3454.358975,3974.358975
27,4426.666666,4482.564102,4605.128205,4292.307692,3817.435898,4140.512820,4399.487179,3671.794872,4173.846153,4480.000000,4060.512820,4581.538461,3464.615385,3987.692308
28,4416.410256,4481.025641,4609.230769,4283.589743,3820.512821,4147.692307,4405.128205,3680.512821,4177.435897,4479.487179,4071.282051,4586.666666,3467.692308,4001.538461
29,4406.666666,4468.205128,4597.435897,4274.358974,3817.435898,4144.615384,4398.461538,3675.384616,4161.538461,4473.333333,4064.615384,4572.820512,3455.384616,3992.307693
30,4405.641025,4468.717948,4591.794871,4278.974358,3818.461539,4140.000000,4394.871794,3670.256411,4157.948717,4474.871794,4063.076923,4564.615384,3448.717949,3977.948718
31,4404.615384,4480.512820,4595.384615,4289.743589,3816.923077,4144.102564,4399.487179,3667.692308,4162.564102,4476.923076,4073.846153,4569.230769,3454.358975,3984.102565
32,4406.666666,4481.025641,4596.410256,4296.410256,3813.846154,4145.128205,4397.435897,3667.692308,4159.487179,4471.794871,4077.435897,4570.256410,3453.846154,3989.743590
33,4414.871794,4480.512820,4601.025641,4295.384615,3815.384616,4143.589743,4393.333333,3670.769231,4160.512820,4480.000000,4076.923076,4572.820512,3454.358975,3986.153847
34,4416.923076,4486.153846,4606.666666,4294.358974,3817.435898,4147.179487,4396.923076,3674.358975,4169.230769,4489.743589,4080.512820,4579.487179,3458.974359,3991.282052
35,4414.358974,4485.128205,4597.948717,4295.897435,3816.410257,4147.179487,4394.358974,3670.769231,4167.179487,4482.564102,4074.871794,4574.358974,3453.333334,3996.410257
36,4412.820512,4482.564102,4593.846153,4293.333333,3818.461539,4141.025641,4386.153846,3671.794872,4165.128205,4475.897435,4068.205128,4566.153846,3444.615385,3991.282052
37,4415.897435,4490.769230,4607.179487,4293.846153,3817.435898,4141.538461,4392.820512,3683.589744,4182.564102,4478.461538,4071.282051,4576.923076,3450.769231,3994.358975
38,4424.615384,4496.923076,4614.871794,4298.461538,3811.794872,4147.179487,4407.179487,3689.743590,4193.846153,4485.128205,4077.435897,4588.205128,3463.076924,4011.282051
39,4423.076923,4487.179487,4607.179487,4291.282051,3811.794872,4146.153846,4411.282051,3684.615385,4182.051282,4489.230769,4083.076923,4582.564102,3462.564103,4012.820512
40,4413.333333,4478.974358,4599.487179,4287.692307,3817.435898,4145.128205,4409.230769,3680.512821,4179.487179,4489.230769,4083.076923,4577.948717,3448.205129,3994.358975
41,4413.333333,4483.076923,4595.384615,4301.538461,3823.076924,4150.256410,4406.153846,3678.461539,4185.641025,4483.076923,4079.487179,4573.846153,3436.923077,3989.230770
42,4413.333333,4485.641025,4592.820512,4305.128205,3822.564103,4148.205128,4397.948717,3673.333334,4174.871794,4475.897435,4072.820512,4566.666666,3433.333334,3991.282052
43,4404.615384,4482.051282,4593.333333,4297.435897,3814.871795,4143.076923,4398.974358,3672.820513,4164.102564,4472.820512,4061.025641,4562.051282,3424.615385,3978.461539
44,4405.641025,4482.051282,4593.846153,4297.435897,3813.846154,4145.641025,4410.769230,3678.974359,4176.410256,4472.820512,4063.589743,4566.666666,3420.512821,3975.897436
45,4413.846153,4480.512820,4590.769230,4292.307692,3821.025642,4148.717948,4413.846153,3684.615385,4188.717948,4481.025641,4078.974358,4574.871794,3430.769231,3993.846154
46,4412.307692,4478.974358,4591.282051,4285.128205,3820.000000,4145.641025,4412.820512,3684.102565,4187.179487,4488.717948,4080.000000,4579.487179,3432.820513,3994.871795
47,4406.666666,4483.589743,4591.794871,4291.794871,3814.871795,4144.615384,4407.179487,3675.897436,4183.589743,4483.589743,4069.230769,4574.358974,3420.000000,3978.461539
48,4404.102564,4483.589743,4589.743589,4296.410256,3820.000000,4143.589743,4400.000000,3670.256411,4174.871794,4475.384615,4075.384615,4565.641025,3408.717949,3979.487180
49,4402.564102,4478.461538,4595.384615,4280.000000,3816.923077,4140.512820,4397.948717,3676.410257,4172.307692,4477.435897,4078.974358,4572.820512,3411.282052,3993.846154
50,4399.487179,4478.974358,4598.461538,4270.769230,3810.256411,4142.051282,4397.435897,3682.051283,4185.641025,4483.076923,4069.743589,4581.538461,3418.974359,3994.358975
51,4409.230769,4484.615384,4593.846153,4291.794871,3818.461539,4142.051282,4398.974358,3681.025642,4189.743589,4491.794871,4080.512820,4578.461538,3424.615385,3988.717949
52,4411.282051,4481.538461,4587.692307,4304.615384,3821.025642,4139.487179,4398.461538,3670.769231,4170.769230,4487.179487,4089.743589,4570.256410,3416.923077,3979.487180
53,4381.538461,4468.205128,4578.461538,4286.153846,3816.410257,4136.923076,4388.205128,3651.794872,4153.333333,4461.025641,4057.435897,4564.102564,3392.820513,3958.461539
54,4378.461538,4470.256410,4577.435897,4281.538461,3824.102565,4137.948717,4385.128205,3646.153847,4155.384615,4457.948717,4042.051282,4565.641025,3387.692308,3963.589744
55,4411.794871,4491.282051,4589.743589,4308.205128,3834.358975,4152.307692,4398.974358,3661.538462,4163.076923,4478.974358,4076.923076,4571.794871,3408.205129,3993.333334
56,4410.769230,4496.923076,4593.333333,4308.205128,3831.794872,4157.948717,4400.000000,3667.179488,4165.128205,4476.410256,4085.128205,4570.256410,3406.153847,3984.615385
57,4387.179487,4483.589743,4582.564102,4278.461538,3830.256411,4141.538461,4387.692307,3655.897436,4162.564102,4463.076923,4049.230769,4564.615384,3382.564103,3957.948718
58,4395.384615,4476.923076,4584.102564,4278.974358,3837.948718,4138.974358,4396.923076,3656.923077,4167.179487,4472.820512,4052.307692,4570.256410,3390.256411,3975.897436
59,4404.615384,4475.897435,4593.846153,4288.205128,3835.384616,4151.282051,4412.307692,3670.256411,4180.512820,4483.076923,4080.000000,4580.512820,3415.897436,3994.871795
60,4391.794871,4472.820512,4588.205128,4269.743589,3820.512821,4146.153846,4408.205128,3670.256411,4185.128205,4472.307692,4065.128205,4579.487179,3404.615385,3970.256411
61,4388.205128,4474.871794,4579.487179,4264.615384,3825.641026,4140.000000,4403.076923,3668.205129,4181.025641,4467.692307,4050.769230,4574.358974,3384.102565,3961.538462
62,4397.435897,4481.025641,4580.512820,4285.641025,3848.205129,4151.282051,4406.153846,3670.769231,4174.358974,4478.974358,4067.179487,4571.794871,3391.282052,3983.076924
63,4398.974358,4477.948717,4577.948717,4290.769230,3849.230770,4148.717948,4399.487179,3663.589744,4169.230769,4481.025641,4064.102564,4566.666666,3397.948718,3979.487180
64,4391.794871,4470.256410,4573.333333,4282.564102,3841.538462,4141.025641,4393.846153,3657.435898,4169.743589,4470.256410,4051.282051,4566.666666,3388.717949,3964.102565
65,4394.871794,4473.333333,4578.461538,4283.589743,3845.641026,4147.179487,4398.461538,3660.512821,4173.333333,4469.743589,4064.615384,4577.435897,3383.589744,3966.153847
66,4403.076923,4481.538461,4586.666666,4290.256410,3849.230770,4148.205128,4397.948717,3661.538462,4169.743589,4475.384615,4069.230769,4585.641025,3385.128206,3966.666667
67,4397.948717,4476.923076,4586.666666,4291.282051,3852.820513,4144.102564,4402.051282,3661.025642,4166.153846,4472.307692,4054.358974,4579.487179,3383.589744,3965.128206
68,4394.358974,4466.666666,4581.025641,4281.538461,3855.897436,4151.282051,4413.846153,3660.512821,4171.794871,4469.230769,4058.974358,4568.205128,3383.589744,3972.820513
69,4400.000000,4469.743589,4576.410256,4273.333333,3854.358975,4155.897435,4410.769230,3654.358975,4173.333333,4469.743589,4066.666666,4564.615384,3382.564103,3973.333334
70,4398.974358,4475.384615,4577.948717,4273.333333,3855.897436,4149.230769,4397.435897,3646.153847,4167.692307,4467.179487,4053.333333,4569.743589,3380.000000,3962.051283
71,4396.923076,4471.794871,4581.025641,4273.333333,3855.384616,4145.641025,4398.461538,3643.589744,4169.743589,4473.846153,4055.897435,4576.923076,3386.666667,3963.589744
72,4397.948717,4465.128205,4583.076923,4270.769230,3847.179488,4145.128205,4402.051282,3653.333334,4178.461538,4484.615384,4075.897435,4576.923076,3393.333334,3970.769231
73,4390.769230,4462.564102,4578.974358,4268.717948,3845.128206,4141.538461,4397.435897,3664.102565,4180.512820,4483.076923,4070.769230,4572.307692,3388.717949,3963.076924
74,4381.025641,4464.102564,4574.871794,4271.794871,3857.435898,4142.051282,4395.897435,3656.923077,4171.282051,4474.871794,4053.846153,4567.692307,3380.512821,3954.871795
75,4377.948717,4462.051282,4568.717948,4274.358974,3863.076924,4144.615384,4394.358974,3641.025642,4160.000000,4468.717948,4049.230769,4558.974358,3366.666667,3952.307693
76,4378.461538,4461.025641,4563.076923,4271.282051,3863.076924,4144.102564,4387.692307,3636.923077,4154.358974,4464.102564,4045.641025,4549.743589,3357.435898,3948.717949
77,4385.641025,4467.179487,4567.179487,4268.205128,3871.282052,4144.102564,4386.666666,3640.512821,4158.461538,4462.051282,4038.974358,4552.820512,3359.487180,3949.230770
78,4392.307692,4471.282051,4575.384615,4274.358974,3876.923077,4145.128205,4392.820512,3640.512821,4167.179487,4464.615384,4037.435897,4563.589743,3358.974359,3954.358975
79,4385.641025,4467.179487,4571.282051,4278.461538,3866.666667,4143.076923,4394.871794,3641.538462,4168.205128,4467.692307,4041.538461,4562.051282,3351.794872,3946.666667
80,4374.358974,4466.153846,4568.717948,4263.076923,3859.487180,4145.641025,4395.897435,3647.179488,4166.666666,4467.692307,4044.615384,4557.435897,3350.256411,3933.846154
81,4371.794871,4467.179487,4576.410256,4251.282051,3865.641026,4149.230769,4398.461538,3650.256411,4168.205128,4467.179487,4038.974358,4558.974358,3350.256411,3938.461539
82,4371.794871,4457.948717,4576.410256,4261.538461,3858.974359,4140.000000,4396.923076,3646.153847,4163.589743,4464.102564,4037.435897,4558.974358,3347.692308,3947.179488
83,4380.000000,4454.871794,4575.897435,4274.358974,3853.333334,4134.358974,4400.512820,3649.230770,4162.564102,4462.051282,4053.846153,4562.051282,3354.871795,3954.871795
84,4389.230769,4465.641025,4582.564102,4274.871794,3872.307693,4142.051282,4404.615384,3654.871795,4170.769230,4468.205128,4056.923076,4567.692307,3358.974359,3958.461539
85,4386.153846,4466.153846,4581.025641,4273.846153,3877.948718,4143.589743,4398.974358,3650.769231,4168.205128,4473.846153,4043.076923,4567.179487,3349.230770,3950.769231
86,4385.641025,4457.435897,4576.923076,4277.435897,3863.076924,4141.538461,4398.461538,3650.256411,4162.564102,4472.307692,4042.051282,4565.641025,3346.666667,3949.743590
87,4384.102564,4452.820512,4577.435897,4266.153846,3865.641026,4145.641025,4402.051282,3651.282052,4163.076923,4461.538461,4032.307692,4562.564102,3345.641026,3943.589744
88,4367.692307,4448.205128,4573.333333,4250.256410,3876.410257,4146.666666,4395.384615,3643.076924,4156.923076,4450.769230,4011.794871,4553.846153,3334.871795,3925.641026
89,4365.641025,4448.717948,4568.717948,4256.923076,3872.820513,4142.051282,4394.358974,3641.538462,4153.333333,4454.871794,4021.025641,4552.307692,3328.717949,3927.692308
90,4383.076923,4462.051282,4575.897435,4269.230769,3870.769231,4145.128205,4399.487179,3648.717949,4164.615384,4466.666666,4041.538461,4559.487179,3338.461539,3943.076924
91,4378.461538,4465.128205,4580.000000,4256.410256,3883.076924,4153.333333,4396.923076,3649.230770,4169.743589,4469.230769,4037.948717,4561.025641,3345.641026,3943.076924
92,4371.794871,4461.025641,4575.897435,4250.256410,3897.435898,4152.820512,4400.512820,3655.897436,4168.717948,4468.205128,4037.435897,4560.512820,3346.666667,3946.666667
93,4388.717948,4465.641025,4576.410256,4275.897435,3898.461539,4152.820512,4412.307692,3671.282052,4177.948717,4475.384615,4052.820512,4566.153846,3355.384616,3958.461539
94,4389.230769,4468.205128,4578.974358,4282.051282,3884.102565,4156.923076,4414.358974,3673.846154,4186.153846,4481.025641,4056.923076,4568.205128,3362.051283,3953.846154
95,4380.000000,4466.666666,4577.948717,4268.717948,3882.051283,4156.923076,4409.230769,3668.205129,4183.076923,4483.589743,4053.846153,4564.102564,3360.000000,3948.717949
96,4386.153846,4466.153846,4574.871794,4268.205128,3897.948718,4153.846153,4406.666666,3669.230770,4180.512820,4483.076923,4056.923076,4557.948717,3354.358975,3950.769231
97,4384.615384,4466.153846,4575.897435,4271.282051,3897.435898,4150.256410,4404.615384,3670.769231,4181.538461,4477.948717,4062.051282,4556.923076,3352.820513,3942.051283
98,4372.307692,4466.153846,4575.384615,4270.256410,3889.230770,4151.282051,4402.564102,3667.692308,4183.076923,4477.435897,4054.358974,4558.974358,3351.282052,3938.974359
99,4366.153846,4459.487179,4567.692307,4263.589743,3901.538462,4151.282051,4395.384615,3653.333334,4175.384615,4473.333333,4031.282051,4552.307692,3337.435898,3941.538462
100,4370.769230,4458.974358,4568.205128,4268.205128,3922.051283,4149.230769,4394.358974,3649.743590,4164.615384,4467.692307,4036.923076,4548.717948,3335.384616,3943.589744
101,4383.076923,4476.923076,4584.102564,4277.948717,3927.179488,4155.384615,4406.666666,3666.153847,4168.717948,4477.435897,4066.153846,4561.025641,3354.358975,3952.307693
102,4386.153846,4482.051282,4586.666666,4264.102564,3914.358975,4156.923076,4405.641025,3667.179488,4178.461538,4481.538461,4061.025641,4567.179487,3356.923077,3956.923077
103,4380.512820,4469.743589,4575.384615,4258.974358,3907.692308,4150.769230,4393.846153,3650.769231,4174.871794,4467.179487,4043.589743,4558.974358,3340.000000,3949.743590
104,4383.589743,4473.333333,4574.358974,4285.128205,3921.538462,4150.769230,4395.384615,3653.846154,4169.230769,4467.692307,4055.897435,4556.410256,3341.538462,3946.666667
105,4384.102564,4480.512820,4577.948717,4288.205128,3931.282052,4154.358974,4400.000000,3661.538462,4167.692307,4473.846153,4060.512820,4555.384615,3350.769231,3948.717949
106,4381.025641,4474.871794,4578.974358,4271.794871,3925.641026,4153.333333,4396.410256,3653.846154,4167.179487,4465.128205,4044.102564,4550.769230,3344.102565,3947.692308
107,4383.589743,4473.846153,4583.076923,4277.948717,3931.282052,4153.846153,4396.410256,3659.487180,4178.461538,4468.205128,4042.564102,4555.897435,3342.564103,3954.358975
108,4379.487179,4472.820512,4584.102564,4272.820512,3950.256411,4155.384615,4398.461538,3666.666667,4183.589743,4474.871794,4053.333333,4562.564102,3350.769231,3962.051283
109,4384.615384,4471.282051,4576.923076,4260.000000,3956.923077,4153.846153,4397.435897,3657.948718,4169.743589,4469.230769,4060.000000,4557.948717,3350.769231,3954.871795
110,4399.487179,4478.974358,4575.897435,4272.307692,3961.538462,4154.871794,4400.000000,3659.487180,4164.102564,4471.282051,4065.641025,4556.410256,3353.846154,3950.256411
111,4397.948717,4483.076923,4580.512820,4280.000000,3970.256411,4151.794871,4398.974358,3667.692308,4169.743589,4476.410256,4070.769230,4558.974358,3362.051283,3957.435898
112,4386.666666,4472.307692,4576.923076,4268.717948,3966.153847,4144.615384,4393.846153,3662.051283,4170.769230,4471.794871,4066.153846,4553.333333,3356.410257,3953.846154
113,4378.461538,4468.717948,4573.846153,4266.153846,3966.153847,4147.179487,4395.384615,3661.025642,4176.923076,4474.358974,4055.384615,4553.846153,3349.230770,3942.564103
114,4375.897435,4474.358974,4578.461538,4274.358974,3983.589744,4153.846153,4398.974358,3667.179488,4176.410256,4472.820512,4057.435897,4560.512820,3358.974359,3952.307693
115,4389.743589,4475.384615,4582.051282,4279.487179,3992.307693,4154.871794,4396.923076,3660.512821,4163.589743,4464.102564,4065.641025,4560.000000,3367.692308,3969.743590
116,4399.487179,4479.487179,4580.000000,4280.512820,3987.179488,4150.256410,4393.333333,3652.820513,4160.512820,4469.743589,4056.923076,4557.948717,3361.025642,3967.179488
117,4383.076923,4481.025641,4578.974358,4280.000000,3987.179488,4145.641025,4387.692307,3650.256411,4165.128205,4472.820512,4046.666666,4554.871794,3352.820513,3956.410257
118,4386.666666,4481.538461,4586.153846,4283.589743,3993.846154,4148.205128,4389.230769,3654.871795,4171.282051,4476.410256,4059.487179,4559.487179,3360.512821,3964.102565
119,4417.435897,4493.333333,4594.358974,4289.743589,4000.000000,4155.897435,4400.000000,3667.179488,4178.974358,4486.153846,4080.512820,4574.358974,3372.307693,3975.897436
120,4412.820512,4497.948717,4591.282051,4286.153846,3998.974359,4154.871794,4399.487179,3666.153847,4175.384615,4480.000000,4075.384615,4574.358974,3367.692308,3970.769231
121,4386.666666,4486.666666,4582.051282,4274.358974,3985.641026,4151.282051,4391.794871,3658.461539,4167.692307,4465.128205,4055.897435,4561.538461,3362.051283,3963.589744
122,4387.692307,4476.923076,4578.974358,4268.205128,3977.435898,4154.358974,4394.358974,3666.153847,4171.282051,4463.076923,4053.846153,4561.538461,3368.205129,3966.153847
123,4392.820512,4474.358974,4577.948717,4274.358974,3981.025642,4152.307692,4398.461538,3670.256411,4169.230769,4466.666666,4052.307692,4563.589743,3364.615385,3956.410257
124,4383.589743,4472.307692,4571.794871,4274.871794,3980.512821,4149.743589,4395.384615,3657.435898,4158.974358,4461.538461,4040.000000,4553.333333,3351.794872,3940.000000
125,4389.230769,4477.948717,4569.230769,4271.282051,3973.846154,4153.333333,4396.923076,3657.948718,4163.589743,4456.923076,4047.692307,4552.307692,3357.435898,3944.615385
126,4388.717948,4475.897435,4574.358974,4270.769230,3970.769231,4153.333333,4399.487179,3665.128206,4168.717948,4461.025641,4063.076923,4558.974358,3367.179488,3954.358975
127,4373.333333,4467.179487,4573.333333,4272.307692,3970.769231,4150.769230,4396.410256,3656.410257,4161.538461,4464.615384,4058.974358,4553.846153,3357.435898,3955.897436
128,4383.589743,4473.846153,4573.333333,4278.461538,3979.487180,4154.358974,4396.410256,3653.333334,4160.000000,4466.666666,4056.923076,4551.282051,3354.871795,3962.564103
129,4394.358974,4482.051282,4577.435897,4276.923076,3985.641026,4154.871794,4396.923076,3663.589744,4169.230769,4469.230769,4058.461538,4553.846153,3364.102565,3958.974359
130,4373.333333,4478.461538,4573.846153,4265.641025,3980.000000,4147.692307,4394.358974,3666.153847,4172.820512,4472.820512,4056.923076,4554.871794,3364.615385,3945.128206
131,4365.641025,4474.358974,4567.692307,4265.641025,3975.384616,4149.230769,4394.871794,3664.102565,4170.769230,4475.384615,4062.564102,4555.384615,3365.128206,3949.230770
132,4384.102564,4470.256410,4571.794871,4268.717948,3976.923077,4155.897435,4401.025641,3669.230770,4172.820512,4468.717948,4061.538461,4555.384615,3366.153847,3956.410257
133,4390.769230,4469.743589,4578.461538,4268.205128,3980.512821,4156.923076,4406.153846,3674.871795,4179.487179,4463.589743,4052.820512,4557.435897,3361.538462,3947.179488
134,4385.641025,4471.282051,4575.384615,4278.974358,3987.692308,4152.307692,4405.128205,3673.846154,4179.487179,4475.897435,4064.615384,4560.000000,3364.102565,3949.743590
135,4378.461538,4467.692307,4566.153846,4282.564102,3990.256411,4148.717948,4395.897435,3661.538462,4168.205128,4482.564102,4067.692307,4552.820512,3366.153847,3954.871795
136,4363.589743,4457.435897,4557.435897,4262.051282,3984.615385,4144.102564,4387.179487,3647.692308,4157.948717,4464.102564,4036.923076,4538.974358,3348.205129,3933.846154
137,4360.512820,4457.435897,4558.461538,4258.461538,3988.717949,4141.538461,4391.794871,3650.769231,4158.974358,4453.846153,4026.666666,4538.461538,3337.948718,3924.102565
138,4372.820512,4467.692307,4562.564102,4268.205128,4001.025641,4148.717948,4401.025641,3654.871795,4160.000000,4461.025641,4047.179487,4545.128205,3347.692308,3943.076924
139,4370.769230,4467.179487,4557.948717,4263.076923,3999.487180,4150.256410,4394.871794,3643.076924,4150.256410,4456.410256,4049.230769,4545.128205,3349.743590,3943.589744
140,4354.871794,4461.538461,4554.358974,4261.025641,3990.769231,4141.025641,4381.025641,3632.307693,4142.564102,4445.641025,4034.871794,4540.512820,3343.589744,3927.692308
141,4355.897435,4462.564102,4556.923076,4266.153846,3990.256411,4140.512820,4381.538461,3636.410257,4145.128205,4446.153846,4031.794871,4539.487179,3347.179488,3926.153847
142,4370.256410,4464.615384,4561.025641,4266.153846,3998.974359,4147.692307,4392.307692,3648.205129,4155.384615,4460.000000,4044.615384,4548.717948,3360.000000,3940.512821
143,4375.897435,4464.615384,4564.615384,4266.666666,4008.717948,4150.769230,4397.435897,3655.897436,4167.179487,4472.307692,4057.948717,4560.512820,3367.692308,3954.871795
144,4371.794871,4466.153846,4566.153846,4265.641025,4016.923076,4150.256410,4398.461538,3652.307693,4168.205128,4467.692307,4063.076923,4560.512820,3366.666667,3959.487180
145,4370.256410,4464.102564,4562.564102,4266.153846,4018.461538,4146.666666,4396.410256,3643.076924,4157.948717,4462.051282,4063.589743,4552.307692,3366.666667,3951.794872
146,4374.871794,4464.615384,4560.512820,4273.846153,4016.410256,4143.589743,4390.769230,3643.076924,4155.897435,4465.128205,4063.589743,4551.282051,3370.256411,3946.153847
147,4381.025641,4471.794871,4564.615384,4275.384615,4024.615384,4146.153846,4391.282051,3650.256411,4162.564102,4469.743589,4062.564102,4560.000000,3374.871795,3959.487180
148,4377.948717,4472.307692,4566.153846,4271.794871,4024.102564,4148.717948,4396.923076,3654.871795,4163.589743,4468.205128,4057.435897,4566.153846,3375.384616,3962.051283
149,4365.128205,4467.179487,4562.564102,4274.358974,4005.128205,4146.666666,4396.410256,3652.307693,4164.615384,4464.102564,4045.641025,4562.051282,3368.717949,3941.538462
150,4365.128205,4466.666666,4560.512820,4274.871794,4002.051282,4147.179487,4394.871794,3643.589744,4159.487179,4462.051282,4040.512820,4553.333333,3362.051283,3935.897436
151,4370.256410,4466.666666,4561.025641,4268.205128,4016.410256,4148.205128,4395.897435,3636.923077,4147.179487,4457.435897,4043.589743,4551.282051,3357.948718,3944.102565
152,4368.205128,4467.692307,4563.076923,4269.230769,4020.000000,4152.820512,4398.461538,3637.948718,4147.179487,4451.794871,4043.589743,4554.871794,3353.846154,3942.051283
153,4369.230769,4472.307692,4565.128205,4281.025641,4020.512820,4157.435897,4404.102564,3645.128206,4159.487179,4455.384615,4050.256410,4560.512820,3361.025642,3942.051283
154,4370.256410,4471.282051,4562.564102,4279.487179,4035.897435,4153.333333,4402.564102,3646.666667,4163.076923,4462.564102,4060.512820,4561.025641,3370.256411,3948.205129
155,4374.871794,4470.769230,4561.025641,4268.717948,4042.051282,4153.333333,4398.461538,3647.692308,4163.589743,4465.641025,4060.512820,4559.487179,3372.307693,3949.230770
156,4380.512820,4474.871794,4564.102564,4273.846153,4027.692307,4155.897435,4399.487179,3651.794872,4169.230769,4466.153846,4062.051282,4561.025641,3376.410257,3951.794872
157,4371.282051,4470.769230,4558.974358,4285.641025,4018.461538,4148.717948,4396.923076,3646.153847,4166.666666,4464.102564,4060.000000,4556.923076,3378.461539,3944.102565
158,4361.538461,4463.589743,4549.743589,4284.615384,4020.512820,4145.128205,4390.256410,3637.948718,4157.948717,4461.538461,4047.179487,4551.282051,3369.743590,3930.769231
159,4360.000000,4463.589743,4551.794871,4273.846153,4021.025641,4147.692307,4388.717948,3637.435898,4153.846153,4460.000000,4034.358974,4555.384615,3363.076924,3935.384616
160,4346.666666,4460.512820,4556.410256,4266.153846,4016.410256,4141.538461,4391.794871,3639.487180,4154.358974,4452.307692,4027.179487,4556.410256,3363.076924,3936.923077
161,4341.538461,4454.358974,4557.435897,4270.769230,4017.948717,4140.512820,4394.358974,3644.102565,4157.948717,4450.256410,4036.410256,4550.256410,3363.076924,3927.692308
162,4361.025641,4461.025641,4561.025641,4276.410256,4029.230769,4149.230769,4397.435897,3650.256411,4160.000000,4458.974358,4053.846153,4554.358974,3363.589744,3935.897436
163,4372.307692,4468.717948,4562.564102,4271.282051,4037.948717,4149.230769,4397.948717,3651.282052,4160.000000,4464.102564,4052.820512,4562.051282,3370.256411,3949.230770
164,4366.666666,4463.076923,4560.512820,4266.153846,4037.435897,4146.666666,4396.923076,3653.846154,4163.076923,4464.102564,4049.230769,4560.000000,3378.461539,3942.051283
165,4362.564102,4461.538461,4560.000000,4271.282051,4040.512820,4151.282051,4397.435897,3658.974359,4165.641025,4468.717948,4058.461538,4560.000000,3381.538462,3934.871795
166,4361.538461,4469.230769,4560.512820,4278.461538,4054.871794,4151.794871,4396.923076,3655.384616,4159.487179,4466.666666,4062.051282,4565.128205,3382.051283,3937.435898
167,4358.461538,4467.179487,4557.948717,4275.897435,4061.025641,4144.615384,4393.846153,3647.179488,4151.794871,4455.384615,4053.333333,4562.564102,3378.461539,3934.871795
168,4351.282051,4452.307692,4552.307692,4259.487179,4056.923076,4142.564102,4386.153846,3641.538462,4147.692307,4446.153846,4040.512820,4550.769230,3367.179488,3929.230770
169,4346.153846,4447.692307,4548.717948,4254.358974,4062.564102,4139.487179,4379.487179,3635.384616,4143.589743,4447.179487,4034.358974,4541.025641,3361.025642,3928.205129
170,4351.794871,4457.948717,4550.256410,4268.717948,4083.076923,4137.435897,4382.564102,3636.923077,4145.128205,4455.384615,4046.666666,4544.615384,3365.128206,3928.717949
171,4361.538461,4468.205128,4555.897435,4276.410256,4094.358974,4147.179487,4393.333333,3648.717949,4154.871794,4466.153846,4061.538461,4555.384615,3380.000000,3936.410257
172,4369.743589,4472.307692,4563.589743,4275.384615,4089.230769,4152.820512,4399.487179,3654.871795,4163.076923,4474.358974,4063.076923,4560.000000,3394.358975,3943.589744
173,4368.717948,4469.743589,4561.025641,4275.897435,4088.205128,4146.666666,4396.923076,3653.846154,4168.717948,4474.358974,4053.846153,4556.410256,3392.820513,3935.384616
174,4357.948717,4458.974358,4550.256410,4263.076923,4099.487179,4143.076923,4389.743589,3647.179488,4163.589743,4457.435897,4046.153846,4550.256410,3381.025642,3929.743590
175,4355.384615,4459.487179,4547.692307,4256.410256,4103.076923,4147.692307,4387.692307,3636.410257,4148.205128,4442.051282,4049.230769,4549.230769,3379.487180,3935.384616
176,4355.384615,4465.128205,4549.230769,4270.769230,4097.435897,4148.717948,4392.820512,3637.435898,4148.205128,4453.846153,4050.769230,4549.743589,3382.051283,3932.307693
177,4351.794871,4460.512820,4545.128205,4276.410256,4102.051282,4149.743589,4397.435897,3647.692308,4159.487179,4468.205128,4042.051282,4546.153846,3377.948718,3931.282052
178,4354.358974,4457.948717,4543.076923,4265.641025,4106.153846,4154.871794,4396.410256,3645.128206,4157.948717,4465.641025,4039.487179,4542.051282,3376.410257,3938.461539
179,4358.974358,4462.051282,4548.717948,4264.615384,4095.897435,4154.871794,4395.897435,3640.000000,4153.846153,4460.000000,4051.794871,4546.153846,3381.025642,3930.769231
180,4349.743589,4456.410256,4548.205128,4264.102564,4081.538461,4147.692307,4390.769230,3642.564103,4151.282051,4454.871794,4051.282051,4544.615384,3379.487180,3920.512821
181,4346.666666,4448.205128,4543.076923,4260.000000,4073.333333,4140.512820,4382.051282,3638.461539,4144.615384,4448.717948,4035.384615,4535.384615,3374.358975,3923.589744
182,4355.897435,4451.794871,4547.179487,4261.538461,4067.692307,4138.974358,4384.102564,3636.923077,4148.717948,4451.282051,4031.282051,4534.871794,3380.512821,3922.564103
183,4349.743589,4451.282051,4553.846153,4252.307692,4060.000000,4140.000000,4386.666666,3646.153847,4162.051282,4464.102564,4037.948717,4540.000000,3391.282052,3920.000000
184,4350.769230,4449.230769,4559.487179,4251.794871,4061.025641,4143.589743,4390.769230,3654.358975,4168.205128,4473.846153,4047.692307,4547.179487,3400.512821,3935.897436
185,4373.333333,4458.974358,4566.153846,4276.410256,4073.333333,4149.230769,4397.948717,3657.948718,4168.205128,4473.846153,4060.512820,4558.461538,3410.256411,3954.871795
186,4375.897435,4462.564102,4566.153846,4285.641025,4078.974358,4149.230769,4394.358974,3655.384616,4162.564102,4466.153846,4061.025641,4560.000000,3404.615385,3947.692308
187,4360.512820,4460.512820,4565.641025,4273.846153,4066.153846,4149.230769,4387.692307,3655.384616,4159.487179,4466.666666,4052.820512,4556.923076,3396.923077,3936.410257
188,4370.769230,4467.692307,4574.358974,4282.564102,4061.538461,4152.307692,4394.358974,3665.128206,4171.282051,4474.871794,4063.076923,4567.179487,3409.743590,3946.666667
189,4379.487179,4472.820512,4575.384615,4289.230769,4074.358974,4150.256410,4398.461538,3664.102565,4176.410256,4467.692307,4072.307692,4566.153846,3419.487180,3955.897436
190,4354.358974,4464.102564,4564.102564,4270.769230,4070.256410,4146.153846,4392.820512,3651.282052,4160.512820,4455.384615,4051.794871,4547.179487,3402.051283,3940.000000
191,4344.615384,4457.435897,4560.000000,4263.076923,4053.846153,4142.564102,4391.282051,3651.794872,4150.256410,4457.435897,4025.128205,4542.051282,3386.666667,3919.487180
192,4360.000000,4456.410256,4560.000000,4264.615384,4058.974358,4141.025641,4385.128205,3651.282052,4148.205128,4452.307692,4021.538461,4545.128205,3385.641026,3916.923077
193,4369.743589,4459.487179,4558.974358,4263.589743,4075.897435,4148.205128,4384.615384,3645.641026,4146.153846,4445.128205,4033.846153,4544.102564,3396.410257,3936.923077
194,4365.128205,4461.538461,4562.051282,4263.589743,4082.051282,4155.897435,4397.435897,3655.384616,4154.871794,4453.846153,4037.948717,4550.256410,3414.358975,3951.282052
195,4363.076923,4460.000000,4564.615384,4264.615384,4081.538461,4155.384615,4402.051282,3665.641026,4164.102564,4464.615384,4044.615384,4561.538461,3420.000000,3946.153847
196,4372.820512,4463.589743,4562.051282,4269.230769,4078.974358,4156.923076,4398.461538,3667.179488,4162.051282,4464.102564,4056.923076,4558.461538,3416.923077,3944.102565
197,4373.333333,4465.128205,4558.461538,4267.179487,4074.358974,4155.897435,4396.410256,3665.128206,4158.461538,4459.487179,4051.794871,4547.179487,3410.256411,3939.487180
198,4355.897435,4455.384615,4556.410256,4254.871794,4071.794871,4144.615384,4390.256410,3658.461539,4152.307692,4457.948717,4038.461538,4541.025641,3398.461539,3924.102565
199,4352.307692,4455.897435,4560.000000,4253.846153,4073.333333,4141.538461,4384.102564,3656.923077,4146.153846,4455.897435,4042.051282,4547.179487,3396.923077,3926.153847
200,4368.205128,4465.641025,4565.641025,4264.102564,4079.487179,4147.692307,4387.179487,3664.615385,4152.820512,4455.897435,4050.256410,4557.948717,3409.743590,3942.564103
201,4377.948717,4467.179487,4566.666666,4269.743589,4094.358974,4150.769230,4396.923076,3668.717949,4161.025641,4460.512820,4055.897435,4555.897435,3416.923077,3947.179488
202,4379.487179,4463.589743,4563.076923,4276.923076,4102.564102,4153.846153,4402.051282,3667.179488,4154.871794,4461.025641,4061.025641,4551.794871,3414.358975,3943.589744
203,4364.615384,4456.923076,4558.461538,4269.230769,4089.230769,4149.743589,4392.820512,3663.076924,4147.692307,4449.743589,4049.230769,4550.256410,3408.717949,3938.974359
204,4349.230769,4450.769230,4557.435897,4253.846153,4078.974358,4142.564102,4387.179487,3664.102565,4151.794871,4449.230769,4048.205128,4548.205128,3407.179488,3933.846154
205,4363.076923,4456.410256,4561.538461,4260.000000,4082.564102,4147.692307,4398.461538,3675.384616,4157.948717,4464.102564,4073.333333,4554.871794,3420.000000,3936.410257
206,4368.205128,4459.487179,4560.512820,4261.025641,4082.051282,4151.282051,4402.564102,3676.410257,4158.461538,4465.128205,4075.384615,4560.512820,3427.179488,3938.974359
207,4358.974358,4453.333333,4557.435897,4247.179487,4079.487179,4144.615384,4392.820512,3672.307693,4159.487179,4464.102564,4063.589743,4557.435897,3418.974359,3948.717949
208,4373.333333,4457.948717,4569.743589,4260.000000,4087.692307,4146.153846,4393.333333,3682.564103,4167.179487,4470.769230,4072.820512,4562.564102,3421.538462,3964.615385
209,4384.102564,4465.128205,4581.025641,4278.974358,4100.000000,4152.307692,4400.000000,3690.769231,4173.333333,4466.666666,4078.974358,4572.820512,3432.307693,3956.923077
210,4366.153846,4454.358974,4568.717948,4265.128205,4102.564102,4148.205128,4396.410256,3684.615385,4167.179487,4464.102564,4067.692307,4570.769230,3430.256411,3936.923077
211,4365.641025,4455.897435,4563.076923,4260.512820,4103.589743,4148.205128,4393.846153,3683.589744,4163.076923,4474.358974,4073.846153,4572.820512,3431.794872,3949.230770
212,4380.000000,4474.871794,4571.794871,4272.820512,4101.538461,4153.846153,4396.410256,3690.256411,4168.717948,4478.461538,4086.666666,4581.025641,3443.589744,3965.128206
213,4373.333333,4472.307692,4569.230769,4268.717948,4091.794871,4148.205128,4396.410256,3688.717949,4166.153846,4475.897435,4080.512820,4576.923076,3446.153847,3955.384616
214,4370.256410,4458.461538,4561.538461,4260.512820,4084.615384,4143.589743,4395.384615,3685.641026,4161.025641,4474.358974,4075.897435,4571.282051,3444.615385,3955.897436
215,4377.435897,4464.615384,4564.102564,4263.076923,4083.589743,4149.743589,4396.923076,3690.256411,4166.153846,4471.794871,4076.923076,4573.846153,3445.641026,3966.153847
216,4372.307692,4472.820512,4568.205128,4265.641025,4090.769230,4153.846153,4397.435897,3696.410257,4166.666666,4469.743589,4070.769230,4574.871794,3445.641026,3953.846154
217,4362.051282,4464.615384,4562.564102,4261.538461,4099.487179,4148.717948,4394.871794,3697.435898,4160.512820,4461.025641,4065.128205,4567.179487,3442.051283,3946.666667
218,4363.076923,4460.000000,4553.846153,4260.000000,4106.666666,4146.153846,4392.820512,3691.794872,4162.051282,4454.871794,4069.743589,4560.512820,3440.512821,3956.410257
219,4368.205128,4464.615384,4549.230769,4266.153846,4107.692307,4152.307692,4393.846153,3689.743590,4160.512820,4463.589743,4076.923076,4562.051282,3441.538462,3951.794872
220,4373.333333,4470.256410,4553.846153,4268.205128,4108.717948,4153.333333,4397.435897,3692.307693,4155.384615,4463.589743,4074.358974,4561.025641,3441.538462,3946.153847
221,4373.333333,4474.871794,4559.487179,4262.564102,4116.410256,4152.307692,4400.000000,3693.333334,4156.410256,4455.384615,4068.717948,4558.974358,3444.102565,3954.358975
222,4366.153846,4472.820512,4558.974358,4265.128205,4126.153846,4151.282051,4399.487179,3690.769231,4163.076923,4465.641025,4068.717948,4561.025641,3444.615385,3955.897436
223,4366.666666,4467.692307,4562.051282,4273.333333,4132.307692,4151.282051,4400.000000,3691.282052,4165.128205,4472.820512,4074.871794,4564.102564,3446.153847,3951.282052
224,4368.717948,4466.153846,4564.615384,4270.769230,4134.871794,4154.871794,4397.435897,3693.333334,4158.974358,4460.512820,4075.897435,4562.051282,3450.769231,3955.897436
225,4359.487179,4465.641025,4563.076923,4268.205128,4134.871794,4153.846153,4397.948717,3696.923077,4161.025641,4460.000000,4070.256410,4564.615384,3457.435898,3957.435898
226,4363.076923,4468.717948,4566.666666,4267.692307,4135.897435,4153.846153,4409.230769,3706.153847,4180.000000,4476.923076,4080.000000,4574.871794,3461.025642,3957.435898
227,4380.512820,4475.384615,4570.769230,4264.615384,4145.641025,4156.410256,4413.333333,3710.769231,4185.641025,4483.076923,4097.948717,4575.384615,3462.564103,3965.128206
228,4374.358974,4474.871794,4564.615384,4266.666666,4151.794871,4154.358974,4398.461538,3697.948718,4168.205128,4472.307692,4091.282051,4565.641025,3460.512821,3958.974359
229,4365.128205,4471.282051,4560.000000,4275.384615,4144.615384,4153.333333,4396.410256,3688.717949,4166.666666,4464.615384,4073.333333,4563.076923,3455.384616,3953.846154
230,4375.897435,4469.743589,4564.102564,4282.564102,4138.974358,4155.897435,4409.230769,3694.358975,4175.384615,4471.794871,4077.948717,4570.256410,3456.410257,3967.692308
231,4384.102564,4472.820512,4565.641025,4283.076923,4136.410256,4151.794871,4405.641025,3696.923077,4170.256410,4477.948717,4090.769230,4572.820512,3463.076924,3973.846154
232,4379.487179,4482.051282,4564.102564,4282.564102,4125.128205,4149.230769,4395.384615,3691.282052,4169.230769,4469.743589,4089.743589,4571.794871,3460.000000,3964.615385
233,4363.076923,4470.256410,4560.512820,4276.410256,4119.487179,4150.256410,4391.282051,3682.564103,4167.692307,4456.923076,4075.897435,4564.615384,3444.615385,3950.769231
234,4349.743589,4452.820512,4556.410256,4269.743589,4120.000000,4140.512820,4388.205128,3673.846154,4155.897435,4451.282051,4054.358974,4554.871794,3440.000000,3936.923077
235,4364.102564,4469.743589,4563.076923,4278.974358,4112.820512,4138.461538,4391.282051,3675.384616,4154.871794,4455.897435,4054.358974,4563.076923,3452.820513,3948.205129
236,4385.128205,4489.743589,4570.769230,4287.692307,4111.794871,4148.205128,4396.923076,3686.666667,4165.641025,4469.743589,4080.000000,4576.410256,3459.487180,3977.948718
237,4382.564102,4483.076923,4570.769230,4283.589743,4121.025641,4150.256410,4403.076923,3695.384616,4171.282051,4477.948717,4098.461538,4577.948717,3462.051283,3983.076924
238,4375.384615,4480.512820,4574.358974,4281.538461,4123.076923,4150.769230,4410.256410,3697.948718,4176.410256,4477.948717,4102.051282,4580.512820,3472.820513,3973.333334
239,4380.000000,4483.589743,4574.358974,4285.128205,4118.974358,4151.282051,4404.615384,3693.333334,4174.358974,4470.256410,4098.974358,4578.461538,3477.948718,3973.333334
240,4379.487179,4474.358974,4564.102564,4281.025641,4115.897435,4148.205128,4393.846153,3683.076924,4162.051282,4463.589743,4092.820512,4569.743589,3469.230770,3967.692308
241,4371.794871,4471.282051,4558.974358,4277.948717,4114.358974,4144.102564,4394.871794,3681.538462,4160.512820,4468.717948,4085.128205,4568.717948,3463.076924,3953.846154
242,4365.641025,4475.897435,4561.025641,4277.948717,4117.948717,4144.615384,4396.410256,3686.153847,4168.717948,4466.153846,4084.102564,4570.769230,3465.641026,3954.871795
243,4368.717948,4477.948717,4561.025641,4282.051282,4121.025641,4150.769230,4396.410256,3686.666667,4170.769230,4460.512820,4085.128205,4564.615384,3470.256411,3970.256411
244,4369.230769,4477.948717,4557.435897,4284.102564,4123.076923,4150.769230,4401.025641,3686.153847,4163.589743,4467.179487,4075.384615,4558.461538,3468.205129,3967.692308
245,4353.333333,4470.256410,4548.717948,4274.358974,4126.666666,4142.564102,4398.461538,3683.076924,4153.846153,4469.743589,4060.512820,4551.794871,3456.923077,3947.692308
246,4347.179487,4464.615384,4546.666666,4267.179487,4124.102564,4144.615384,4397.948717,3681.538462,4156.923076,4464.102564,4064.615384,4551.282051,3452.307693,3944.102565
247,4365.128205,4474.358974,4557.435897,4268.717948,4120.000000,4156.410256,4407.692307,3691.282052,4170.769230,4474.358974,4082.051282,4561.025641,3464.615385,3952.307693
248,4372.307692,4479.487179,4563.076923,4272.307692,4122.564102,4153.333333,4406.666666,3699.487180,4175.384615,4480.000000,4085.641025,4565.641025,3471.282052,3953.846154
249,4358.974358,4467.692307,4558.974358,4276.410256,4122.051282,4142.564102,4394.871794,3692.307693,4165.641025,4461.538461,4081.538461,4556.923076,3462.564103,3956.410257
250,4355.897435,4460.000000,4560.000000,4282.564102,4116.410256,4141.025641,4395.384615,3686.666667,4157.435897,4458.461538,4084.615384,4553.333333,3460.000000,3960.512821
251,4361.538461,4465.641025,4562.051282,4285.641025,4118.461538,4142.564102,4403.076923,3691.282052,4160.512820,4471.282051,4084.102564,4555.384615,3463.589744,3959.487180
252,4348.717948,4461.025641,4551.794871,4278.461538,4124.102564,4136.410256,4392.820512,3683.589744,4153.333333,4458.974358,4067.692307,4545.641025,3449.743590,3946.153847
253,4333.846153,4454.358974,4543.589743,4272.307692,4122.051282,4129.230769,4376.410256,3665.641026,4136.923076,4433.846153,4050.256410,4533.846153,3437.435898,3925.641026
254,4349.230769,4465.641025,4552.307692,4277.948717,4125.128205,4133.333333,4381.538461,3667.179488,4138.461538,4435.897435,4054.871794,4540.512820,3450.769231,3931.282052
255,4371.282051,4475.897435,4562.564102,4288.717948,4134.871794,4141.538461,4392.820512,3681.538462,4150.769230,4450.769230,4068.717948,4550.769230,3462.564103,3957.435898
256,4361.538461,4470.256410,4557.948717,4283.589743,4132.307692,4140.512820,4388.717948,3680.512821,4148.717948,4450.256410,4062.051282,4544.102564,3455.384616,3953.333334
257,4346.666666,4471.794871,4552.820512,4277.435897,4125.641025,4139.487179,4385.128205,3675.897436,4145.641025,4451.282051,4056.923076,4540.000000,3454.358975,3937.948718
258,4359.487179,4478.974358,4558.974358,4286.666666,4133.846153,4147.692307,4394.871794,3687.692308,4159.487179,4463.076923,4074.871794,4549.230769,3471.794872,3950.769231
259,4366.666666,4477.435897,4565.128205,4291.794871,4136.410256,4150.256410,4400.000000,3695.897436,4165.128205,4468.717948,4085.128205,4553.333333,3481.025642,3961.538462
