,AF3,F7,F3,FC5,T7,P7,O1,O2,P8,T8,FC6,F4,F8,AF4
0,4394.871794,4523.076923,4526.153846,4280.000000,4493.333333,4231.794871,4490.769230,4277.948717,4243.076923,4492.307692,4222.564102,4626.153846,4010.256410,3972.820513
1,4402.564102,4518.461538,4527.692307,4280.512820,4486.666666,4230.769230,4491.794871,4284.102564,4245.641025,4495.897435,4214.871794,4631.794871,4017.948717,3982.051283
2,4406.666666,4523.589743,4527.692307,4281.538461,4491.794871,4230.769230,4492.307692,4284.102564,4248.205128,4498.461538,4214.871794,4632.820512,4013.333333,3988.717949
3,4401.025641,4528.205128,4529.230769,4280.000000,4492.820512,4228.717948,4494.358974,4283.076923,4248.717948,4498.461538,4223.076923,4631.282051,4006.666666,3988.717949
4,4400.512820,4526.153846,4531.794871,4277.435897,4489.230769,4231.282051,4503.076923,4288.205128,4248.717948,4500.512820,4222.564102,4632.820512,4009.230769,3987.179488
5,4402.564102,4526.666666,4533.333333,4287.692307,4498.461538,4236.410256,4515.384615,4295.897435,4252.820512,4502.564102,4217.948717,4634.871794,4016.923076,3982.051283
6,4397.435897,4530.769230,4526.666666,4292.820512,4505.128205,4234.871794,4515.897435,4290.769230,4248.205128,4491.282051,4214.358974,4629.743589,4013.846153,3970.769231
7,4395.384615,4528.717948,4525.128205,4283.076923,4496.410256,4233.846153,4508.205128,4277.435897,4232.307692,4480.512820,4212.307692,4621.025641,4002.564102,3971.282052
8,4402.564102,4527.179487,4530.256410,4282.051282,4494.358974,4235.384615,4508.717948,4283.589743,4234.358974,4492.307692,4218.461538,4624.615384,4004.102564,3986.153847
9,4404.102564,4533.333333,4533.846153,4288.717948,4501.538461,4235.384615,4511.794871,4302.564102,4253.846153,4511.794871,4226.153846,4634.871794,4017.948717,3992.307693
10,4398.974358,4529.230769,4531.794871,4283.076923,4496.410256,4234.871794,4510.769230,4305.641025,4256.923076,4512.820512,4221.025641,4636.410256,4020.512820,3980.512821
11,4394.358974,4518.974358,4532.307692,4275.897435,4486.666666,4234.358974,4508.205128,4296.923076,4247.179487,4501.538461,4216.923076,4630.256410,4010.256410,3970.256411
12,4391.794871,4521.538461,4526.666666,4277.948717,4488.717948,4229.743589,4506.153846,4290.769230,4243.589743,4496.410256,4215.384615,4628.717948,4000.000000,3973.846154
13,4388.717948,4522.564102,4518.974358,4275.897435,4490.256410,4227.179487,4502.051282,4284.102564,4240.512820,4489.230769,4206.666666,4627.692307,3992.307693,3972.820513
14,4389.230769,4518.461538,4526.153846,4275.897435,4489.230769,4230.769230,4505.641025,4285.641025,4241.538461,4491.282051,4205.641025,4629.230769,3998.974359,3970.256411
15,4398.974358,4527.179487,4537.435897,4284.615384,4495.897435,4235.897435,4518.461538,4298.974358,4253.846153,4505.128205,4218.461538,4638.974358,4016.410256,3982.051283
16,4408.717948,4537.948717,4541.538461,4294.871794,4507.179487,4239.487179,4525.641025,4308.205128,4261.538461,4511.282051,4231.282051,4647.692307,4026.666666,3991.282052
17,4406.153846,4536.923076,4540.000000,4297.435897,4508.717948,4238.974358,4523.076923,4304.102564,4255.384615,4507.179487,4230.256410,4649.230769,4021.025641,3988.717949
18,4400.512820,4528.717948,4538.974358,4290.256410,4498.461538,4235.897435,4520.000000,4296.923076,4247.692307,4497.435897,4224.615384,4643.589743,4010.769230,3989.230770
19,4402.564102,4524.102564,4540.512820,4282.564102,4497.948717,4234.871794,4521.025641,4294.358974,4246.153846,4489.230769,4224.615384,4640.512820,4007.692307,3985.128206
20,4405.128205,4524.102564,4538.461538,4282.051282,4505.641025,4232.820512,4522.051282,4296.923076,4249.743589,4493.846153,4223.589743,4643.076923,4011.282051,3973.333334
21,4406.666666,4523.589743,4540.512820,4288.717948,4506.666666,4237.435897,4524.615384,4302.051282,4253.333333,4507.179487,4222.564102,4646.153846,4016.923076,3977.435898
22,4412.307692,4523.589743,4542.051282,4294.871794,4506.153846,4245.641025,4527.692307,4304.102564,4251.794871,4508.205128,4225.128205,4646.666666,4017.948717,3989.743590
23,4412.820512,4525.641025,4541.538461,4296.923076,4508.717948,4242.051282,4521.538461,4300.512820,4250.256410,4504.615384,4225.641025,4646.153846,4012.820512,3990.769231
24,4401.538461,4523.589743,4538.461538,4293.333333,4508.205128,4231.282051,4508.205128,4287.692307,4244.102564,4502.051282,4213.846153,4639.487179,4003.589743,3983.589744
25,4391.282051,4519.487179,4534.358974,4283.589743,4504.102564,4229.743589,4507.179487,4278.974358,4237.948717,4491.794871,4204.102564,4629.230769,4002.564102,3971.794872
26,4399.487179,4527.692307,4535.384615,4284.102564,4503.589743,4239.487179,4520.000000,4286.666666,4242.564102,4491.282051,4215.384615,4630.256410,4010.769230,3969.230770
27,4414.871794,4536.410256,4541.538461,4294.871794,4509.743589,4250.256410,4526.153846,4296.410256,4252.820512,4507.179487,4232.307692,4642.051282,4017.435897,3982.051283
28,4410.769230,4528.717948,4542.051282,4293.333333,4512.307692,4245.641025,4518.974358,4295.897435,4252.307692,4513.846153,4230.256410,4645.641025,4022.051282,3990.256411
29,4398.974358,4521.538461,4538.461538,4282.564102,4507.692307,4232.307692,4507.692307,4291.794871,4244.102564,4503.076923,4218.974358,4640.512820,4024.615384,3987.179488
30,4406.153846,4525.641025,4538.974358,4282.564102,4505.641025,4231.794871,4503.076923,4294.871794,4245.128205,4503.589743,4228.205128,4643.076923,4023.589743,3985.641026
31,4414.358974,4526.153846,4540.512820,4287.692307,4508.205128,4237.948717,4511.282051,4297.948717,4257.435897,4512.820512,4243.589743,4649.230769,4025.128205,3990.769231
32,4405.641025,4522.564102,4539.487179,4290.256410,4508.205128,4237.435897,4521.538461,4296.923076,4258.461538,4503.589743,4236.923076,4642.051282,4026.666666,3989.743590
33,4396.923076,4525.128205,4535.384615,4288.717948,4507.692307,4242.564102,4524.102564,4295.897435,4248.205128,4488.205128,4214.358974,4630.769230,4020.512820,3979.487180
34,4395.384615,4525.641025,4526.153846,4280.000000,4506.666666,4248.205128,4525.641025,4295.897435,4249.743589,4493.846153,4210.256410,4629.230769,4008.717948,3971.794872
35,4395.384615,4521.538461,4526.153846,4277.435897,4505.641025,4241.025641,4523.589743,4288.205128,4253.333333,4503.076923,4228.205128,4629.230769,4003.076923,3968.717949
36,4396.923076,4520.512820,4530.769230,4283.076923,4506.666666,4232.307692,4512.820512,4282.051282,4248.717948,4502.051282,4230.769230,4627.179487,4011.282051,3973.846154
37,4395.384615,4523.589743,4529.230769,4279.487179,4500.512820,4232.307692,4505.128205,4284.102564,4249.230769,4505.641025,4214.358974,4629.743589,4018.974358,3982.051283
38,4393.846153,4524.615384,4531.282051,4275.897435,4494.358974,4235.384615,4507.179487,4283.589743,4252.307692,4509.230769,4212.307692,4631.282051,4015.384615,3980.000000
39,4401.025641,4522.051282,4540.000000,4285.128205,4500.000000,4232.820512,4507.179487,4285.641025,4253.333333,4504.615384,4225.128205,4630.256410,4016.410256,3973.846154
40,4404.102564,4522.564102,4541.538461,4291.282051,4505.641025,4231.282051,4504.102564,4295.897435,4260.000000,4507.179487,4234.358974,4636.923076,4021.025641,3980.512821
41,4397.435897,4526.153846,4536.923076,4285.641025,4503.589743,4232.820512,4503.589743,4297.948717,4258.461538,4509.743589,4236.410256,4641.025641,4015.384615,3989.743590
42,4391.282051,4518.974358,4535.897435,4275.384615,4501.538461,4230.769230,4503.076923,4285.641025,4246.666666,4502.051282,4224.615384,4634.358974,4006.666666,3982.564103
43,4393.333333,4511.282051,4536.410256,4274.871794,4503.589743,4231.794871,4504.102564,4282.564102,4246.153846,4501.025641,4211.794871,4628.205128,4008.205128,3974.358975
44,4400.000000,4518.461538,4535.384615,4287.692307,4506.666666,4242.051282,4509.230769,4291.794871,4254.358974,4508.205128,4220.512820,4632.307692,4014.871794,3973.333334
45,4401.025641,4525.641025,4533.846153,4293.846153,4508.717948,4243.589743,4511.282051,4296.410256,4256.923076,4508.717948,4231.794871,4637.435897,4015.897435,3973.333334
46,4396.410256,4524.615384,4533.846153,4285.128205,4507.692307,4235.897435,4507.692307,4294.871794,4257.948717,4503.589743,4226.153846,4633.333333,4013.846153,3974.871795
47,4396.410256,4524.102564,4536.410256,4278.461538,4506.153846,4236.410256,4504.615384,4292.307692,4260.000000,4503.589743,4222.051282,4631.282051,4018.974358,3982.564103
48,4402.051282,4522.564102,4543.589743,4289.230769,4507.692307,4242.051282,4505.641025,4289.230769,4262.564102,4510.769230,4230.256410,4641.025641,4025.641025,3990.256411
49,4406.666666,4525.641025,4544.102564,4298.461538,4509.743589,4244.102564,4507.692307,4293.333333,4264.102564,4512.307692,4232.307692,4649.230769,4025.641025,3988.205129
50,4405.128205,4531.282051,4542.051282,4292.307692,4509.230769,4242.564102,4507.179487,4301.538461,4262.051282,4505.128205,4232.307692,4647.692307,4021.538461,3987.179488
51,4398.461538,4532.307692,4545.128205,4289.230769,4505.641025,4241.025641,4505.128205,4301.538461,4257.948717,4504.102564,4233.846153,4644.615384,4020.512820,3989.230770
52,4397.435897,4528.717948,4545.641025,4294.871794,4505.641025,4244.615384,4505.128205,4297.948717,4257.435897,4512.820512,4227.692307,4644.102564,4018.974358,3992.820513
53,4403.076923,4524.615384,4543.076923,4291.794871,4508.205128,4246.153846,4505.128205,4297.948717,4264.615384,4513.846153,4226.153846,4644.615384,4018.974358,3988.205129
54,4401.025641,4529.230769,4544.615384,4288.205128,4505.641025,4235.384615,4503.076923,4295.384615,4263.076923,4509.743589,4235.384615,4644.615384,4019.487179,3978.974359
55,4395.897435,4534.871794,4544.615384,4295.384615,4503.076923,4233.333333,4503.076923,4292.307692,4251.282051,4505.641025,4237.948717,4644.102564,4020.512820,3983.589744
56,4396.923076,4526.666666,4536.923076,4298.974358,4506.153846,4245.641025,4505.641025,4291.794871,4244.615384,4499.487179,4227.692307,4639.487179,4017.435897,3990.256411
57,4396.410256,4518.461538,4535.897435,4292.820512,4506.666666,4247.692307,4508.205128,4292.820512,4251.282051,4498.974358,4217.435897,4635.384615,4006.666666,3989.743590
58,4395.897435,4526.153846,4544.615384,4285.128205,4503.589743,4243.589743,4509.743589,4297.948717,4259.487179,4500.512820,4218.461538,4643.076923,4003.589743,3986.153847
59,4395.384615,4529.230769,4548.205128,4282.564102,4504.615384,4245.641025,4507.692307,4306.153846,4260.000000,4497.435897,4220.000000,4647.692307,4009.230769,3981.025642
60,4395.384615,4521.538461,4543.076923,4290.256410,4506.666666,4249.230769,4510.769230,4310.256410,4261.025641,4501.538461,4215.384615,4640.000000,4009.743589,3978.974359
61,4397.948717,4523.589743,4538.461538,4296.410256,4506.666666,4251.794871,4521.025641,4311.282051,4264.102564,4510.769230,4214.358974,4635.897435,4009.230769,3989.230770
62,4396.410256,4526.153846,4534.871794,4285.641025,4507.179487,4250.769230,4520.000000,4311.282051,4263.076923,4509.743589,4216.923076,4637.948717,4010.769230,3993.333334
63,4395.897435,4515.897435,4531.282051,4277.435897,4504.102564,4246.666666,4514.358974,4310.256410,4264.615384,4503.076923,4214.871794,4634.358974,4008.205128,3978.461539
64,4396.923076,4509.743589,4532.307692,4281.025641,4498.974358,4248.205128,4517.948717,4313.333333,4267.692307,4498.974358,4214.358974,4633.333333,4004.102564,3971.794872
65,4391.794871,4516.410256,4533.846153,4280.512820,4498.461538,4247.692307,4516.410256,4311.794871,4264.615384,4491.282051,4217.435897,4636.410256,4004.102564,3978.974359
66,4389.230769,4522.564102,4531.282051,4277.948717,4496.923076,4237.435897,4507.179487,4302.564102,4261.025641,4490.769230,4215.384615,4632.307692,4005.128205,3985.128206
67,4396.410256,4519.487179,4535.384615,4279.487179,4490.769230,4232.307692,4506.666666,4301.538461,4263.589743,4497.948717,4220.000000,4633.333333,4004.615384,3989.743590
68,4400.512820,4518.461538,4541.538461,4282.564102,4489.743589,4234.358974,4507.179487,4304.615384,4260.512820,4502.051282,4224.102564,4641.538461,4006.666666,3989.743590
69,4398.461538,4521.025641,4538.461538,4285.128205,4492.307692,4233.846153,4502.564102,4298.974358,4254.358974,4505.641025,4221.538461,4643.076923,4007.692307,3986.153847
70,4396.923076,4521.538461,4536.410256,4281.025641,4490.256410,4230.256410,4504.615384,4294.871794,4256.923076,4502.564102,4221.538461,4638.974358,4010.256410,3984.615385
71,4395.384615,4516.923076,4538.974358,4279.487179,4489.743589,4231.282051,4502.564102,4297.435897,4257.435897,4493.846153,4222.051282,4635.897435,4010.769230,3990.256411
72,4397.948717,4513.846153,4535.897435,4288.717948,4491.794871,4231.794871,4496.410256,4296.410256,4256.410256,4495.384615,4224.615384,4632.307692,4001.538461,3990.769231
73,4397.435897,4515.384615,4533.333333,4290.256410,4489.743589,4232.307692,4500.512820,4293.846153,4256.410256,4498.974358,4228.717948,4630.769230,4000.512820,3979.487180
74,4388.205128,4517.948717,4530.769230,4281.538461,4492.820512,4238.461538,4508.205128,4294.358974,4255.897435,4491.794871,4222.051282,4630.769230,4013.333333,3974.871795
75,4388.717948,4517.948717,4526.153846,4277.948717,4502.051282,4246.666666,4509.230769,4292.307692,4253.846153,4490.769230,4214.871794,4629.230769,4018.974358,3985.128206
76,4396.410256,4521.538461,4529.230769,4282.051282,4504.102564,4248.205128,4506.666666,4293.846153,4253.846153,4497.948717,4218.974358,4631.794871,4009.743589,3991.794872
77,4393.333333,4525.641025,4535.897435,4283.589743,4498.974358,4247.179487,4506.153846,4297.435897,4256.923076,4498.974358,4219.487179,4630.769230,4003.076923,3987.692308
78,4386.666666,4522.051282,4530.769230,4279.487179,4494.871794,4244.615384,4504.102564,4292.307692,4257.948717,4498.461538,4213.846153,4622.564102,4006.153846,3978.461539
79,4391.282051,4521.025641,4527.692307,4284.102564,4495.897435,4242.564102,4503.589743,4289.743589,4258.974358,4502.051282,4216.410256,4620.512820,4015.897435,3982.051283
80,4405.641025,4533.846153,4540.512820,4294.871794,4502.564102,4249.743589,4507.179487,4301.538461,4267.179487,4510.256410,4223.589743,4632.307692,4026.666666,4000.000000
81,4414.871794,4539.487179,4553.333333,4298.461538,4510.256410,4255.897435,4509.743589,4311.794871,4278.974358,4525.128205,4231.282051,4645.641025,4023.589743,4012.820512
82,4407.179487,4532.820512,4552.307692,4294.358974,4509.743589,4250.769230,4509.743589,4308.205128,4275.897435,4525.128205,4233.846153,4647.692307,4021.025641,4009.743589
83,4401.025641,4530.769230,4545.128205,4293.846153,4505.641025,4248.205128,4508.717948,4304.102564,4264.615384,4510.769230,4232.307692,4640.000000,4028.717948,3998.461539
84,4406.666666,4532.307692,4540.000000,4296.923076,4505.641025,4252.307692,4509.230769,4302.564102,4264.615384,4507.692307,4229.743589,4634.358974,4024.102564,3992.820513
85,4404.102564,4525.641025,4540.000000,4295.384615,4506.153846,4251.282051,4510.256410,4297.435897,4264.615384,4510.256410,4222.051282,4632.307692,4008.717948,3991.794872
86,4392.820512,4521.538461,4538.461538,4287.179487,4498.974358,4246.153846,4509.743589,4292.820512,4260.000000,4505.128205,4213.333333,4630.256410,4006.666666,3992.307693
87,4392.307692,4524.102564,4536.410256,4280.512820,4492.820512,4245.641025,4508.717948,4293.846153,4259.487179,4503.589743,4213.846153,4629.230769,4014.871794,3990.256411
88,4395.897435,4524.615384,4539.487179,4283.076923,4496.923076,4247.692307,4508.205128,4295.384615,4258.974358,4503.076923,4217.435897,4626.666666,4010.256410,3983.589744
89,4388.205128,4517.435897,4537.948717,4282.051282,4496.923076,4248.205128,4507.692307,4290.256410,4251.794871,4487.179487,4210.256410,4618.461538,3995.897436,3973.333334
90,4384.102564,4511.794871,4532.307692,4277.435897,4493.333333,4246.666666,4507.179487,4287.692307,4246.666666,4475.384615,4200.512820,4614.358974,3990.769231,3969.743590
91,4383.589743,4514.871794,4532.307692,4282.051282,4501.538461,4249.743589,4508.717948,4290.769230,4245.128205,4485.128205,4204.102564,4620.512820,3998.461539,3984.615385
92,4383.076923,4523.589743,4538.461538,4284.102564,4509.743589,4252.307692,4509.743589,4291.794871,4247.692307,4494.358974,4213.333333,4625.128205,4003.589743,3994.358975
93,4389.230769,4529.230769,4541.538461,4283.076923,4506.666666,4250.769230,4511.282051,4293.333333,4259.487179,4492.307692,4217.948717,4628.205128,4000.512820,3988.717949
94,4391.282051,4527.692307,4537.948717,4284.102564,4503.076923,4248.205128,4510.256410,4294.871794,4262.564102,4492.307692,4215.897435,4628.717948,4002.051282,3986.666667
95,4383.589743,4519.487179,4533.333333,4283.076923,4502.051282,4248.205128,4506.153846,4288.717948,4249.230769,4491.794871,4213.333333,4625.641025,4006.153846,3988.717949
96,4387.692307,4518.974358,4537.435897,4285.641025,4503.589743,4250.256410,4507.179487,4290.256410,4250.769230,4493.846153,4221.025641,4628.205128,4009.743589,3997.948718
97,4401.025641,4530.256410,4545.641025,4293.333333,4509.230769,4253.333333,4512.307692,4298.461538,4266.666666,4507.179487,4232.820512,4636.410256,4017.435897,4003.589743
98,4400.000000,4531.282051,4543.076923,4294.358974,4508.205128,4255.897435,4511.282051,4294.358974,4268.205128,4512.820512,4227.692307,4632.307692,4015.384615,3993.333334
99,4392.307692,4523.589743,4537.435897,4288.205128,4505.641025,4253.846153,4508.205128,4289.230769,4260.000000,4501.025641,4216.410256,4621.025641,4005.641025,3989.743590
100,4393.333333,4524.102564,4536.923076,4287.179487,4508.205128,4250.769230,4510.256410,4293.333333,4261.538461,4496.410256,4218.461538,4620.512820,4007.692307,3996.410257
101,4393.333333,4525.128205,4533.846153,4285.641025,4507.692307,4249.230769,4510.769230,4292.820512,4261.025641,4503.589743,4218.461538,4622.564102,4013.333333,3993.846154
102,4389.743589,4521.538461,4531.282051,4281.025641,4505.641025,4250.769230,4510.256410,4289.230769,4252.820512,4500.000000,4214.358974,4620.512820,4009.230769,3986.666667
103,4391.794871,4519.487179,4534.871794,4280.000000,4506.666666,4255.897435,4512.307692,4292.820512,4249.743589,4489.230769,4213.846153,4622.051282,4003.589743,3989.230770
104,4394.871794,4523.589743,4540.000000,4281.538461,4505.641025,4252.820512,4509.743589,4293.333333,4251.794871,4490.769230,4214.871794,4622.051282,4004.615384,3994.871795
105,4394.358974,4525.641025,4536.410256,4280.000000,4503.589743,4250.256410,4506.153846,4287.179487,4252.307692,4498.974358,4213.333333,4618.974358,4004.615384,3995.897436
106,4392.307692,4522.564102,4529.743589,4277.948717,4504.615384,4255.897435,4507.179487,4287.179487,4249.230769,4492.820512,4213.846153,4617.435897,4002.051282,3993.846154
107,4391.794871,4518.974358,4531.282051,4282.051282,4507.692307,4257.948717,4508.717948,4289.743589,4248.205128,4490.769230,4216.923076,4617.435897,3996.410257,3986.153847
108,4392.820512,4520.512820,4537.435897,4285.128205,4507.179487,4257.948717,4506.153846,4292.307692,4252.820512,4504.102564,4217.948717,4621.538461,3992.820513,3987.179488
109,4397.948717,4523.589743,4540.512820,4282.051282,4505.641025,4261.538461,4507.179487,4293.333333,4258.461538,4505.128205,4220.000000,4627.692307,4001.538461,3999.487180
110,4398.974358,4522.051282,4537.435897,4280.000000,4505.128205,4254.871794,4505.128205,4286.153846,4253.846153,4493.333333,4217.435897,4626.153846,4011.794871,4005.641025
111,4393.846153,4517.948717,4531.794871,4280.512820,4498.974358,4244.102564,4494.871794,4275.384615,4244.102564,4488.717948,4203.589743,4618.461538,4000.512820,3991.794872
112,4393.333333,4518.974358,4531.282051,4280.512820,4492.307692,4247.179487,4489.230769,4275.384615,4245.128205,4490.256410,4194.871794,4613.846153,3984.615385,3975.897436
113,4393.846153,4524.102564,4533.846153,4283.589743,4495.384615,4251.282051,4493.846153,4280.512820,4250.256410,4488.205128,4205.128205,4615.384615,3988.717949,3985.641026
114,4388.717948,4519.487179,4531.794871,4276.923076,4494.871794,4247.179487,4495.384615,4277.948717,4247.692307,4487.179487,4215.384615,4617.435897,3997.435898,3996.410257
115,4387.179487,4510.769230,4528.717948,4268.717948,4492.307692,4247.692307,4493.846153,4279.487179,4245.128205,4490.769230,4213.333333,4615.384615,3999.487180,3994.358975
116,4392.820512,4517.435897,4535.897435,4281.025641,4501.025641,4254.871794,4499.487179,4287.692307,4252.820512,4493.333333,4214.358974,4621.025641,4005.641025,3997.948718
117,4400.000000,4533.846153,4548.717948,4293.846153,4509.230769,4259.487179,4508.205128,4295.897435,4262.051282,4494.358974,4220.000000,4636.923076,4010.256410,4005.641025
118,4402.564102,4539.487179,4552.307692,4293.333333,4505.641025,4261.025641,4510.256410,4297.948717,4264.615384,4502.564102,4221.025641,4644.615384,4012.820512,4008.205128
119,4400.000000,4536.410256,4548.717948,4291.794871,4504.102564,4258.974358,4507.692307,4292.307692,4257.435897,4505.641025,4216.923076,4637.435897,4016.923076,4008.205128
120,4396.410256,4535.897435,4548.717948,4288.717948,4508.205128,4255.384615,4504.615384,4289.230769,4249.230769,4499.487179,4216.410256,4631.282051,4020.512820,4009.743589
121,4396.923076,4537.948717,4554.358974,4287.692307,4506.153846,4256.923076,4508.717948,4292.820512,4254.358974,4503.076923,4217.948717,4633.846153,4023.076923,4004.102564
122,4395.897435,4535.897435,4555.897435,4291.794871,4503.589743,4254.871794,4518.974358,4295.897435,4259.487179,4507.179487,4214.358974,4635.384615,4022.051282,4000.000000
123,4391.282051,4534.358974,4547.179487,4287.692307,4504.615384,4249.230769,4522.051282,4293.846153,4253.846153,4503.076923,4217.435897,4632.307692,4017.435897,4001.538461
124,4392.820512,4531.794871,4541.025641,4280.512820,4505.128205,4248.717948,4516.410256,4291.794871,4246.153846,4500.000000,4227.179487,4630.769230,4015.384615,4000.512820
125,4396.923076,4529.743589,4546.153846,4284.102564,4504.102564,4254.871794,4517.948717,4293.333333,4248.205128,4498.461538,4227.179487,4634.871794,4012.820512,4001.025641
126,4395.897435,4533.846153,4549.743589,4289.230769,4504.102564,4260.000000,4524.615384,4295.897435,4255.897435,4498.461538,4218.974358,4640.000000,4009.230769,4004.102564
127,4394.871794,4537.435897,4544.102564,4287.179487,4504.102564,4258.461538,4518.974358,4296.923076,4257.435897,4506.666666,4214.358974,4639.487179,4016.410256,4004.102564
128,4395.384615,4534.358974,4544.615384,4290.769230,4504.102564,4256.410256,4508.717948,4292.820512,4254.871794,4511.282051,4217.948717,4638.974358,4023.076923,4003.076923
129,4400.512820,4535.384615,4554.871794,4298.461538,4506.666666,4260.000000,4514.871794,4291.282051,4257.948717,4511.794871,4230.769230,4645.641025,4018.974358,4011.282051
130,4410.256410,4544.615384,4560.000000,4302.051282,4510.256410,4268.717948,4521.025641,4295.897435,4266.666666,4513.846153,4240.000000,4651.794871,4022.051282,4015.384615
131,4408.205128,4544.102564,4557.948717,4297.435897,4509.743589,4268.717948,4510.769230,4295.384615,4263.589743,4507.179487,4230.256410,4647.692307,4024.102564,4005.641025
132,4395.897435,4535.897435,4554.358974,4293.846153,4506.666666,4266.153846,4507.692307,4289.743589,4252.307692,4498.974358,4222.564102,4643.076923,4017.435897,4002.051282
133,4394.871794,4536.410256,4553.333333,4297.435897,4507.692307,4271.794871,4516.923076,4291.282051,4251.794871,4508.205128,4230.256410,4648.717948,4019.487179,4007.179487
134,4400.512820,4541.025641,4556.923076,4298.461538,4507.692307,4276.410256,4514.358974,4297.435897,4261.025641,4519.487179,4232.820512,4652.820512,4023.589743,4008.205128
135,4396.410256,4535.384615,4555.384615,4289.230769,4503.589743,4273.333333,4505.128205,4290.769230,4261.025641,4510.256410,4223.589743,4647.692307,4012.307692,3997.948718
136,4388.205128,4528.717948,4549.743589,4277.948717,4504.102564,4269.743589,4507.692307,4282.051282,4249.230769,4491.794871,4216.410256,4636.923076,4004.615384,3988.205129
137,4385.641025,4531.794871,4548.717948,4282.051282,4502.564102,4274.871794,4513.333333,4285.128205,4247.692307,4488.717948,4221.025641,4635.384615,4009.743589,3992.307693
138,4386.666666,4530.256410,4551.282051,4294.358974,4496.410256,4277.948717,4512.307692,4290.769230,4252.820512,4495.897435,4227.179487,4641.538461,4007.179487,4001.538461
139,4386.153846,4527.179487,4553.846153,4295.384615,4499.487179,4275.897435,4507.692307,4288.717948,4252.820512,4498.974358,4230.256410,4638.974358,4004.102564,4003.076923
140,4389.230769,4534.358974,4554.871794,4289.743589,4508.205128,4281.025641,4505.641025,4286.666666,4257.948717,4504.615384,4228.205128,4636.923076,4013.333333,4000.512820
141,4395.897435,4542.564102,4556.410256,4291.794871,4509.230769,4285.641025,4510.769230,4292.307692,4267.179487,4511.794871,4225.128205,4644.102564,4021.025641,4002.564102
142,4391.794871,4537.435897,4555.897435,4292.820512,4507.179487,4283.076923,4512.820512,4290.769230,4262.564102,4507.179487,4223.589743,4643.076923,4017.435897,4002.564102
143,4381.025641,4530.256410,4550.769230,4283.589743,4507.179487,4277.948717,4506.666666,4282.051282,4251.794871,4495.897435,4224.615384,4633.333333,4011.282051,3999.487180
144,4382.051282,4532.820512,4550.256410,4281.538461,4507.179487,4277.948717,4508.205128,4286.666666,4256.410256,4497.435897,4231.794871,4635.897435,4016.410256,3995.897436
145,4388.205128,4530.256410,4554.871794,4287.179487,4503.589743,4278.461538,4514.358974,4297.948717,4268.205128,4509.743589,4232.820512,4644.102564,4023.589743,3992.307693
146,4383.076923,4525.641025,4553.846153,4283.589743,4497.435897,4274.871794,4512.820512,4295.897435,4266.153846,4509.743589,4226.153846,4640.512820,4020.512820,3990.256411
147,4376.923076,4527.692307,4549.743589,4275.384615,4499.487179,4272.307692,4506.153846,4290.256410,4260.000000,4503.589743,4226.666666,4635.384615,4014.871794,3991.282052
148,4383.076923,4528.205128,4552.820512,4280.000000,4508.205128,4273.333333,4507.179487,4293.333333,4262.051282,4507.692307,4234.358974,4635.384615,4018.974358,3999.487180
149,4392.820512,4529.230769,4554.358974,4290.256410,4507.692307,4275.384615,4509.743589,4293.846153,4257.435897,4510.769230,4234.358974,4640.000000,4022.564102,4003.589743
150,4392.820512,4531.794871,4550.769230,4290.769230,4503.076923,4268.205128,4505.641025,4285.641025,4247.179487,4502.564102,4225.128205,4643.076923,4018.461538,3992.820513
151,4392.307692,4529.743589,4551.282051,4291.794871,4504.615384,4263.076923,4503.589743,4287.692307,4253.333333,4503.589743,4227.692307,4642.564102,4017.435897,3989.743590
152,4395.384615,4530.256410,4555.384615,4291.282051,4508.205128,4269.743589,4506.153846,4299.487179,4265.641025,4517.435897,4237.435897,4645.128205,4020.512820,4005.128205
153,4397.435897,4539.487179,4555.384615,4284.102564,4508.205128,4272.820512,4507.692307,4303.589743,4269.230769,4520.512820,4241.025641,4650.256410,4024.615384,4007.692307
154,4395.384615,4538.974358,4550.256410,4283.076923,4507.179487,4264.102564,4505.128205,4295.897435,4263.076923,4511.282051,4229.743589,4646.153846,4024.615384,3989.743590
155,4391.794871,4530.256410,4546.666666,4291.794871,4507.692307,4260.000000,4504.102564,4285.128205,4252.307692,4509.230769,4215.897435,4632.820512,4016.410256,3985.128206
156,4397.435897,4534.871794,4553.333333,4298.461538,4509.743589,4267.179487,4510.256410,4287.179487,4252.307692,4512.820512,4216.410256,4634.871794,4016.410256,3995.384616
157,4400.512820,4541.025641,4556.923076,4294.871794,4508.717948,4267.179487,4510.256410,4294.871794,4256.923076,4507.179487,4223.589743,4646.666666,4024.615384,3991.794872
158,4397.435897,4535.897435,4553.846153,4290.769230,4506.153846,4261.538461,4506.153846,4288.205128,4251.794871,4503.076923,4228.205128,4644.615384,4023.589743,3984.615385
159,4403.076923,4538.461538,4558.461538,4300.512820,4513.846153,4270.769230,4515.384615,4284.615384,4255.384615,4513.846153,4229.230769,4640.512820,4019.487179,3994.358975
160,4411.282051,4548.205128,4563.076923,4311.282051,4520.512820,4284.102564,4526.666666,4294.871794,4267.692307,4520.000000,4231.794871,4644.102564,4024.615384,4002.564102
161,4402.564102,4544.102564,4556.410256,4303.589743,4513.333333,4279.487179,4522.564102,4292.820512,4261.025641,4512.307692,4235.897435,4637.948717,4027.179487,3992.307693
162,4391.282051,4533.846153,4551.794871,4289.230769,4506.153846,4270.256410,4517.948717,4276.923076,4251.282051,4503.589743,4231.794871,4629.743589,4012.307692,3981.538462
163,4394.358974,4537.435897,4554.358974,4290.769230,4509.230769,4274.358974,4522.051282,4277.435897,4256.923076,4503.076923,4222.051282,4635.897435,3998.461539,3984.102565
164,4401.538461,4540.000000,4555.897435,4295.897435,4512.307692,4277.948717,4525.128205,4289.743589,4259.487179,4512.307692,4221.025641,4642.564102,4009.230769,3992.820513
165,4402.051282,4536.410256,4556.923076,4294.871794,4511.794871,4274.358974,4524.102564,4290.769230,4260.000000,4519.487179,4227.179487,4642.051282,4030.256410,3997.948718
166,4397.435897,4537.435897,4555.384615,4295.384615,4511.282051,4269.230769,4519.487179,4281.025641,4264.102564,4511.794871,4230.256410,4636.410256,4028.717948,3990.769231
167,4397.948717,4535.897435,4551.282051,4293.846153,4506.666666,4265.641025,4513.333333,4275.384615,4262.051282,4504.102564,4230.769230,4629.743589,4012.820512,3978.461539
168,4406.666666,4535.897435,4553.333333,4295.384615,4504.615384,4263.589743,4516.410256,4281.538461,4260.512820,4510.256410,4228.717948,4635.897435,4014.871794,3983.076924
169,4409.743589,4541.025641,4555.384615,4298.461538,4513.333333,4266.153846,4521.538461,4283.589743,4261.538461,4510.769230,4225.128205,4640.000000,4025.128205,3994.358975
170,4406.666666,4541.025641,4554.871794,4296.410256,4517.435897,4271.282051,4521.025641,4279.487179,4257.435897,4502.051282,4226.153846,4635.897435,4023.076923,3990.256411
171,4411.282051,4542.051282,4558.461538,4296.923076,4512.307692,4273.846153,4521.025641,4284.615384,4260.512820,4506.666666,4231.794871,4638.461538,4016.410256,3987.179488
172,4417.948717,4546.666666,4560.000000,4298.974358,4513.846153,4273.333333,4523.589743,4294.358974,4270.256410,4517.948717,4234.871794,4644.615384,4025.641025,4001.025641
173,4415.384615,4545.128205,4556.923076,4296.410256,4515.897435,4271.794871,4519.487179,4296.410256,4274.358974,4523.076923,4236.410256,4646.666666,4038.461538,4008.205128
174,4411.282051,4540.000000,4556.923076,4293.846153,4508.717948,4269.230769,4510.256410,4289.743589,4271.282051,4523.589743,4235.897435,4645.641025,4032.820512,3996.923077
175,4408.717948,4539.487179,4556.410256,4293.846153,4504.615384,4266.153846,4506.153846,4280.000000,4265.128205,4514.358974,4231.282051,4639.487179,4019.487179,3985.641026
176,4406.666666,4537.948717,4553.333333,4292.307692,4509.743589,4267.179487,4508.205128,4276.923076,4261.025641,4507.692307,4231.282051,4634.358974,4016.923076,3982.051283
177,4408.717948,4536.923076,4553.846153,4293.333333,4508.717948,4267.692307,4511.282051,4288.717948,4262.564102,4512.820512,4234.358974,4638.974358,4026.666666,3986.153847
178,4408.717948,4537.948717,4555.897435,4292.307692,4504.102564,4263.589743,4510.256410,4296.410256,4265.641025,4511.282051,4234.871794,4637.435897,4028.717948,3990.769231
179,4404.615384,4538.974358,4550.769230,4289.230769,4510.256410,4266.666666,4506.666666,4286.153846,4264.615384,4509.230769,4231.282051,4630.769230,4022.051282,3988.717949
180,4411.794871,4545.128205,4552.307692,4298.461538,4521.025641,4275.897435,4510.256410,4285.641025,4268.205128,4526.153846,4232.307692,4636.923076,4027.179487,3986.666667
181,4422.564102,4555.384615,4562.564102,4309.743589,4527.179487,4279.487179,4521.025641,4297.435897,4281.025641,4536.410256,4237.948717,4647.179487,4041.025641,3991.794872
182,4417.435897,4558.974358,4561.538461,4311.794871,4524.615384,4276.410256,4525.128205,4295.897435,4280.512820,4522.564102,4235.384615,4645.641025,4040.512820,3991.282052
183,4411.794871,4551.282051,4556.410256,4307.179487,4522.564102,4276.923076,4520.000000,4289.743589,4266.153846,4516.410256,4228.205128,4638.974358,4032.307692,3987.692308
184,4412.820512,4546.153846,4560.512820,4302.564102,4524.102564,4281.538461,4518.974358,4294.358974,4261.538461,4523.589743,4225.128205,4638.974358,4034.358974,3990.769231
185,4412.307692,4550.256410,4560.512820,4301.538461,4524.102564,4278.974358,4521.538461,4296.410256,4272.307692,4525.128205,4235.897435,4642.564102,4041.025641,3992.820513
186,4412.307692,4554.871794,4561.538461,4305.128205,4523.589743,4276.410256,4523.076923,4293.846153,4276.410256,4523.589743,4247.179487,4645.641025,4041.538461,3991.794872
187,4413.333333,4554.358974,4565.128205,4308.717948,4523.589743,4278.974358,4519.487179,4293.846153,4266.666666,4519.487179,4240.512820,4646.153846,4032.307692,3991.282052
188,4412.307692,4550.769230,4562.564102,4308.205128,4525.641025,4282.564102,4514.358974,4293.333333,4262.051282,4517.948717,4232.820512,4644.102564,4029.743589,3992.820513
189,4405.641025,4548.717948,4561.025641,4302.051282,4521.538461,4278.974358,4512.307692,4289.743589,4269.230769,4522.564102,4234.358974,4640.512820,4038.461538,3986.666667
190,4392.820512,4537.948717,4557.435897,4294.358974,4509.230769,4268.717948,4506.666666,4281.538461,4264.102564,4513.333333,4228.717948,4632.307692,4030.256410,3972.820513
191,4385.641025,4523.076923,4542.051282,4289.743589,4504.102564,4263.589743,4494.358974,4272.820512,4248.717948,4493.333333,4215.897435,4626.666666,4009.743589,3965.641026
192,4387.692307,4522.051282,4534.871794,4284.615384,4507.179487,4265.128205,4489.743589,4272.307692,4247.692307,4491.794871,4213.333333,4624.102564,4010.769230,3969.230770
193,4391.282051,4534.358974,4542.051282,4281.538461,4507.179487,4266.153846,4492.820512,4276.923076,4251.794871,4504.615384,4214.358974,4623.076923,4027.179487,3974.358975
194,4391.794871,4537.948717,4541.538461,4285.641025,4507.179487,4265.641025,4494.358974,4277.948717,4251.282051,4505.641025,4213.846153,4622.051282,4025.128205,3967.692308
195,4389.230769,4526.153846,4535.384615,4287.179487,4508.205128,4266.153846,4493.846153,4277.948717,4251.282051,4502.051282,4219.487179,4624.615384,4013.846153,3964.615385
196,4386.153846,4521.025641,4536.410256,4284.102564,4507.179487,4267.179487,4492.307692,4277.948717,4252.307692,4507.179487,4218.974358,4628.205128,4020.512820,3973.846154
197,4396.923076,4535.384615,4546.153846,4290.769230,4514.871794,4274.358974,4495.897435,4280.000000,4257.435897,4511.282051,4217.435897,4631.282051,4035.897435,3983.076924
198,4412.307692,4548.717948,4556.410256,4303.076923,4525.128205,4281.025641,4504.615384,4287.179487,4263.076923,4508.717948,4227.179487,4637.435897,4035.897435,3982.564103
199,4411.282051,4544.615384,4555.897435,4304.102564,4522.564102,4281.025641,4510.256410,4291.282051,4263.076923,4508.205128,4238.461538,4638.461538,4027.692307,3983.589744
200,4402.564102,4539.487179,4549.743589,4299.487179,4520.512820,4277.948717,4506.153846,4284.102564,4261.538461,4516.410256,4238.461538,4635.897435,4034.871794,3990.256411
201,4395.897435,4537.948717,4543.589743,4295.897435,4520.000000,4269.743589,4495.384615,4276.410256,4253.846153,4516.923076,4221.538461,4627.179487,4030.769230,3982.051283
202,4390.769230,4527.692307,4537.435897,4289.743589,4511.282051,4262.564102,4488.205128,4277.435897,4245.128205,4507.179487,4206.153846,4614.871794,4011.794871,3962.564103
203,4386.153846,4524.102564,4536.923076,4286.666666,4506.666666,4263.589743,4492.307692,4279.487179,4253.846153,4505.128205,4210.769230,4616.923076,4012.820512,3954.358975
204,4387.179487,4529.230769,4538.974358,4292.820512,4510.769230,4266.153846,4495.384615,4279.487179,4258.974358,4509.230769,4221.025641,4626.666666,4024.102564,3963.589744
205,4392.820512,4527.692307,4538.974358,4294.871794,4508.717948,4264.102564,4490.256410,4277.948717,4246.666666,4506.153846,4217.948717,4621.538461,4023.589743,3973.333334
206,4395.897435,4524.615384,4538.461538,4292.307692,4504.615384,4261.025641,4485.641025,4275.897435,4243.076923,4502.564102,4214.358974,4614.871794,4021.538461,3971.794872
207,4395.897435,4530.256410,4537.948717,4290.769230,4506.666666,4259.487179,4487.179487,4275.384615,4250.256410,4508.205128,4218.974358,4621.025641,4024.615384,3969.230770
208,4394.358974,4533.333333,4538.974358,4288.717948,4505.641025,4259.487179,4490.256410,4277.435897,4249.230769,4508.717948,4216.410256,4622.051282,4018.974358,3970.256411
209,4394.358974,4523.589743,4538.974358,4289.230769,4503.589743,4261.025641,4490.769230,4278.461538,4245.641025,4494.358974,4210.769230,4619.487179,4016.410256,3975.897436
210,4397.435897,4521.538461,4538.974358,4293.333333,4507.179487,4262.564102,4490.256410,4280.000000,4246.153846,4490.256410,4215.384615,4626.666666,4027.692307,3983.076924
211,4401.025641,4533.333333,4540.512820,4296.923076,4508.717948,4261.538461,4490.769230,4281.538461,4248.717948,4504.615384,4224.615384,4629.230769,4036.923076,3979.487180
212,4394.871794,4534.358974,4538.974358,4290.769230,4504.102564,4258.461538,4490.256410,4281.538461,4250.256410,4506.153846,4224.102564,4620.000000,4031.282051,3968.717949
213,4389.230769,4520.512820,4534.871794,4280.512820,4505.128205,4262.564102,4490.256410,4277.435897,4246.153846,4491.282051,4217.948717,4615.897435,4017.948717,3968.717949
214,4395.384615,4519.487179,4536.410256,4280.000000,4506.666666,4263.589743,4489.743589,4267.692307,4244.102564,4487.692307,4214.358974,4617.435897,4016.410256,3974.358975
215,4394.358974,4526.153846,4534.871794,4287.179487,4499.487179,4254.358974,4488.205128,4266.153846,4247.179487,4502.564102,4214.871794,4615.897435,4023.589743,3976.410257
216,4386.153846,4522.051282,4533.333333,4291.794871,4497.435897,4253.333333,4489.230769,4276.923076,4248.717948,4509.230769,4212.307692,4615.897435,4027.179487,3971.282052
217,4386.153846,4518.974358,4534.358974,4289.743589,4504.615384,4258.974358,4491.794871,4281.025641,4246.666666,4497.948717,4210.256410,4620.512820,4025.128205,3961.025642
218,4386.153846,4520.512820,4524.615384,4282.051282,4503.589743,4256.923076,4490.256410,4272.307692,4244.615384,4486.153846,4209.743589,4615.384615,4011.794871,3956.923077
219,4379.487179,4517.435897,4517.948717,4273.333333,4492.820512,4252.307692,4487.692307,4267.179487,4243.076923,4486.153846,4196.923076,4603.076923,3999.487180,3963.076924
220,4382.051282,4509.743589,4525.641025,4276.923076,4489.743589,4255.897435,4489.230769,4272.820512,4244.615384,4492.820512,4189.743589,4604.615384,4008.717948,3969.230770
221,4393.333333,4509.230769,4531.794871,4286.666666,4492.820512,4261.025641,4492.820512,4278.974358,4253.333333,4501.025641,4208.205128,4617.948717,4024.102564,3969.743590
222,4395.384615,4517.435897,4531.282051,4287.179487,4495.897435,4261.025641,4492.307692,4281.538461,4258.461538,4507.179487,4223.589743,4619.487179,4026.153846,3971.282052
223,4394.871794,4524.615384,4534.358974,4285.128205,4500.000000,4261.025641,4489.743589,4284.615384,4256.923076,4507.692307,4217.948717,4614.871794,4024.615384,3980.512821
224,4407.179487,4531.282051,4545.128205,4291.794871,4507.179487,4266.666666,4500.000000,4293.333333,4261.025641,4508.717948,4221.538461,4627.179487,4028.717948,3990.256411
225,4416.410256,4532.307692,4550.769230,4300.512820,4511.282051,4270.256410,4509.230769,4299.487179,4269.230769,4509.230769,4229.743589,4636.410256,4031.794871,3985.128206
226,4405.128205,4525.128205,4544.102564,4295.897435,4506.153846,4264.615384,4498.974358,4290.256410,4261.025641,4503.589743,4220.512820,4625.128205,4032.820512,3974.358975
227,4401.025641,4524.615384,4537.948717,4294.358974,4505.128205,4263.589743,4490.256410,4282.564102,4249.743589,4503.589743,4215.897435,4617.435897,4036.923076,3984.615385
228,4408.717948,4529.230769,4538.461538,4295.897435,4508.717948,4267.692307,4495.384615,4287.692307,4251.794871,4507.179487,4218.461538,4619.487179,4032.820512,3991.794872
229,4402.051282,4516.410256,4535.384615,4282.564102,4501.538461,4261.025641,4490.769230,4287.179487,4246.153846,4501.025641,4212.307692,4616.410256,4020.512820,3974.871795
230,4392.820512,4510.256410,4534.871794,4278.461538,4490.256410,4250.769230,4483.076923,4279.487179,4240.000000,4492.307692,4204.615384,4613.846153,4016.923076,3967.692308
231,4395.897435,4523.076923,4536.410256,4291.282051,4491.794871,4249.230769,4489.230769,4277.435897,4245.128205,4489.743589,4203.076923,4617.948717,4016.923076,3982.051283
232,4398.461538,4518.974358,4531.794871,4289.743589,4492.307692,4248.717948,4491.282051,4277.948717,4241.538461,4488.717948,4201.025641,4613.846153,4010.256410,3984.102565
233,4397.435897,4507.179487,4529.743589,4278.974358,4493.846153,4248.717948,4488.717948,4276.410256,4235.384615,4488.205128,4200.512820,4610.256410,4013.846153,3976.410257
234,4395.897435,4513.846153,4532.307692,4278.974358,4501.025641,4251.282051,4492.307692,4278.974358,4245.128205,4489.743589,4202.564102,4615.897435,4017.948717,3972.820513
235,4393.333333,4523.076923,4533.333333,4282.564102,4498.974358,4252.307692,4491.794871,4279.487179,4250.256410,4488.717948,4201.025641,4615.897435,4008.717948,3970.769231
236,4400.512820,4522.051282,4534.871794,4286.153846,4495.384615,4253.846153,4488.717948,4276.923076,4243.076923,4490.769230,4204.102564,4614.871794,4012.820512,3980.512821
237,4407.179487,4515.897435,4538.461538,4294.358974,4504.102564,4261.025641,4493.846153,4281.025641,4247.179487,4501.025641,4211.794871,4617.435897,4028.205128,3992.307693
238,4401.025641,4513.333333,4534.358974,4296.410256,4509.743589,4266.153846,4498.974358,4285.128205,4254.358974,4508.717948,4212.820512,4616.410256,4028.717948,3980.512821
239,4397.948717,4526.666666,4530.256410,4292.820512,4506.666666,4265.128205,4495.384615,4282.564102,4248.717948,4504.615384,4210.769230,4614.358974,4023.589743,3970.769231
240,4404.102564,4542.051282,4533.333333,4293.333333,4506.666666,4263.076923,4490.256410,4280.000000,4246.666666,4495.384615,4217.435897,4615.384615,4024.102564,3985.128206
241,4409.743589,4538.974358,4531.794871,4295.384615,4506.666666,4262.564102,4491.282051,4285.641025,4252.820512,4499.487179,4218.461538,4615.384615,4029.230769,3993.333334
242,4409.743589,4536.923076,4531.282051,4296.410256,4507.179487,4263.589743,4492.820512,4285.641025,4254.871794,4506.666666,4207.692307,4615.897435,4036.410256,3990.769231
243,4403.076923,4542.051282,4532.307692,4295.384615,4508.205128,4263.076923,4492.820512,4281.025641,4250.256410,4498.974358,4204.615384,4617.435897,4032.307692,3988.717949
244,4394.871794,4536.923076,4529.743589,4290.769230,4504.615384,4261.025641,4491.282051,4277.435897,4244.615384,4486.666666,4199.487179,4614.358974,4015.897435,3978.461539
245,4393.846153,4530.256410,4529.743589,4288.717948,4503.076923,4261.538461,4488.717948,4272.820512,4236.923076,4484.615384,4191.282051,4610.256410,4010.256410,3972.307693
246,4404.102564,4541.025641,4537.435897,4295.897435,4505.128205,4266.153846,4490.769230,4273.333333,4240.000000,4494.871794,4194.358974,4615.897435,4020.000000,3988.205129
247,4410.769230,4550.769230,4546.666666,4300.000000,4507.692307,4266.153846,4495.384615,4280.000000,4248.205128,4500.000000,4203.076923,4627.179487,4031.794871,4001.538461
248,4405.641025,4543.076923,4548.717948,4296.410256,4507.692307,4265.128205,4492.307692,4283.589743,4249.230769,4496.410256,4208.717948,4632.307692,4034.871794,3992.820513
249,4402.564102,4536.923076,4552.307692,4298.974358,4507.179487,4272.307692,4492.307692,4289.743589,4253.846153,4499.487179,4215.897435,4631.282051,4033.846153,3988.717949
250,4411.794871,4546.666666,4557.435897,4305.641025,4508.717948,4275.384615,4502.564102,4294.358974,4257.948717,4503.076923,4223.076923,4635.897435,4037.435897,4000.000000
251,4414.871794,4555.897435,4561.025641,4306.153846,4508.205128,4267.179487,4500.512820,4285.128205,4247.179487,4492.307692,4216.923076,4639.487179,4037.435897,4004.615384
252,4409.743589,4549.230769,4557.435897,4304.615384,4504.615384,4263.076923,4489.743589,4276.410256,4241.538461,4488.205128,4211.282051,4638.974358,4033.333333,4000.512820
253,4413.846153,4542.051282,4553.333333,4310.769230,4505.641025,4266.153846,4496.923076,4280.000000,4249.230769,4497.948717,4218.461538,4644.102564,4036.410256,4002.564102
254,4415.897435,4544.615384,4555.384615,4310.256410,4508.205128,4269.230769,4508.205128,4281.025641,4248.717948,4495.384615,4222.564102,4644.615384,4040.000000,4005.641025
255,4410.769230,4545.641025,4553.846153,4299.487179,4505.641025,4267.179487,4504.615384,4284.615384,4246.666666,4490.769230,4215.897435,4636.923076,4040.000000,4003.589743
256,4410.769230,4548.205128,4551.794871,4300.512820,4506.666666,4266.666666,4502.051282,4293.846153,4258.461538,4494.358974,4213.846153,4636.923076,4047.179487,4007.692307
257,4412.820512,4549.743589,4553.846153,4310.256410,4509.743589,4270.256410,4505.641025,4290.769230,4261.538461,4487.179487,4217.948717,4640.000000,4043.589743,4002.564102
258,4410.769230,4545.641025,4551.282051,4308.717948,4508.717948,4273.333333,4502.564102,4279.487179,4250.256410,4479.487179,4208.205128,4632.820512,4024.615384,3988.205129
259,4410.256410,4544.615384,4551.282051,4305.641025,4511.794871,4272.307692,4497.435897,4277.435897,4243.589743,4484.615384,4205.641025,4630.256410,4028.205128,3995.384616
