,AF3,F7,F3,FC5,T7,P7,O1,O2,P8,T8,FC6,F4,F8,AF4
0,4429.230769,4538.461538,4545.641025,4287.179487,4488.205128,4218.461538,4458.461538,4224.102564,4242.564102,4524.615384,4227.179487,4680.512820,4025.641025,4057.435897
1,4425.641025,4536.410256,4545.128205,4288.205128,4498.461538,4221.538461,4452.820512,4222.564102,4240.000000,4514.871794,4220.000000,4673.846153,4018.461538,4054.871794
2,4421.025641,4536.410256,4544.615384,4286.666666,4502.051282,4228.205128,4456.410256,4224.102564,4238.461538,4520.512820,4217.948717,4672.820512,4016.410256,4052.820512
3,4428.205128,4541.025641,4544.615384,4284.102564,4508.205128,4231.794871,4462.051282,4228.205128,4247.692307,4536.410256,4228.717948,4678.461538,4022.564102,4054.358974
4,4432.820512,4541.538461,4543.589743,4280.512820,4491.794871,4225.128205,4458.974358,4222.051282,4246.666666,4534.871794,4227.179487,4676.410256,4024.102564,4054.871794
5,4427.179487,4534.871794,4545.641025,4282.051282,4469.230769,4216.410256,4456.410256,4210.769230,4229.743589,4517.435897,4214.871794,4670.769230,4020.000000,4050.769230
6,4423.076923,4533.846153,4545.641025,4286.666666,4484.102564,4214.871794,4456.923076,4210.769230,4226.666666,4507.179487,4212.820512,4669.743589,4014.358974,4046.666666
7,4426.153846,4538.461538,4545.641025,4286.666666,4511.794871,4224.615384,4458.461538,4221.025641,4238.461538,4516.923076,4219.487179,4674.358974,4015.384615,4050.256410
8,4431.282051,4540.000000,4550.256410,4281.025641,4505.128205,4230.769230,4460.000000,4229.743589,4247.179487,4534.871794,4227.179487,4682.051282,4027.179487,4060.000000
9,4433.333333,4539.487179,4553.333333,4278.974358,4485.128205,4222.051282,4459.487179,4232.820512,4249.230769,4536.410256,4234.358974,4684.615384,4035.384615,4063.076923
10,4429.230769,4539.487179,4548.205128,4277.435897,4490.256410,4214.358974,4460.000000,4227.692307,4247.179487,4521.538461,4232.820512,4679.487179,4030.769230,4058.974358
11,4421.025641,4532.820512,4540.000000,4272.820512,4493.333333,4214.871794,4459.487179,4222.564102,4240.000000,4516.410256,4224.102564,4671.282051,4025.128205,4051.282051
12,4415.384615,4521.538461,4536.923076,4270.769230,4477.948717,4214.871794,4455.897435,4216.410256,4234.358974,4519.487179,4214.358974,4662.564102,4020.000000,4041.538461
13,4418.974358,4522.564102,4540.000000,4273.333333,4478.974358,4214.871794,4456.923076,4216.923076,4240.512820,4519.487179,4212.307692,4660.512820,4015.897435,4038.974358
14,4429.230769,4535.897435,4549.230769,4277.435897,4500.512820,4219.487179,4460.512820,4229.230769,4251.282051,4527.179487,4220.512820,4671.282051,4022.051282,4049.230769
15,4431.794871,4543.589743,4552.820512,4280.000000,4509.230769,4223.076923,4460.512820,4232.820512,4248.717948,4535.897435,4227.179487,4677.435897,4029.230769,4058.461538
16,4424.615384,4535.897435,4545.128205,4275.897435,4509.230769,4228.717948,4461.538461,4221.538461,4237.948717,4527.179487,4225.641025,4671.282051,4024.102564,4054.358974
17,4415.384615,4524.102564,4537.435897,4266.153846,4496.410256,4221.025641,4456.923076,4215.897435,4231.794871,4507.692307,4220.000000,4666.153846,4011.282051,4044.615384
18,4410.256410,4517.948717,4531.794871,4263.076923,4465.128205,4206.666666,4447.179487,4213.333333,4226.153846,4500.512820,4211.282051,4661.025641,4003.589743,4037.948717
19,4410.769230,4520.000000,4530.769230,4265.128205,4465.128205,4210.256410,4443.589743,4204.102564,4222.564102,4507.179487,4201.025641,4654.871794,3997.948718,4037.948717
20,4413.846153,4522.564102,4537.435897,4263.589743,4501.538461,4217.435897,4444.615384,4203.589743,4226.153846,4505.641025,4200.000000,4653.846153,3995.384616,4039.487179
21,4413.333333,4521.538461,4538.461538,4266.153846,4520.512820,4216.923076,4449.230769,4214.871794,4232.307692,4502.051282,4212.820512,4659.487179,4001.538461,4039.487179
22,4415.384615,4521.538461,4538.461538,4273.333333,4512.820512,4217.948717,4453.333333,4219.487179,4240.000000,4514.358974,4220.512820,4667.179487,4013.846153,4041.538461
23,4421.025641,4523.076923,4541.538461,4271.794871,4494.871794,4212.307692,4448.205128,4216.923076,4246.153846,4522.564102,4215.897435,4669.743589,4017.948717,4046.153846
24,4421.538461,4522.051282,4541.025641,4268.205128,4480.512820,4200.000000,4442.564102,4213.333333,4240.512820,4514.358974,4216.923076,4668.205128,4012.820512,4049.230769
25,4418.461538,4521.538461,4536.923076,4272.307692,4480.512820,4204.615384,4444.102564,4209.230769,4234.358974,4510.769230,4217.435897,4665.641025,4012.820512,4047.692307
26,4414.358974,4523.076923,4528.717948,4273.333333,4492.820512,4215.384615,4447.179487,4204.615384,4231.282051,4512.307692,4207.179487,4657.948717,4006.153846,4038.974358
27,4409.230769,4525.128205,4523.076923,4267.179487,4501.538461,4215.897435,4450.769230,4201.025641,4227.692307,4511.794871,4201.025641,4647.692307,3998.461539,4028.205128
28,4404.102564,4517.948717,4521.025641,4263.076923,4496.410256,4212.820512,4451.794871,4200.000000,4224.102564,4505.641025,4201.025641,4638.974358,3997.948718,4022.564102
29,4401.538461,4507.692307,4518.461538,4263.589743,4489.743589,4211.282051,4451.282051,4202.564102,4224.102564,4493.846153,4193.846153,4633.846153,3995.384616,4022.051282
30,4406.666666,4514.358974,4527.179487,4262.564102,4501.025641,4216.923076,4455.897435,4205.128205,4228.717948,4501.025641,4194.358974,4642.564102,3995.384616,4027.692307
31,4413.333333,4522.564102,4543.076923,4262.564102,4505.128205,4218.461538,4454.358974,4203.589743,4229.743589,4519.487179,4201.538461,4654.871794,4000.512820,4031.794871
32,4412.307692,4515.384615,4538.461538,4265.128205,4490.256410,4205.641025,4441.025641,4197.948717,4223.589743,4509.230769,4194.871794,4650.256410,3998.461539,4029.743589
33,4404.102564,4511.794871,4525.128205,4262.564102,4498.461538,4204.615384,4442.051282,4204.102564,4224.615384,4486.666666,4191.794871,4646.153846,3993.333334,4027.692307
34,4403.589743,4520.512820,4530.256410,4262.564102,4517.948717,4216.410256,4453.846153,4216.410256,4236.410256,4493.846153,4202.564102,4654.358974,3997.948718,4029.230769
35,4408.205128,4523.589743,4535.384615,4272.307692,4511.794871,4218.974358,4450.769230,4209.743589,4235.897435,4511.794871,4203.076923,4652.820512,4000.512820,4031.794871
36,4412.307692,4524.102564,4533.846153,4276.923076,4501.538461,4212.820512,4440.512820,4197.948717,4228.717948,4515.384615,4197.948717,4646.666666,4002.051282,4037.435897
37,4416.410256,4526.153846,4533.333333,4270.769230,4489.230769,4205.128205,4439.487179,4201.025641,4230.256410,4512.820512,4203.076923,4648.717948,4008.717948,4040.000000
38,4411.794871,4523.076923,4529.230769,4269.230769,4478.461538,4201.538461,4444.102564,4203.589743,4229.743589,4506.666666,4202.564102,4648.205128,4003.076923,4028.205128
39,4405.128205,4523.076923,4528.205128,4276.410256,4499.487179,4211.282051,4443.076923,4200.000000,4231.282051,4500.512820,4196.923076,4642.051282,3996.410257,4019.487179
40,4409.230769,4526.153846,4530.769230,4286.153846,4527.692307,4222.564102,4444.615384,4206.153846,4237.948717,4508.717948,4198.974358,4643.076923,3998.461539,4024.615384
41,4412.307692,4525.641025,4531.282051,4293.846153,4520.512820,4218.974358,4454.871794,4209.230769,4232.820512,4518.461538,4195.384615,4645.128205,3994.871795,4028.717948
42,4404.102564,4524.102564,4530.769230,4297.435897,4503.589743,4215.897435,4457.435897,4200.000000,4221.538461,4514.871794,4189.743589,4643.076923,3987.179488,4029.230769
43,4400.000000,4523.076923,4530.769230,4298.461538,4497.435897,4218.461538,4448.205128,4198.974358,4224.102564,4503.076923,4196.923076,4642.564102,3989.743590,4027.179487
44,4400.512820,4522.051282,4523.589743,4297.948717,4485.128205,4211.282051,4439.487179,4203.076923,4225.641025,4487.179487,4203.076923,4641.538461,3994.871795,4021.538461
45,4402.051282,4522.051282,4518.974358,4304.102564,4483.076923,4206.153846,4440.000000,4203.076923,4220.512820,4489.230769,4202.564102,4642.564102,3996.923077,4020.512820
46,4408.205128,4524.102564,4526.153846,4314.358974,4501.025641,4212.820512,4441.538461,4203.589743,4226.153846,4514.358974,4205.128205,4644.102564,3998.461539,4027.692307
47,4412.820512,4523.076923,4532.307692,4316.923076,4509.230769,4214.871794,4440.000000,4205.128205,4233.846153,4524.102564,4210.256410,4647.692307,3997.435898,4033.846153
48,4415.897435,4528.205128,4535.897435,4315.384615,4504.102564,4207.692307,4438.461538,4206.153846,4230.769230,4507.692307,4213.846153,4656.410256,4001.538461,4035.897435
49,4423.589743,4534.871794,4544.102564,4318.461538,4506.153846,4210.256410,4442.564102,4207.692307,4228.205128,4501.538461,4217.435897,4665.641025,4013.846153,4039.487179
50,4426.666666,4529.230769,4550.256410,4322.051282,4504.615384,4218.974358,4446.666666,4208.205128,4231.282051,4513.333333,4224.102564,4670.256410,4014.358974,4043.076923
51,4419.487179,4522.564102,4544.615384,4323.589743,4490.256410,4217.435897,4448.205128,4207.692307,4230.769230,4518.461538,4227.179487,4670.256410,4004.615384,4043.076923
52,4414.871794,4523.076923,4536.410256,4319.487179,4483.076923,4214.871794,4452.820512,4205.641025,4226.666666,4514.871794,4220.512820,4666.153846,4002.051282,4040.512820
53,4412.820512,4522.051282,4533.333333,4312.307692,4497.948717,4217.435897,4458.974358,4205.641025,4226.153846,4512.820512,4211.282051,4657.948717,4003.076923,4035.384615
54,4411.282051,4521.538461,4531.794871,4312.820512,4521.538461,4217.948717,4459.487179,4212.307692,4231.282051,4513.333333,4212.820512,4658.974358,3997.948718,4030.769230
55,4410.769230,4524.102564,4534.871794,4314.358974,4515.384615,4217.948717,4457.948717,4217.948717,4234.871794,4509.743589,4215.897435,4666.666666,3995.897436,4032.307692
56,4407.692307,4517.435897,4539.487179,4306.153846,4484.615384,4215.384615,4458.974358,4214.871794,4229.743589,4500.512820,4213.846153,4666.153846,3996.923077,4033.846153
57,4409.743589,4512.307692,4537.948717,4300.512820,4482.051282,4215.384615,4460.000000,4214.358974,4229.743589,4502.051282,4215.384615,4663.076923,3998.974359,4034.358974
58,4414.358974,4521.025641,4537.948717,4305.641025,4506.666666,4220.000000,4460.512820,4216.410256,4238.974358,4516.410256,4219.487179,4664.615384,4005.128205,4038.461538
59,4412.820512,4526.153846,4538.974358,4311.282051,4515.897435,4222.564102,4461.538461,4215.897435,4240.512820,4520.512820,4216.410256,4663.589743,4008.205128,4036.410256
60,4411.282051,4524.102564,4534.358974,4307.179487,4503.589743,4218.974358,4460.512820,4213.846153,4232.820512,4510.256410,4206.666666,4655.897435,3998.974359,4025.128205
61,4413.846153,4521.025641,4533.333333,4305.128205,4491.794871,4215.897435,4457.435897,4212.820512,4229.230769,4502.564102,4207.692307,4656.410256,3993.333334,4022.564102
62,4412.820512,4514.871794,4537.948717,4309.230769,4498.461538,4217.948717,4458.461538,4214.358974,4232.820512,4509.230769,4218.461538,4665.128205,3998.461539,4025.641025
63,4405.641025,4511.282051,4534.358974,4304.102564,4508.717948,4214.358974,4456.923076,4211.282051,4235.384615,4512.820512,4217.435897,4662.564102,3998.974359,4019.487179
64,4403.076923,4511.794871,4525.641025,4299.487179,4504.102564,4209.230769,4448.205128,4202.051282,4229.230769,4508.205128,4205.641025,4654.358974,3996.410257,4014.871794
65,4412.820512,4515.897435,4530.769230,4308.717948,4494.358974,4211.794871,4444.615384,4200.000000,4221.538461,4505.641025,4206.153846,4657.948717,4002.051282,4018.461538
66,4417.948717,4522.051282,4540.512820,4313.846153,4484.102564,4215.384615,4446.153846,4207.692307,4223.589743,4503.589743,4215.384615,4664.615384,4007.692307,4023.076923
67,4411.282051,4518.461538,4539.487179,4306.153846,4484.615384,4214.358974,4445.641025,4207.692307,4227.692307,4502.564102,4216.923076,4663.589743,4008.205128,4026.666666
68,4416.923076,4520.512820,4538.461538,4309.230769,4511.794871,4216.410256,4447.179487,4205.641025,4226.666666,4510.256410,4221.538461,4667.179487,4012.307692,4033.333333
69,4429.230769,4536.410256,4544.102564,4317.435897,4520.000000,4218.974358,4449.743589,4211.282051,4229.743589,4522.051282,4227.179487,4672.820512,4017.948717,4039.487179
70,4422.051282,4533.846153,4542.051282,4308.717948,4497.948717,4215.897435,4445.128205,4208.205128,4232.820512,4526.153846,4224.615384,4668.205128,4015.897435,4038.974358
71,4416.923076,4524.102564,4536.923076,4298.461538,4502.564102,4213.333333,4442.051282,4203.076923,4230.256410,4522.564102,4221.025641,4666.153846,4013.846153,4034.871794
72,4425.641025,4533.333333,4538.974358,4300.512820,4515.897435,4215.384615,4445.128205,4208.717948,4230.256410,4510.256410,4221.025641,4670.769230,4014.871794,4033.333333
73,4424.102564,4533.333333,4542.051282,4306.666666,4502.564102,4217.435897,4444.615384,4214.358974,4233.333333,4505.641025,4216.410256,4670.256410,4011.282051,4032.820512
74,4413.846153,4522.564102,4541.538461,4306.666666,4502.564102,4219.487179,4445.128205,4214.871794,4233.333333,4521.538461,4214.358974,4667.179487,4007.179487,4030.769230
75,4411.282051,4524.102564,4537.948717,4301.538461,4507.692307,4219.487179,4452.307692,4213.333333,4231.794871,4523.589743,4219.487179,4666.666666,4006.666666,4029.743589
76,4417.435897,4524.102564,4536.410256,4293.846153,4490.256410,4216.923076,4458.974358,4209.230769,4231.282051,4512.820512,4218.974358,4664.102564,4006.666666,4030.256410
77,4421.025641,4521.025641,4540.512820,4291.794871,4492.307692,4217.435897,4458.974358,4210.769230,4233.333333,4521.025641,4216.410256,4664.615384,4009.743589,4032.307692
78,4412.307692,4521.025641,4536.923076,4297.435897,4503.589743,4216.923076,4449.230769,4209.230769,4232.820512,4524.102564,4211.794871,4662.051282,4008.717948,4029.230769
79,4403.589743,4507.692307,4524.102564,4292.307692,4485.641025,4210.769230,4438.461538,4197.435897,4223.589743,4501.538461,4199.487179,4650.256410,3999.487180,4020.000000
80,4409.743589,4503.589743,4524.102564,4281.538461,4482.564102,4210.769230,4440.000000,4195.897435,4217.948717,4500.000000,4196.923076,4650.769230,3999.487180,4018.974358
81,4415.384615,4520.000000,4530.769230,4283.589743,4503.076923,4217.435897,4443.589743,4203.076923,4226.666666,4518.461538,4209.230769,4661.538461,4007.179487,4028.717948
82,4411.794871,4524.615384,4529.743589,4289.743589,4505.641025,4218.461538,4440.512820,4204.102564,4231.794871,4513.333333,4216.410256,4662.564102,4005.641025,4033.333333
83,4416.923076,4522.051282,4532.820512,4293.846153,4502.564102,4215.897435,4446.666666,4209.230769,4232.307692,4511.282051,4220.000000,4666.666666,4007.179487,4031.794871
84,4425.641025,4532.307692,4541.538461,4301.025641,4505.641025,4219.487179,4459.487179,4216.923076,4240.000000,4530.769230,4228.205128,4674.358974,4018.974358,4038.461538
85,4420.000000,4535.897435,4539.487179,4305.128205,4491.794871,4219.487179,4454.871794,4214.871794,4240.000000,4530.769230,4223.589743,4670.256410,4023.589743,4041.538461
86,4414.871794,4533.333333,4535.384615,4301.538461,4490.256410,4216.410256,4446.666666,4213.846153,4234.871794,4513.333333,4215.384615,4665.641025,4019.487179,4035.897435
87,4420.512820,4532.820512,4541.538461,4298.461538,4514.358974,4223.076923,4453.846153,4216.923076,4237.948717,4517.435897,4218.974358,4672.820512,4013.846153,4035.384615
88,4423.076923,4525.128205,4547.692307,4297.435897,4517.948717,4229.743589,4460.000000,4215.897435,4238.974358,4533.846153,4221.538461,4673.846153,4009.230769,4041.538461
89,4423.076923,4526.666666,4552.307692,4296.923076,4504.102564,4230.256410,4458.974358,4221.538461,4239.487179,4538.461538,4223.076923,4673.846153,4017.435897,4045.128205
90,4430.256410,4534.871794,4556.410256,4301.025641,4510.256410,4230.256410,4459.487179,4231.282051,4248.205128,4529.743589,4225.641025,4683.076923,4026.666666,4044.615384
91,4431.794871,4528.717948,4551.282051,4298.461538,4506.666666,4225.128205,4458.974358,4225.128205,4242.051282,4514.871794,4218.461538,4683.589743,4013.846153,4041.538461
92,4423.589743,4525.128205,4544.615384,4291.794871,4486.153846,4216.410256,4456.923076,4212.820512,4224.615384,4510.769230,4208.205128,4669.743589,3998.461539,4038.974358
93,4424.615384,4539.487179,4548.205128,4296.923076,4494.871794,4217.948717,4458.974358,4215.897435,4230.256410,4524.102564,4215.384615,4666.666666,4004.615384,4040.000000
94,4426.666666,4539.487179,4549.230769,4298.461538,4515.384615,4220.512820,4456.410256,4218.461538,4239.487179,4529.743589,4222.051282,4673.333333,4012.307692,4038.974358
95,4417.948717,4524.102564,4538.461538,4285.128205,4504.102564,4214.871794,4444.615384,4204.102564,4224.102564,4509.743589,4211.282051,4667.179487,4005.641025,4031.282051
96,4417.435897,4525.641025,4533.333333,4283.076923,4495.897435,4213.846153,4440.512820,4196.410256,4215.897435,4501.538461,4207.179487,4661.538461,4008.205128,4032.820512
97,4429.230769,4538.974358,4546.666666,4298.461538,4508.205128,4217.948717,4445.641025,4207.179487,4230.256410,4528.717948,4220.512820,4669.743589,4023.076923,4045.641025
98,4433.333333,4541.538461,4552.820512,4300.512820,4509.230769,4219.487179,4446.153846,4215.897435,4238.974358,4549.230769,4224.615384,4673.333333,4026.153846,4050.769230
99,4427.692307,4536.410256,4542.051282,4286.666666,4501.538461,4218.974358,4442.564102,4213.333333,4235.384615,4540.512820,4217.435897,4670.769230,4022.051282,4044.102564
100,4425.641025,4532.307692,4537.948717,4282.051282,4497.435897,4217.948717,4444.102564,4207.179487,4231.794871,4530.256410,4214.871794,4668.205128,4024.102564,4041.538461
101,4423.076923,4526.666666,4540.000000,4283.589743,4494.871794,4214.871794,4444.102564,4201.538461,4225.128205,4520.512820,4212.307692,4662.051282,4016.410256,4041.538461
102,4414.871794,4520.512820,4531.794871,4277.948717,4500.000000,4207.179487,4440.512820,4197.948717,4217.435897,4502.564102,4207.179487,4655.384615,4002.564102,4033.846153
103,4412.307692,4517.435897,4526.666666,4273.846153,4508.205128,4205.128205,4438.974358,4202.051282,4217.435897,4498.974358,4203.589743,4655.897435,4007.179487,4029.743589
104,4422.051282,4527.179487,4537.948717,4285.641025,4505.128205,4213.846153,4443.076923,4208.205128,4226.666666,4516.923076,4208.717948,4664.102564,4020.000000,4041.025641
105,4427.179487,4538.461538,4543.076923,4294.358974,4494.871794,4219.487179,4444.102564,4207.179487,4230.256410,4527.179487,4212.307692,4667.179487,4015.384615,4044.615384
106,4416.923076,4532.307692,4532.820512,4285.641025,4485.128205,4208.717948,4436.410256,4199.487179,4218.974358,4512.820512,4204.102564,4656.923076,4002.051282,4031.282051
107,4415.384615,4527.179487,4529.230769,4283.589743,4486.666666,4200.000000,4434.358974,4193.846153,4214.871794,4503.076923,4198.974358,4652.820512,3999.487180,4027.692307
108,4426.666666,4534.871794,4537.948717,4290.256410,4505.641025,4210.769230,4442.564102,4198.974358,4227.692307,4519.487179,4207.692307,4662.051282,4008.205128,4040.512820
109,4426.153846,4538.461538,4537.948717,4284.615384,4520.000000,4222.564102,4448.717948,4211.282051,4236.923076,4530.769230,4215.897435,4665.128205,4017.435897,4044.102564
110,4412.820512,4531.282051,4525.641025,4274.871794,4504.615384,4217.948717,4444.102564,4213.333333,4229.230769,4522.051282,4210.256410,4657.948717,4015.897435,4038.461538
111,4411.794871,4524.615384,4527.179487,4277.435897,4483.589743,4211.794871,4443.589743,4208.205128,4225.641025,4519.487179,4204.615384,4656.923076,4010.769230,4041.025641
112,4416.410256,4519.487179,4540.512820,4279.487179,4495.384615,4218.974358,4456.923076,4213.333333,4233.333333,4527.179487,4205.641025,4664.102564,4013.846153,4044.615384
113,4413.333333,4518.974358,4538.974358,4273.846153,4512.307692,4222.051282,4458.461538,4219.487179,4233.846153,4524.102564,4205.641025,4663.076923,4012.820512,4038.974358
114,4413.333333,4525.641025,4532.307692,4272.820512,4501.538461,4215.897435,4445.128205,4214.358974,4226.666666,4508.717948,4204.615384,4654.358974,4000.512820,4033.846153
115,4421.538461,4532.820512,4535.384615,4282.564102,4492.307692,4213.333333,4440.512820,4208.717948,4224.102564,4505.641025,4210.256410,4654.358974,4002.564102,4038.974358
116,4430.769230,4539.487179,4540.512820,4289.743589,4508.717948,4216.923076,4447.692307,4206.666666,4226.153846,4525.641025,4218.461538,4663.589743,4020.512820,4049.230769
117,4431.282051,4540.000000,4537.435897,4282.564102,4507.692307,4217.435897,4446.666666,4201.025641,4223.589743,4533.846153,4209.743589,4661.025641,4017.435897,4046.666666
118,4424.615384,4535.384615,4532.307692,4277.435897,4489.230769,4215.384615,4442.564102,4197.435897,4217.948717,4508.717948,4191.794871,4649.230769,3998.974359,4035.384615
119,4416.923076,4531.794871,4530.256410,4280.512820,4496.923076,4215.384615,4446.153846,4200.000000,4215.897435,4492.307692,4187.179487,4645.641025,3998.974359,4034.871794
120,4416.923076,4534.358974,4531.282051,4280.000000,4510.769230,4217.435897,4447.179487,4206.666666,4218.974358,4502.051282,4193.333333,4649.743589,4007.179487,4042.051282
121,4426.666666,4540.000000,4536.410256,4279.487179,4509.230769,4217.435897,4445.128205,4212.307692,4223.076923,4511.794871,4203.589743,4655.897435,4007.692307,4045.128205
122,4430.769230,4541.025641,4536.923076,4280.000000,4504.615384,4211.282051,4442.564102,4213.333333,4225.641025,4516.410256,4208.717948,4657.435897,4006.666666,4041.538461
123,4425.128205,4535.384615,4534.358974,4277.948717,4495.897435,4210.256410,4442.051282,4214.871794,4230.769230,4515.897435,4207.179487,4655.897435,4012.307692,4042.051282
124,4422.051282,4531.794871,4534.871794,4275.897435,4487.179487,4216.410256,4446.666666,4215.897435,4235.384615,4512.307692,4202.051282,4655.897435,4013.846153,4046.666666
125,4422.051282,4531.794871,4534.358974,4275.384615,4495.384615,4217.435897,4446.666666,4211.794871,4229.230769,4511.282051,4196.410256,4656.410256,4006.153846,4043.589743
126,4417.435897,4529.230769,4532.307692,4274.871794,4511.282051,4214.358974,4447.692307,4211.794871,4221.025641,4511.282051,4196.923076,4653.846153,4000.512820,4037.948717
127,4418.461538,4527.692307,4535.384615,4277.948717,4514.871794,4216.410256,4454.358974,4214.871794,4222.051282,4505.641025,4206.153846,4652.820512,4002.564102,4044.102564
128,4426.666666,4533.333333,4536.410256,4280.000000,4519.487179,4216.410256,4456.410256,4215.897435,4226.153846,4504.615384,4209.743589,4656.923076,4005.128205,4049.230769
129,4429.230769,4536.923076,4533.333333,4278.461538,4511.794871,4213.846153,4452.307692,4213.846153,4226.153846,4511.282051,4203.076923,4660.000000,4004.615384,4045.641025
130,4432.820512,4536.923076,4535.384615,4283.076923,4486.666666,4216.410256,4452.820512,4212.820512,4226.666666,4514.871794,4201.538461,4661.025641,4007.179487,4049.230769
131,4438.461538,4542.564102,4543.589743,4289.743589,4492.820512,4220.000000,4457.435897,4215.897435,4230.769230,4512.820512,4208.717948,4664.102564,4012.820512,4056.410256
132,4439.487179,4543.589743,4547.179487,4289.230769,4523.076923,4218.461538,4458.461538,4217.435897,4234.358974,4511.282051,4210.256410,4665.641025,4016.410256,4057.948717
133,4438.461538,4538.461538,4548.717948,4283.589743,4527.179487,4223.076923,4460.000000,4222.051282,4240.000000,4517.948717,4210.769230,4667.179487,4020.000000,4058.461538
134,4441.538461,4542.051282,4550.256410,4284.102564,4523.076923,4231.282051,4462.564102,4233.333333,4245.128205,4528.205128,4218.974358,4674.871794,4023.589743,4060.512820
135,4436.410256,4543.076923,4545.641025,4283.076923,4523.589743,4225.641025,4459.487179,4232.820512,4240.000000,4527.692307,4219.487179,4672.820512,4023.589743,4056.923076
136,4424.615384,4531.794871,4536.410256,4272.307692,4504.102564,4213.846153,4457.948717,4218.974358,4234.871794,4520.512820,4210.769230,4658.974358,4018.974358,4049.743589
137,4422.051282,4522.564102,4533.333333,4265.128205,4484.102564,4212.307692,4453.846153,4213.846153,4230.256410,4516.410256,4202.564102,4653.846153,4010.769230,4043.589743
138,4425.128205,4522.051282,4535.897435,4269.743589,4495.384615,4214.871794,4447.692307,4212.820512,4218.974358,4508.717948,4196.410256,4656.923076,4006.666666,4040.512820
139,4424.102564,4525.128205,4535.384615,4273.846153,4518.974358,4214.358974,4449.743589,4204.102564,4212.820512,4496.410256,4197.948717,4653.333333,4008.205128,4040.512820
140,4424.615384,4530.256410,4533.846153,4272.307692,4517.948717,4215.384615,4454.871794,4200.512820,4216.410256,4487.692307,4200.512820,4647.179487,4004.102564,4035.897435
141,4421.025641,4528.205128,4528.205128,4274.871794,4489.743589,4213.846153,4449.230769,4202.051282,4209.743589,4485.128205,4187.179487,4645.128205,3985.641026,4026.666666
142,4410.769230,4525.128205,4520.512820,4276.923076,4478.461538,4207.692307,4441.538461,4198.974358,4203.589743,4492.307692,4173.333333,4641.025641,3978.461539,4023.076923
143,4412.307692,4531.794871,4523.589743,4274.871794,4501.025641,4207.692307,4443.076923,4197.948717,4212.307692,4500.512820,4184.102564,4641.025641,3991.794872,4026.153846
144,4427.692307,4540.512820,4535.897435,4278.974358,4524.102564,4215.897435,4450.769230,4207.179487,4223.076923,4500.000000,4202.051282,4652.307692,4008.205128,4035.897435
145,4434.358974,4542.564102,4540.000000,4283.076923,4524.102564,4220.512820,4457.435897,4216.923076,4227.179487,4500.512820,4205.641025,4663.589743,4015.384615,4048.717948
146,4425.128205,4535.384615,4533.846153,4277.948717,4506.666666,4214.871794,4457.948717,4216.410256,4229.743589,4507.179487,4198.974358,4657.948717,4010.769230,4048.717948
147,4417.435897,4527.692307,4531.794871,4275.384615,4492.820512,4211.794871,4456.923076,4213.333333,4230.256410,4518.974358,4195.897435,4647.179487,4004.102564,4038.974358
148,4419.487179,4532.307692,4536.923076,4278.461538,4507.179487,4215.897435,4459.487179,4214.871794,4230.256410,4522.051282,4200.000000,4650.256410,4000.512820,4036.923076
149,4426.666666,4541.025641,4539.487179,4280.512820,4522.051282,4218.461538,4461.538461,4215.897435,4227.692307,4505.641025,4203.589743,4655.897435,4000.512820,4038.974358
150,4430.769230,4540.000000,4537.435897,4278.974358,4517.948717,4220.000000,4462.051282,4215.897435,4226.153846,4498.974358,4204.615384,4654.871794,4009.230769,4037.948717
151,4424.615384,4533.846153,4532.307692,4277.435897,4511.794871,4220.000000,4463.076923,4214.358974,4227.692307,4514.358974,4201.538461,4653.333333,4015.384615,4036.923076
152,4412.820512,4526.666666,4524.102564,4277.435897,4506.666666,4214.871794,4458.974358,4203.589743,4222.051282,4516.923076,4191.794871,4648.205128,4002.051282,4031.282051
153,4407.692307,4525.128205,4520.000000,4284.102564,4504.102564,4213.333333,4455.897435,4194.871794,4211.282051,4504.102564,4190.256410,4640.512820,3990.769231,4024.615384
154,4411.794871,4528.205128,4526.666666,4292.307692,4503.076923,4215.897435,4457.435897,4198.461538,4212.820512,4505.641025,4197.948717,4642.564102,3998.461539,4026.153846
155,4418.461538,4530.256410,4533.846153,4299.487179,4512.820512,4215.897435,4458.974358,4209.230769,4223.589743,4508.717948,4203.589743,4652.820512,4004.615384,4035.384615
156,4423.076923,4535.384615,4531.282051,4307.179487,4523.076923,4217.435897,4460.000000,4217.948717,4231.282051,4504.102564,4210.769230,4657.948717,4005.641025,4040.512820
157,4417.435897,4535.897435,4523.589743,4305.128205,4497.948717,4218.461538,4460.000000,4219.487179,4229.743589,4506.666666,4210.769230,4653.333333,4003.076923,4031.282051
158,4406.666666,4522.051282,4520.512820,4301.025641,4473.846153,4212.307692,4455.897435,4212.820512,4217.435897,4508.717948,4198.974358,4645.641025,3994.358975,4020.000000
159,4409.230769,4518.461538,4524.102564,4305.641025,4504.615384,4214.358974,4457.435897,4210.769230,4214.358974,4500.000000,4195.384615,4644.615384,3989.743590,4022.051282
160,4415.897435,4530.256410,4525.641025,4311.794871,4530.256410,4226.666666,4464.102564,4216.410256,4226.153846,4498.974358,4203.076923,4649.230769,3989.743590,4024.615384
161,4413.846153,4534.358974,4527.179487,4313.333333,4507.179487,4229.743589,4463.076923,4220.000000,4231.282051,4513.333333,4208.205128,4653.333333,3994.871795,4022.051282
162,4418.974358,4537.948717,4535.897435,4318.461538,4498.974358,4229.743589,4468.717948,4228.205128,4234.358974,4531.794871,4222.051282,4665.128205,4016.923076,4033.333333
163,4427.692307,4537.948717,4538.461538,4318.974358,4513.333333,4230.256410,4475.384615,4233.333333,4242.564102,4541.025641,4234.871794,4675.384615,4029.743589,4044.102564
164,4420.512820,4525.128205,4531.794871,4310.256410,4503.076923,4223.589743,4466.666666,4221.025641,4240.000000,4528.205128,4223.076923,4664.615384,4010.256410,4031.282051
165,4412.307692,4525.128205,4527.179487,4307.179487,4493.846153,4221.025641,4460.512820,4217.948717,4232.307692,4511.794871,4209.230769,4653.846153,4003.076923,4017.948717
166,4419.487179,4537.948717,4531.282051,4310.769230,4501.025641,4225.641025,4465.641025,4231.282051,4236.923076,4518.974358,4213.846153,4659.487179,4019.487179,4023.589743
167,4421.025641,4533.333333,4533.333333,4311.794871,4504.102564,4222.051282,4463.589743,4227.179487,4241.025641,4531.794871,4216.410256,4662.051282,4020.000000,4028.205128
168,4409.230769,4520.000000,4528.205128,4308.205128,4508.205128,4216.923076,4457.948717,4214.358974,4233.333333,4522.051282,4210.256410,4654.871794,4009.230769,4020.000000
169,4412.307692,4524.102564,4526.153846,4306.153846,4506.666666,4220.512820,4460.512820,4218.461538,4232.307692,4511.794871,4211.282051,4654.358974,4008.717948,4015.897435
170,4429.230769,4533.846153,4533.333333,4310.256410,4495.384615,4218.461538,4460.000000,4221.025641,4234.871794,4521.025641,4217.435897,4660.512820,4011.794871,4024.102564
171,4431.282051,4536.923076,4540.512820,4317.948717,4504.615384,4217.948717,4456.923076,4214.358974,4230.769230,4531.282051,4220.512820,4665.128205,4014.871794,4037.948717
172,4428.205128,4540.000000,4541.025641,4322.051282,4526.666666,4227.179487,4461.025641,4216.923076,4231.794871,4535.384615,4222.051282,4668.205128,4022.051282,4044.615384
173,4430.769230,4542.051282,4535.897435,4315.897435,4509.230769,4225.128205,4458.974358,4218.974358,4234.358974,4530.769230,4220.000000,4666.666666,4024.615384,4039.487179
174,4424.102564,4535.384615,4530.256410,4310.256410,4484.615384,4214.871794,4452.820512,4212.307692,4227.692307,4515.897435,4215.384615,4658.974358,4017.948717,4030.769230
175,4413.333333,4525.128205,4527.179487,4306.666666,4494.871794,4214.871794,4455.897435,4212.820512,4225.128205,4503.589743,4218.461538,4654.358974,4012.307692,4029.230769
176,4411.282051,4522.051282,4525.641025,4300.000000,4494.358974,4218.974358,4455.384615,4216.923076,4228.205128,4507.179487,4215.897435,4651.282051,4008.205128,4024.615384
177,4411.794871,4526.666666,4524.102564,4297.435897,4489.230769,4214.871794,4449.230769,4213.333333,4229.230769,4519.487179,4202.564102,4646.153846,4007.179487,4016.923076
178,4412.820512,4527.692307,4528.717948,4300.512820,4503.589743,4213.333333,4449.743589,4213.333333,4232.307692,4525.641025,4204.102564,4651.282051,4006.666666,4022.051282
179,4412.307692,4524.615384,4529.230769,4298.461538,4502.564102,4214.871794,4452.307692,4214.871794,4230.769230,4517.435897,4212.307692,4658.974358,4003.076923,4028.717948
180,4405.641025,4523.076923,4521.025641,4295.384615,4486.666666,4211.794871,4444.615384,4205.128205,4220.000000,4502.051282,4208.205128,4654.358974,4003.589743,4022.564102
181,4406.666666,4523.589743,4520.000000,4294.871794,4491.794871,4211.282051,4441.025641,4202.051282,4217.435897,4501.538461,4205.641025,4649.230769,4005.128205,4020.512820
182,4414.871794,4524.615384,4530.769230,4293.846153,4501.538461,4215.897435,4454.358974,4211.282051,4226.153846,4515.897435,4212.307692,4655.897435,4002.051282,4027.692307
183,4411.794871,4525.128205,4533.846153,4296.410256,4498.974358,4218.461538,4461.025641,4210.769230,4231.794871,4524.102564,4209.230769,4660.512820,4000.000000,4026.153846
184,4405.641025,4522.051282,4525.128205,4292.307692,4488.205128,4214.871794,4451.794871,4203.076923,4228.717948,4518.974358,4198.461538,4655.384615,4001.538461,4018.974358
185,4408.205128,4518.461538,4520.512820,4282.051282,4475.384615,4211.282051,4447.179487,4206.153846,4227.692307,4511.794871,4202.564102,4652.820512,4009.230769,4023.589743
186,4416.923076,4522.051282,4534.358974,4287.692307,4489.743589,4216.410256,4457.435897,4217.435897,4238.974358,4513.846153,4221.538461,4664.615384,4023.589743,4037.948717
187,4420.000000,4523.589743,4544.102564,4296.410256,4510.256410,4221.025641,4464.102564,4222.564102,4244.102564,4522.564102,4232.820512,4674.871794,4029.743589,4044.615384
188,4416.923076,4523.589743,4537.948717,4289.230769,4502.051282,4217.435897,4457.435897,4216.410256,4232.307692,4525.128205,4221.025641,4667.692307,4021.025641,4039.487179
189,4415.897435,4532.820512,4536.410256,4285.641025,4497.435897,4222.051282,4457.948717,4215.384615,4232.307692,4522.564102,4211.282051,4661.025641,4017.948717,4039.487179
190,4415.384615,4532.820512,4540.512820,4289.230769,4503.589743,4230.769230,4468.717948,4230.256410,4248.717948,4527.179487,4216.410256,4666.153846,4022.564102,4042.564102
191,4412.820512,4526.666666,4533.846153,4287.692307,4490.256410,4223.589743,4469.743589,4232.820512,4248.717948,4529.743589,4215.384615,4660.512820,4017.948717,4035.897435
192,4412.307692,4532.820512,4526.666666,4291.282051,4483.076923,4214.871794,4459.487179,4218.974358,4234.358974,4516.410256,4207.692307,4651.282051,4007.179487,4029.743589
193,4417.948717,4539.487179,4531.282051,4297.948717,4504.102564,4218.974358,4455.384615,4214.358974,4231.794871,4504.102564,4208.717948,4657.948717,4006.666666,4036.410256
194,4425.128205,4540.000000,4538.974358,4296.410256,4515.384615,4220.512820,4460.512820,4217.435897,4234.358974,4511.282051,4213.333333,4665.128205,4011.282051,4044.102564
195,4423.076923,4536.410256,4540.512820,4292.820512,4507.179487,4217.948717,4463.589743,4215.384615,4231.282051,4518.974358,4210.256410,4657.948717,4011.282051,4041.025641
196,4413.333333,4527.692307,4530.256410,4285.128205,4496.410256,4218.461538,4460.000000,4213.333333,4225.128205,4514.358974,4203.589743,4648.205128,4005.128205,4034.358974
197,4409.230769,4524.102564,4521.025641,4278.974358,4487.692307,4215.897435,4453.846153,4211.282051,4226.666666,4514.358974,4200.000000,4648.205128,4001.025641,4033.333333
198,4415.384615,4533.846153,4527.179487,4288.717948,4487.692307,4215.384615,4452.820512,4207.692307,4232.820512,4515.384615,4201.538461,4654.871794,4005.128205,4040.512820
199,4421.025641,4538.974358,4534.358974,4298.974358,4495.384615,4219.487179,4454.871794,4208.717948,4232.820512,4507.692307,4208.205128,4658.974358,4010.256410,4042.564102
200,4417.948717,4533.333333,4529.230769,4292.820512,4505.641025,4217.435897,4450.769230,4207.179487,4227.692307,4504.615384,4209.743589,4655.384615,4005.128205,4038.461538
201,4415.384615,4533.333333,4525.128205,4282.051282,4508.205128,4213.846153,4447.692307,4203.076923,4228.205128,4511.282051,4204.615384,4651.794871,4002.051282,4038.974358
202,4412.820512,4532.820512,4525.128205,4276.410256,4491.794871,4216.923076,4447.179487,4203.589743,4228.717948,4509.743589,4200.000000,4649.230769,4003.589743,4037.948717
203,4403.589743,4523.589743,4520.000000,4270.769230,4473.846153,4212.820512,4442.564102,4196.410256,4216.410256,4491.282051,4192.307692,4642.051282,3993.333334,4025.128205
204,4398.461538,4517.948717,4518.974358,4270.256410,4486.153846,4202.564102,4440.512820,4189.230769,4208.205128,4485.641025,4183.589743,4638.461538,3985.641026,4018.974358
205,4404.615384,4522.051282,4525.128205,4276.410256,4507.692307,4208.717948,4443.076923,4195.897435,4215.897435,4503.589743,4188.205128,4641.538461,3990.256411,4025.641025
206,4407.692307,4526.153846,4522.051282,4274.871794,4501.538461,4215.384615,4443.076923,4200.000000,4219.487179,4511.794871,4196.410256,4641.538461,3992.820513,4026.153846
207,4401.538461,4521.538461,4515.384615,4265.128205,4489.230769,4208.717948,4443.589743,4196.923076,4214.358974,4503.589743,4196.410256,4642.564102,3993.333334,4023.589743
208,4398.461538,4518.974358,4516.410256,4260.000000,4486.666666,4206.153846,4443.589743,4199.487179,4215.897435,4507.179487,4196.410256,4644.102564,3997.948718,4028.205128
209,4403.076923,4523.076923,4520.512820,4265.641025,4475.384615,4207.179487,4443.589743,4202.051282,4221.025641,4512.307692,4197.948717,4645.128205,4002.564102,4033.846153
210,4409.743589,4525.128205,4523.076923,4271.282051,4471.794871,4205.641025,4444.615384,4199.487179,4217.435897,4503.589743,4193.846153,4651.794871,4000.512820,4036.410256
211,4409.743589,4524.615384,4522.051282,4270.769230,4495.384615,4206.666666,4441.538461,4200.000000,4214.358974,4500.512820,4196.410256,4655.897435,3998.974359,4038.974358
212,4406.666666,4532.820512,4516.410256,4270.256410,4513.333333,4213.846153,4444.102564,4208.717948,4222.564102,4511.794871,4201.538461,4649.230769,4001.025641,4040.000000
213,4405.641025,4536.923076,4514.871794,4272.820512,4501.025641,4215.384615,4454.871794,4215.897435,4229.230769,4512.820512,4193.333333,4644.615384,3997.948718,4032.820512
214,4406.666666,4531.794871,4522.051282,4273.846153,4495.384615,4209.743589,4456.410256,4212.820512,4228.717948,4500.000000,4189.743589,4649.230769,3992.307693,4025.128205
215,4409.230769,4530.769230,4523.589743,4270.769230,4491.794871,4203.076923,4446.666666,4201.025641,4223.076923,4499.487179,4196.923076,4648.717948,3992.307693,4027.692307
216,4405.128205,4528.205128,4518.461538,4265.128205,4466.153846,4199.487179,4435.897435,4186.666666,4208.205128,4507.692307,4190.256410,4640.512820,3993.333334,4030.769230
217,4400.000000,4519.487179,4519.487179,4260.512820,4461.025641,4198.974358,4431.794871,4178.974358,4198.461538,4510.256410,4182.051282,4638.461538,3994.358975,4031.282051
218,4408.205128,4522.051282,4526.153846,4264.615384,4489.230769,4200.512820,4439.487179,4183.589743,4210.769230,4513.333333,4191.794871,4644.615384,3999.487180,4034.358974
219,4417.948717,4533.333333,4525.128205,4268.717948,4498.461538,4204.102564,4443.076923,4195.897435,4223.076923,4510.769230,4199.487179,4650.769230,3997.435898,4034.871794
220,4410.769230,4534.358974,4516.410256,4261.538461,4488.717948,4202.564102,4435.384615,4199.487179,4216.923076,4498.974358,4195.897435,4651.282051,3993.333334,4034.358974
221,4405.641025,4534.871794,4515.384615,4258.974358,4488.205128,4200.512820,4435.384615,4199.487179,4215.384615,4503.076923,4196.923076,4651.282051,4001.538461,4041.538461
222,4409.743589,4540.000000,4515.384615,4264.102564,4481.538461,4202.051282,4436.923076,4196.410256,4223.589743,4515.897435,4192.820512,4650.256410,4007.179487,4044.615384
223,4409.743589,4535.897435,4508.717948,4265.128205,4473.333333,4201.025641,4431.282051,4187.179487,4223.076923,4508.205128,4183.589743,4647.179487,3999.487180,4038.461538
224,4407.692307,4530.769230,4506.666666,4263.076923,4481.538461,4201.538461,4434.358974,4189.230769,4216.923076,4498.461538,4189.230769,4646.153846,3996.923077,4037.948717
225,4407.179487,4531.794871,4509.743589,4261.538461,4485.641025,4201.538461,4438.974358,4197.948717,4211.282051,4499.487179,4197.948717,4644.615384,4000.512820,4039.487179
226,4408.205128,4536.923076,4513.333333,4254.358974,4491.282051,4206.153846,4437.948717,4198.461538,4213.333333,4509.743589,4199.487179,4647.179487,4001.538461,4041.538461
227,4409.743589,4536.923076,4518.461538,4253.333333,4502.051282,4214.871794,4443.076923,4197.435897,4223.076923,4522.051282,4201.025641,4652.307692,4005.128205,4051.282051
228,4412.820512,4537.948717,4525.641025,4257.435897,4494.358974,4218.461538,4448.205128,4196.923076,4224.102564,4521.538461,4202.051282,4652.820512,4010.769230,4056.923076
229,4414.358974,4540.512820,4521.025641,4255.384615,4477.948717,4212.307692,4444.102564,4189.743589,4215.897435,4510.256410,4195.384615,4649.230769,4003.076923,4048.717948
230,4409.230769,4533.333333,4512.820512,4250.769230,4472.820512,4202.564102,4441.025641,4187.692307,4212.307692,4499.487179,4186.153846,4643.589743,3985.641026,4037.948717
231,4408.717948,4530.769230,4514.358974,4249.743589,4474.871794,4200.000000,4444.102564,4197.948717,4216.410256,4501.025641,4187.179487,4641.538461,3984.615385,4041.025641
232,4415.897435,4537.435897,4524.102564,4255.897435,4477.948717,4205.128205,4449.743589,4209.230769,4225.641025,4516.410256,4194.358974,4652.307692,4002.051282,4053.846153
233,4419.487179,4540.512820,4527.179487,4263.589743,4488.205128,4207.692307,4448.717948,4216.410256,4232.307692,4522.051282,4203.076923,4664.102564,4014.358974,4059.487179
234,4416.410256,4538.974358,4523.076923,4258.974358,4493.333333,4203.076923,4443.076923,4207.692307,4227.692307,4516.923076,4205.128205,4662.051282,4014.358974,4057.435897
235,4413.846153,4532.307692,4521.538461,4247.179487,4475.384615,4201.025641,4441.025641,4187.179487,4216.410256,4513.333333,4198.974358,4655.384615,4009.743589,4057.435897
236,4407.179487,4522.051282,4522.051282,4246.153846,4455.897435,4201.025641,4441.025641,4178.461538,4206.666666,4506.666666,4198.974358,4654.358974,4005.128205,4056.923076
237,4405.128205,4526.666666,4517.948717,4249.230769,4468.717948,4202.051282,4443.076923,4183.076923,4207.692307,4502.051282,4203.076923,4656.923076,4000.000000,4052.820512
238,4410.256410,4534.871794,4514.358974,4245.641025,4487.692307,4209.230769,4445.128205,4186.666666,4221.025641,4516.410256,4202.564102,4654.871794,3998.974359,4050.256410
239,4408.205128,4528.205128,4516.410256,4246.666666,4484.615384,4213.846153,4444.102564,4188.717948,4232.307692,4529.230769,4201.538461,4649.743589,4004.102564,4049.743589
240,4405.641025,4530.769230,4523.076923,4253.846153,4481.538461,4207.692307,4440.512820,4193.333333,4232.820512,4524.615384,4202.564102,4649.743589,4011.282051,4049.230769
241,4407.692307,4541.538461,4523.076923,4252.820512,4478.461538,4200.512820,4441.025641,4200.000000,4229.743589,4515.384615,4194.358974,4650.769230,4006.153846,4046.153846
242,4408.717948,4538.974358,4517.948717,4250.256410,4470.769230,4199.487179,4442.564102,4200.512820,4226.666666,4507.179487,4184.615384,4647.179487,3988.717949,4038.461538
243,4408.717948,4534.358974,4521.025641,4255.384615,4483.076923,4205.641025,4444.615384,4201.025641,4227.692307,4512.307692,4191.282051,4648.717948,3991.282052,4045.128205
244,4412.820512,4543.589743,4530.769230,4255.897435,4501.538461,4214.358974,4449.230769,4207.179487,4233.333333,4526.153846,4206.666666,4657.435897,4009.743589,4062.051282
245,4422.051282,4551.794871,4532.307692,4256.923076,4496.923076,4217.948717,4449.743589,4206.153846,4232.820512,4526.153846,4212.307692,4661.538461,4008.717948,4063.589743
246,4427.179487,4546.153846,4532.307692,4260.000000,4486.153846,4214.871794,4444.102564,4193.333333,4223.076923,4517.435897,4206.666666,4658.974358,3996.923077,4058.974358
247,4419.487179,4541.538461,4531.282051,4256.410256,4484.102564,4212.820512,4439.487179,4185.128205,4218.461538,4514.358974,4201.538461,4651.282051,3994.358975,4058.461538
248,4413.333333,4546.666666,4528.205128,4253.846153,4473.333333,4213.333333,4442.051282,4185.128205,4224.615384,4518.461538,4200.000000,4646.666666,3992.307693,4055.384615
249,4418.974358,4548.717948,4530.256410,4257.435897,4471.282051,4212.307692,4443.589743,4187.179487,4227.179487,4525.128205,4196.410256,4647.179487,3990.769231,4054.871794
250,4416.923076,4539.487179,4530.769230,4253.846153,4498.974358,4214.358974,4446.666666,4192.820512,4227.179487,4525.128205,4196.410256,4647.692307,3990.769231,4053.333333
251,4409.230769,4536.410256,4527.692307,4244.615384,4509.743589,4218.461538,4457.435897,4200.512820,4229.230769,4517.948717,4196.923076,4645.641025,3985.128206,4047.179487
252,4407.692307,4539.487179,4527.692307,4244.102564,4484.102564,4214.871794,4457.948717,4202.564102,4228.717948,4508.717948,4194.871794,4643.076923,3976.410257,4046.666666
253,4403.589743,4531.282051,4527.179487,4242.051282,4476.923076,4205.128205,4446.153846,4199.487179,4224.615384,4501.538461,4192.307692,4639.487179,3969.230770,4045.641025
254,4397.435897,4520.512820,4520.512820,4233.846153,4494.358974,4200.000000,4441.025641,4200.000000,4222.051282,4506.153846,4188.205128,4642.051282,3967.179488,4036.410256
255,4402.051282,4525.128205,4522.564102,4235.384615,4484.102564,4202.051282,4443.589743,4201.538461,4222.564102,4515.384615,4187.179487,4650.256410,3977.435898,4041.538461
256,4410.769230,4535.384615,4533.846153,4244.102564,4457.435897,4201.025641,4444.615384,4192.820512,4222.051282,4505.128205,4196.410256,4654.358974,3985.128206,4054.871794
257,4409.230769,4532.820512,4534.871794,4242.564102,4460.000000,4197.435897,4442.564102,4180.512820,4217.948717,4492.307692,4203.589743,4652.307692,3982.051283,4055.384615
258,4406.666666,4531.282051,4529.230769,4235.897435,4481.538461,4204.615384,4443.589743,4185.128205,4217.435897,4509.743589,4207.179487,4653.333333,3983.589744,4053.333333
259,4412.820512,4541.025641,4531.282051,4244.102564,4495.897435,4217.435897,4451.282051,4198.974358,4230.256410,4533.333333,4213.846153,4658.461538,3992.820513,4061.025641
