,AF3,F7,F3,FC5,T7,P7,O1,O2,P8,T8,FC6,F4,F8,AF4
0,4403.589743,4564.102564,4546.666666,4080.000000,4511.794871,4194.358974,4452.820512,4229.230769,4240.000000,4512.820512,4193.846153,4650.769230,3985.641026,4072.307692
1,4414.358974,4577.435897,4553.333333,4093.846153,4516.410256,4199.487179,4462.564102,4237.435897,4246.153846,4531.282051,4213.846153,4663.589743,3996.410257,4079.487179
2,4406.153846,4569.743589,4549.230769,4083.076923,4513.846153,4195.897435,4461.025641,4238.974358,4247.179487,4521.025641,4216.410256,4665.641025,3989.230770,4083.589743
3,4392.307692,4555.384615,4542.051282,4065.128205,4509.230769,4190.769230,4452.820512,4230.256410,4239.487179,4498.974358,4202.564102,4650.769230,3973.846154,4080.000000
4,4388.717948,4558.461538,4535.897435,4070.256410,4509.230769,4189.743589,4447.179487,4223.589743,4230.769230,4502.564102,4197.435897,4641.025641,3970.256411,4065.641025
5,4396.410256,4564.615384,4535.897435,4083.076923,4510.256410,4191.794871,4444.102564,4226.666666,4230.256410,4515.897435,4195.897435,4644.102564,3975.897436,4060.512820
6,4403.076923,4565.128205,4541.025641,4084.102564,4512.307692,4195.897435,4446.666666,4231.282051,4234.358974,4513.846153,4198.461538,4646.666666,3981.538462,4070.256410
7,4395.384615,4562.051282,4538.974358,4077.948717,4513.846153,4195.384615,4449.743589,4228.717948,4235.897435,4510.256410,4205.128205,4647.692307,3986.153847,4073.846153
8,4389.743589,4562.051282,4536.410256,4077.435897,4513.333333,4190.256410,4448.717948,4226.153846,4236.410256,4512.820512,4205.128205,4651.282051,3990.769231,4073.846153
9,4400.512820,4570.769230,4539.487179,4084.615384,4514.358974,4193.333333,4452.820512,4231.282051,4242.564102,4517.435897,4207.692307,4653.846153,3995.384616,4078.974358
10,4406.153846,4570.769230,4538.974358,4085.128205,4513.846153,4195.897435,4455.897435,4234.358974,4241.025641,4515.384615,4207.692307,4651.282051,3992.307693,4073.333333
11,4396.923076,4562.051282,4535.384615,4081.025641,4509.743589,4192.820512,4452.307692,4232.820512,4234.358974,4512.820512,4195.384615,4647.692307,3984.102565,4062.564102
12,4391.282051,4562.564102,4535.897435,4079.487179,4511.282051,4192.820512,4453.846153,4236.923076,4241.538461,4517.435897,4196.923076,4650.256410,3983.589744,4066.153846
13,4397.948717,4566.153846,4540.000000,4078.461538,4516.923076,4196.410256,4460.000000,4241.025641,4249.743589,4518.974358,4211.282051,4654.871794,3989.230770,4070.769230
14,4400.512820,4561.538461,4538.974358,4072.307692,4510.769230,4193.846153,4459.487179,4232.820512,4238.974358,4512.307692,4206.666666,4655.384615,3988.205129,4067.179487
15,4397.948717,4556.923076,4537.435897,4069.230769,4503.076923,4189.743589,4453.846153,4223.589743,4226.153846,4510.769230,4193.846153,4652.307692,3982.051283,4065.128205
16,4398.974358,4561.025641,4538.974358,4077.948717,4509.743589,4190.256410,4451.794871,4227.179487,4232.307692,4511.794871,4196.923076,4651.282051,3980.512821,4067.179487
17,4398.974358,4566.153846,4538.974358,4081.025641,4512.820512,4190.256410,4451.794871,4230.256410,4240.000000,4506.153846,4205.128205,4651.794871,3981.025642,4070.769230
18,4397.948717,4569.230769,4535.384615,4074.358974,4507.179487,4190.256410,4449.743589,4227.692307,4233.846153,4501.025641,4204.102564,4650.256410,3985.128206,4069.743589
19,4404.615384,4572.820512,4537.435897,4077.435897,4509.230769,4194.358974,4451.282051,4230.256410,4233.333333,4506.153846,4203.589743,4651.794871,3995.897436,4066.153846
20,4410.256410,4575.897435,4540.512820,4084.615384,4516.410256,4193.333333,4451.794871,4234.871794,4244.102564,4514.358974,4208.205128,4656.923076,3994.871795,4067.179487
21,4404.102564,4570.256410,4533.333333,4076.410256,4510.769230,4187.692307,4444.615384,4228.205128,4243.076923,4515.384615,4209.743589,4654.871794,3983.076924,4071.282051
22,4397.948717,4562.564102,4530.769230,4071.794871,4504.615384,4187.179487,4437.948717,4215.384615,4230.256410,4510.256410,4209.230769,4647.179487,3981.538462,4071.282051
23,4399.487179,4568.717948,4534.871794,4083.589743,4510.256410,4190.769230,4443.076923,4211.794871,4231.794871,4507.692307,4204.615384,4648.717948,3987.692308,4069.743589
24,4401.538461,4573.846153,4532.307692,4085.128205,4514.358974,4191.794871,4447.179487,4222.051282,4244.615384,4512.307692,4195.897435,4652.307692,3986.153847,4059.487179
25,4404.615384,4571.282051,4530.769230,4078.974358,4512.820512,4192.820512,4442.051282,4229.230769,4245.128205,4515.384615,4195.384615,4650.256410,3981.025642,4051.282051
26,4403.589743,4574.358974,4532.307692,4083.076923,4512.307692,4194.358974,4444.615384,4226.666666,4235.897435,4511.794871,4200.000000,4649.230769,3980.512821,4061.025641
27,4391.282051,4572.820512,4526.666666,4077.435897,4512.820512,4191.282051,4447.692307,4224.615384,4233.333333,4504.102564,4195.384615,4646.153846,3982.051283,4064.102564
28,4390.769230,4566.153846,4520.000000,4068.717948,4511.794871,4189.230769,4444.615384,4224.102564,4235.897435,4502.564102,4191.282051,4644.615384,3983.076924,4054.871794
29,4401.538461,4563.589743,4526.666666,4076.410256,4512.307692,4193.846153,4444.102564,4223.076923,4236.410256,4510.256410,4193.333333,4650.256410,3984.615385,4057.948717
30,4398.974358,4564.615384,4532.307692,4078.461538,4511.794871,4194.358974,4443.589743,4221.538461,4234.358974,4511.794871,4190.256410,4653.333333,3982.564103,4060.512820
31,4395.384615,4570.256410,4528.205128,4076.410256,4509.743589,4191.282051,4442.051282,4224.102564,4236.923076,4513.333333,4197.948717,4652.820512,3984.615385,4057.435897
32,4398.461538,4574.358974,4529.743589,4082.051282,4513.333333,4193.846153,4450.256410,4229.230769,4241.025641,4517.948717,4210.769230,4654.358974,3988.205129,4066.666666
33,4396.410256,4566.666666,4532.820512,4077.435897,4517.435897,4196.923076,4456.923076,4234.871794,4237.435897,4514.871794,4205.641025,4653.333333,3982.564103,4072.307692
34,4396.923076,4562.051282,4531.794871,4071.282051,4514.358974,4196.923076,4451.282051,4236.410256,4234.358974,4508.717948,4198.461538,4652.820512,3981.025642,4062.051282
35,4407.179487,4569.230769,4533.846153,4078.461538,4509.743589,4193.846153,4448.717948,4230.256410,4240.512820,4514.358974,4208.717948,4657.948717,3992.307693,4063.076923
36,4410.256410,4576.923076,4540.000000,4083.076923,4510.769230,4190.769230,4452.307692,4226.153846,4245.641025,4520.512820,4220.512820,4665.641025,3998.974359,4073.846153
37,4405.128205,4574.358974,4539.487179,4078.461538,4513.846153,4191.794871,4446.666666,4224.615384,4238.461538,4510.256410,4208.717948,4663.076923,3994.358975,4072.307692
38,4403.589743,4564.102564,4528.205128,4076.410256,4512.307692,4193.846153,4443.589743,4221.025641,4230.256410,4500.000000,4191.794871,4650.769230,3994.871795,4064.615384
39,4407.692307,4566.153846,4528.205128,4080.512820,4513.846153,4195.897435,4457.435897,4224.615384,4235.384615,4511.282051,4200.512820,4651.282051,3997.948718,4066.153846
40,4411.794871,4577.435897,4538.461538,4087.692307,4516.410256,4197.435897,4463.076923,4231.794871,4240.512820,4522.051282,4220.000000,4661.538461,3993.846154,4072.307692
41,4406.153846,4570.769230,4536.410256,4087.692307,4512.820512,4195.897435,4450.256410,4231.282051,4238.461538,4513.846153,4212.307692,4656.923076,3986.153847,4072.820512
42,4400.512820,4561.538461,4529.743589,4080.512820,4508.717948,4192.820512,4443.076923,4226.153846,4238.974358,4510.256410,4191.282051,4648.717948,3986.666667,4071.282051
43,4401.025641,4567.692307,4531.282051,4074.871794,4509.743589,4191.794871,4445.641025,4227.692307,4240.000000,4515.897435,4190.769230,4652.820512,3993.846154,4062.051282
44,4400.512820,4567.179487,4529.743589,4071.794871,4511.282051,4191.282051,4445.128205,4231.282051,4234.358974,4511.794871,4202.051282,4654.358974,3990.256411,4053.846153
45,4402.051282,4562.564102,4523.589743,4072.307692,4509.230769,4191.282051,4450.256410,4235.384615,4239.487179,4511.794871,4211.282051,4650.769230,3985.128206,4064.615384
46,4402.564102,4564.102564,4525.641025,4075.897435,4507.179487,4191.282051,4454.358974,4236.923076,4248.717948,4518.974358,4213.846153,4651.794871,3992.307693,4072.820512
47,4394.871794,4559.487179,4524.615384,4076.410256,4507.692307,4188.717948,4446.153846,4230.769230,4245.128205,4514.358974,4206.666666,4649.230769,3992.820513,4061.025641
48,4395.897435,4563.076923,4524.615384,4078.461538,4512.820512,4191.794871,4446.666666,4227.692307,4241.538461,4510.769230,4206.666666,4649.230769,3986.666667,4055.897435
49,4413.846153,4576.410256,4537.435897,4087.692307,4515.897435,4197.435897,4454.871794,4233.333333,4240.512820,4520.512820,4219.487179,4659.487179,3994.358975,4064.615384
50,4418.461538,4574.871794,4542.051282,4092.820512,4513.333333,4194.871794,4456.410256,4239.487179,4241.538461,4524.615384,4222.564102,4665.128205,4006.666666,4066.666666
51,4405.641025,4563.589743,4534.358974,4087.179487,4514.871794,4193.333333,4455.384615,4238.974358,4248.717948,4520.000000,4214.358974,4660.000000,4001.538461,4068.717948
52,4398.974358,4560.512820,4526.153846,4076.410256,4512.307692,4192.307692,4452.307692,4231.794871,4245.128205,4513.333333,4207.692307,4652.820512,3987.179488,4068.717948
53,4397.948717,4557.435897,4521.538461,4070.769230,4502.051282,4184.102564,4443.589743,4225.641025,4229.743589,4506.666666,4197.435897,4645.641025,3980.512821,4057.948717
54,4396.923076,4556.923076,4520.512820,4074.871794,4502.564102,4182.051282,4446.666666,4229.230769,4231.794871,4511.282051,4190.256410,4644.615384,3982.051283,4051.794871
55,4398.461538,4561.025641,4524.615384,4082.564102,4512.820512,4191.282051,4456.410256,4235.897435,4244.102564,4516.410256,4194.871794,4650.769230,3987.179488,4056.410256
56,4401.025641,4557.948717,4526.666666,4083.076923,4513.846153,4198.461538,4457.435897,4235.897435,4240.000000,4504.102564,4201.538461,4654.358974,3990.256411,4063.076923
57,4404.102564,4560.512820,4526.153846,4080.000000,4510.769230,4196.410256,4460.512820,4233.846153,4232.820512,4500.000000,4202.051282,4655.384615,3987.179488,4069.743589
58,4401.025641,4568.717948,4526.666666,4079.487179,4507.179487,4190.256410,4463.589743,4236.410256,4235.897435,4515.384615,4202.564102,4656.410256,3986.666667,4067.179487
59,4389.230769,4558.974358,4520.512820,4073.846153,4500.000000,4187.692307,4454.871794,4234.871794,4238.461538,4518.461538,4208.717948,4652.307692,3988.205129,4055.384615
60,4385.641025,4543.076923,4515.384615,4064.102564,4498.461538,4185.641025,4447.692307,4228.717948,4236.923076,4507.179487,4206.153846,4646.666666,3983.589744,4052.820512
61,4391.282051,4544.102564,4515.384615,4062.564102,4500.000000,4181.538461,4452.820512,4226.666666,4230.256410,4502.564102,4187.179487,4641.538461,3975.897436,4053.846153
62,4388.717948,4549.743589,4513.333333,4064.102564,4498.974358,4183.589743,4460.000000,4231.282051,4225.128205,4500.512820,4180.512820,4640.000000,3973.846154,4049.230769
63,4385.641025,4546.153846,4512.820512,4066.153846,4503.076923,4192.307692,4457.948717,4237.948717,4231.794871,4498.974358,4197.948717,4644.615384,3973.846154,4051.794871
64,4393.846153,4549.743589,4521.025641,4068.717948,4511.794871,4195.897435,4460.512820,4242.051282,4240.512820,4505.641025,4211.282051,4650.769230,3976.923077,4061.025641
65,4404.615384,4563.076923,4529.743589,4067.692307,4517.948717,4197.948717,4472.307692,4247.179487,4245.641025,4516.923076,4204.102564,4656.923076,3982.564103,4066.153846
66,4408.717948,4568.205128,4535.384615,4071.794871,4518.974358,4205.128205,4478.461538,4253.333333,4255.384615,4527.179487,4197.948717,4661.025641,3985.128206,4071.794871
67,4408.205128,4563.076923,4543.076923,4077.948717,4520.000000,4210.256410,4474.871794,4254.358974,4261.025641,4529.743589,4204.102564,4657.435897,3984.102565,4072.307692
68,4400.000000,4557.948717,4537.435897,4069.230769,4516.410256,4202.051282,4468.717948,4246.666666,4249.743589,4522.564102,4205.128205,4653.333333,3974.871795,4058.461538
69,4391.794871,4558.974358,4509.743589,4055.897435,4507.692307,4188.717948,4461.025641,4240.512820,4238.461538,4517.948717,4193.333333,4650.256410,3961.538462,4053.333333
70,4392.307692,4558.974358,4492.307692,4054.358974,4506.153846,4187.692307,4455.897435,4236.410256,4237.948717,4515.897435,4188.205128,4643.589743,3962.051283,4064.615384
71,4394.358974,4553.333333,4498.461538,4059.487179,4511.282051,4193.333333,4455.897435,4230.256410,4237.948717,4513.333333,4193.333333,4640.000000,3966.666667,4068.205128
72,4392.307692,4553.333333,4498.461538,4058.974358,4510.256410,4191.794871,4454.358974,4229.230769,4234.871794,4506.666666,4190.769230,4639.487179,3958.974359,4059.487179
73,4390.256410,4554.358974,4492.820512,4056.410256,4506.666666,4189.743589,4452.307692,4232.307692,4233.846153,4495.897435,4189.230769,4638.974358,3946.666667,4052.307692
74,4392.820512,4550.769230,4498.461538,4060.000000,4510.256410,4194.358974,4456.923076,4234.358974,4241.025641,4498.461538,4197.948717,4641.538461,3950.769231,4049.743589
75,4394.871794,4553.846153,4500.000000,4060.000000,4512.820512,4194.358974,4460.512820,4236.923076,4246.153846,4513.846153,4195.384615,4643.589743,3962.051283,4052.307692
76,4397.435897,4564.615384,4496.410256,4058.974358,4511.794871,4192.820512,4460.512820,4240.512820,4242.051282,4517.948717,4188.205128,4641.538461,3961.538462,4065.128205
77,4402.564102,4564.615384,4505.128205,4065.128205,4512.820512,4200.512820,4462.564102,4241.025641,4237.435897,4513.333333,4196.410256,4644.102564,3960.512821,4070.769230
78,4398.974358,4559.487179,4510.256410,4069.230769,4513.846153,4204.102564,4463.589743,4240.000000,4241.025641,4514.358974,4207.179487,4647.692307,3965.641026,4063.589743
79,4394.358974,4564.615384,4504.102564,4071.794871,4511.794871,4196.923076,4458.974358,4239.487179,4248.205128,4516.923076,4207.179487,4648.205128,3968.205129,4062.051282
80,4397.948717,4568.717948,4505.128205,4074.871794,4510.769230,4193.846153,4456.923076,4236.410256,4247.179487,4516.410256,4203.589743,4649.743589,3969.743590,4067.692307
81,4402.051282,4562.051282,4508.205128,4069.230769,4510.769230,4196.923076,4456.410256,4230.769230,4243.076923,4509.743589,4197.948717,4648.717948,3969.230770,4067.692307
82,4398.461538,4553.846153,4502.051282,4062.564102,4509.230769,4197.948717,4455.384615,4229.743589,4246.153846,4505.641025,4194.358974,4645.128205,3963.589744,4063.076923
83,4395.897435,4557.948717,4499.487179,4068.717948,4512.307692,4195.897435,4457.948717,4240.512820,4249.743589,4516.923076,4209.230769,4648.717948,3964.615385,4064.615384
84,4404.102564,4567.179487,4506.153846,4075.897435,4516.410256,4198.461538,4459.487179,4247.179487,4242.051282,4521.538461,4223.589743,4653.846153,3973.846154,4072.820512
85,4409.230769,4564.615384,4509.230769,4072.820512,4514.358974,4200.000000,4454.871794,4238.461538,4235.384615,4510.769230,4211.794871,4651.282051,3977.435898,4075.384615
86,4408.205128,4560.000000,4505.641025,4069.743589,4513.846153,4200.000000,4454.358974,4236.410256,4244.615384,4513.333333,4201.025641,4649.230769,3977.435898,4069.230769
87,4411.282051,4569.230769,4508.205128,4074.871794,4518.461538,4203.589743,4460.512820,4249.230769,4255.897435,4529.230769,4215.897435,4654.871794,3980.000000,4067.692307
88,4412.820512,4575.384615,4511.282051,4074.871794,4518.974358,4203.076923,4462.051282,4251.794871,4250.256410,4529.230769,4227.179487,4656.410256,3980.512821,4074.358974
89,4404.615384,4568.205128,4505.641025,4069.230769,4512.820512,4196.923076,4456.410256,4242.564102,4244.102564,4517.948717,4210.256410,4645.641025,3978.461539,4073.333333
90,4403.076923,4570.256410,4505.128205,4074.871794,4512.307692,4197.948717,4457.435897,4240.000000,4251.282051,4516.410256,4200.000000,4641.025641,3982.564103,4071.794871
91,4411.282051,4575.897435,4510.256410,4080.000000,4514.871794,4201.538461,4462.051282,4241.538461,4250.256410,4518.974358,4211.282051,4647.179487,3984.102565,4071.282051
92,4405.641025,4567.179487,4504.102564,4069.743589,4512.307692,4196.410256,4457.948717,4235.897435,4243.076923,4517.948717,4211.282051,4644.102564,3973.333334,4058.461538
93,4395.897435,4561.538461,4497.948717,4066.666666,4511.794871,4194.358974,4454.871794,4231.282051,4246.666666,4515.897435,4197.435897,4636.410256,3966.153847,4054.358974
94,4393.333333,4565.128205,4500.000000,4072.820512,4512.820512,4195.897435,4456.923076,4227.179487,4240.000000,4510.256410,4191.794871,4634.358974,3971.794872,4065.128205
95,4392.820512,4561.538461,4495.897435,4071.794871,4509.743589,4190.769230,4450.769230,4220.000000,4227.179487,4507.692307,4200.000000,4635.897435,3978.461539,4065.641025
96,4394.871794,4558.974358,4493.846153,4069.230769,4502.564102,4187.692307,4445.641025,4223.076923,4235.384615,4510.256410,4208.717948,4636.923076,3974.358975,4056.410256
97,4395.897435,4562.051282,4498.461538,4070.769230,4500.512820,4187.692307,4449.230769,4228.205128,4240.512820,4503.076923,4205.128205,4634.358974,3964.102565,4051.282051
98,4392.307692,4558.974358,4496.923076,4073.333333,4502.564102,4187.179487,4448.205128,4223.076923,4227.692307,4497.435897,4195.384615,4632.820512,3962.051283,4050.256410
99,4390.256410,4561.025641,4495.384615,4075.384615,4503.076923,4188.717948,4447.179487,4224.102564,4233.333333,4507.692307,4192.307692,4637.948717,3969.230770,4055.384615
100,4395.897435,4574.358974,4502.051282,4076.923076,4506.153846,4191.794871,4452.307692,4234.871794,4248.717948,4513.846153,4202.051282,4642.564102,3976.410257,4064.102564
101,4403.076923,4574.358974,4504.102564,4078.974358,4511.282051,4195.384615,4454.871794,4232.307692,4246.153846,4511.794871,4209.230769,4642.564102,3977.948718,4064.615384
102,4407.179487,4568.717948,4503.076923,4083.589743,4513.333333,4195.384615,4454.358974,4227.179487,4240.512820,4516.923076,4210.769230,4648.205128,3979.487180,4065.641025
103,4405.641025,4573.333333,4505.641025,4087.692307,4511.282051,4193.333333,4450.769230,4232.820512,4243.589743,4522.051282,4213.333333,4653.333333,3983.589744,4067.692307
104,4397.435897,4570.256410,4502.564102,4085.641025,4510.769230,4194.358974,4446.153846,4231.282051,4243.076923,4517.435897,4207.692307,4646.666666,3981.025642,4059.487179
105,4396.410256,4567.179487,4497.435897,4082.051282,4509.743589,4193.333333,4452.820512,4227.179487,4239.487179,4512.820512,4198.974358,4641.538461,3974.871795,4056.923076
106,4405.128205,4572.307692,4502.564102,4084.102564,4510.769230,4192.820512,4461.025641,4233.333333,4244.102564,4511.282051,4204.615384,4649.230769,3982.051283,4064.615384
107,4409.743589,4572.820512,4505.128205,4087.692307,4514.358974,4195.897435,4457.435897,4239.487179,4254.871794,4514.871794,4214.871794,4652.820512,3992.307693,4068.205128
108,4402.051282,4573.333333,4497.948717,4083.589743,4513.846153,4195.897435,4457.948717,4238.461538,4257.948717,4529.743589,4210.256410,4642.564102,3986.666667,4066.153846
109,4392.307692,4573.333333,4497.435897,4081.538461,4510.256410,4193.333333,4461.538461,4233.333333,4245.128205,4528.717948,4204.615384,4636.410256,3978.461539,4062.564102
110,4393.846153,4563.589743,4500.512820,4083.589743,4508.205128,4194.358974,4452.307692,4224.615384,4228.205128,4506.153846,4203.589743,4636.923076,3977.435898,4054.871794
111,4399.487179,4559.487179,4498.461538,4078.974358,4509.743589,4195.384615,4447.179487,4222.564102,4226.666666,4500.512820,4198.974358,4636.923076,3976.923077,4051.794871
112,4398.461538,4566.153846,4496.923076,4073.846153,4511.282051,4194.358974,4454.871794,4228.717948,4233.846153,4512.307692,4197.435897,4638.461538,3977.948718,4056.410256
113,4390.256410,4566.666666,4496.923076,4077.435897,4510.769230,4192.820512,4452.820512,4226.153846,4236.923076,4507.179487,4202.564102,4638.974358,3979.487180,4057.435897
114,4393.846153,4565.641025,4497.948717,4079.487179,4511.282051,4191.794871,4445.641025,4222.051282,4238.461538,4492.820512,4207.692307,4638.461538,3977.435898,4061.025641
115,4408.205128,4572.307692,4505.128205,4077.948717,4512.820512,4196.923076,4453.333333,4231.794871,4246.153846,4501.025641,4208.205128,4644.615384,3979.487180,4068.717948
116,4414.358974,4575.384615,4510.256410,4083.589743,4512.820512,4200.000000,4461.538461,4237.435897,4248.717948,4519.487179,4197.435897,4650.769230,3988.205129,4067.179487
117,4409.230769,4569.743589,4504.615384,4089.743589,4513.846153,4195.384615,4456.923076,4231.794871,4242.051282,4521.025641,4194.358974,4649.230769,3992.307693,4063.589743
118,4405.128205,4568.717948,4506.153846,4090.256410,4514.358974,4196.410256,4453.333333,4232.307692,4245.128205,4512.820512,4213.846153,4649.743589,3984.615385,4069.230769
119,4405.641025,4572.820512,4510.256410,4087.692307,4512.307692,4198.974358,4454.358974,4236.923076,4253.333333,4512.820512,4223.076923,4650.769230,3979.487180,4071.282051
120,4403.076923,4566.666666,4504.102564,4083.589743,4510.256410,4192.307692,4448.205128,4231.794871,4246.153846,4512.307692,4207.692307,4644.102564,3979.487180,4063.076923
121,4397.948717,4555.384615,4497.435897,4083.076923,4511.282051,4189.743589,4444.615384,4228.717948,4237.948717,4504.615384,4204.102564,4641.538461,3978.461539,4056.410256
122,4404.102564,4560.000000,4502.051282,4088.717948,4514.871794,4196.923076,4454.358974,4241.538461,4248.717948,4509.743589,4220.512820,4649.230769,3989.230770,4063.589743
123,4411.794871,4573.846153,4511.282051,4094.358974,4513.846153,4197.435897,4459.487179,4249.230769,4259.487179,4524.615384,4224.102564,4655.384615,4002.564102,4076.410256
124,4407.692307,4573.333333,4509.743589,4094.358974,4510.256410,4193.846153,4450.769230,4245.128205,4256.410256,4530.256410,4210.256410,4651.794871,4000.000000,4079.487179
125,4403.076923,4566.666666,4503.076923,4087.692307,4510.769230,4194.358974,4443.589743,4238.461538,4250.256410,4526.666666,4209.230769,4646.666666,3994.871795,4072.307692
126,4407.692307,4569.743589,4505.128205,4088.205128,4512.820512,4193.846153,4445.641025,4236.410256,4251.794871,4526.666666,4226.153846,4649.743589,3999.487180,4068.205128
127,4413.846153,4578.461538,4511.794871,4101.025641,4511.794871,4194.358974,4450.256410,4240.000000,4255.897435,4531.282051,4237.948717,4656.923076,4006.153846,4070.256410
128,4410.769230,4576.410256,4507.179487,4101.538461,4512.820512,4195.384615,4449.743589,4240.512820,4248.205128,4525.128205,4224.615384,4654.871794,4004.102564,4069.743589
129,4401.025641,4569.743589,4497.948717,4089.743589,4511.282051,4193.333333,4446.666666,4234.358974,4236.410256,4510.256410,4206.153846,4646.666666,3994.871795,4071.282051
130,4398.974358,4566.153846,4498.974358,4085.641025,4504.615384,4189.230769,4441.538461,4228.205128,4239.487179,4506.666666,4204.615384,4642.564102,3989.230770,4067.692307
131,4407.179487,4568.717948,4505.641025,4091.282051,4507.179487,4189.743589,4442.564102,4232.307692,4248.717948,4516.923076,4222.051282,4647.692307,3998.461539,4063.589743
132,4412.820512,4575.384615,4508.717948,4100.000000,4516.410256,4195.384615,4452.307692,4240.000000,4250.769230,4524.615384,4236.410256,4656.410256,4010.769230,4070.256410
133,4412.307692,4577.948717,4511.282051,4102.564102,4516.923076,4196.923076,4457.435897,4242.564102,4258.974358,4527.692307,4233.846153,4660.512820,4007.179487,4074.358974
134,4406.153846,4575.384615,4511.794871,4094.358974,4510.769230,4192.307692,4450.256410,4238.974358,4256.923076,4526.153846,4222.051282,4654.871794,3996.923077,4069.230769
135,4396.923076,4568.205128,4501.538461,4086.153846,4508.205128,4189.743589,4442.564102,4228.717948,4230.769230,4513.846153,4216.410256,4645.128205,3992.820513,4062.051282
136,4395.897435,4562.564102,4492.307692,4086.153846,4508.205128,4189.743589,4444.102564,4224.615384,4222.564102,4507.692307,4220.000000,4643.076923,3995.897436,4055.897435
137,4405.641025,4566.153846,4499.487179,4084.615384,4509.743589,4191.282051,4448.205128,4231.794871,4242.051282,4516.410256,4221.538461,4649.743589,4000.000000,4061.025641
138,4407.692307,4573.846153,4505.641025,4088.205128,4513.333333,4195.897435,4450.256410,4234.871794,4246.153846,4520.000000,4210.769230,4651.794871,4001.538461,4070.256410
139,4400.000000,4574.871794,4501.025641,4097.948717,4514.871794,4196.923076,4449.743589,4231.794871,4236.410256,4515.897435,4203.589743,4647.179487,3995.897436,4063.076923
140,4394.358974,4562.564102,4495.384615,4088.205128,4509.743589,4190.769230,4444.102564,4224.615384,4235.897435,4509.230769,4208.205128,4642.051282,3986.153847,4047.179487
141,4395.897435,4557.435897,4492.820512,4074.871794,4503.076923,4185.641025,4441.025641,4218.974358,4231.794871,4500.512820,4209.743589,4638.461538,3988.205129,4052.307692
142,4401.025641,4568.717948,4494.871794,4085.128205,4502.051282,4187.179487,4443.589743,4219.487179,4220.000000,4500.000000,4207.179487,4636.923076,3995.897436,4062.051282
143,4400.512820,4574.358974,4496.923076,4092.307692,4505.641025,4192.307692,4444.615384,4222.564102,4222.051282,4511.794871,4208.717948,4636.410256,3997.435898,4057.948717
144,4398.974358,4571.282051,4494.871794,4083.589743,4509.230769,4193.846153,4444.102564,4225.128205,4235.897435,4517.435897,4210.769230,4641.025641,3997.948718,4057.435897
145,4403.076923,4577.948717,4497.435897,4087.179487,4514.871794,4194.358974,4450.769230,4228.717948,4243.589743,4515.897435,4220.512820,4650.256410,3999.487180,4058.461538
146,4407.179487,4582.564102,4507.179487,4102.051282,4518.974358,4201.538461,4455.897435,4232.820512,4238.974358,4515.384615,4229.743589,4654.358974,3998.974359,4060.512820
147,4410.256410,4577.435897,4506.666666,4104.615384,4517.948717,4204.615384,4453.333333,4233.846153,4241.025641,4514.871794,4220.000000,4650.256410,4001.538461,4069.743589
148,4409.230769,4579.487179,4502.564102,4100.512820,4513.846153,4197.435897,4450.256410,4231.794871,4256.410256,4518.974358,4208.205128,4648.205128,4007.179487,4072.307692
149,4403.589743,4580.512820,4506.153846,4100.000000,4512.307692,4192.820512,4449.230769,4227.692307,4254.358974,4520.512820,4215.384615,4650.256410,4006.153846,4065.128205
150,4402.564102,4576.923076,4505.641025,4096.410256,4511.282051,4192.820512,4446.666666,4224.615384,4234.871794,4514.358974,4224.615384,4651.282051,4002.564102,4065.641025
151,4410.256410,4581.025641,4505.128205,4092.307692,4511.282051,4190.256410,4445.128205,4228.717948,4233.333333,4514.871794,4222.564102,4652.820512,4003.076923,4068.205128
152,4413.846153,4585.641025,4508.205128,4096.410256,4508.717948,4191.794871,4446.153846,4229.230769,4243.589743,4521.025641,4217.948717,4654.871794,4004.102564,4063.076923
153,4410.769230,4581.538461,4507.692307,4104.615384,4506.666666,4194.358974,4446.666666,4228.717948,4243.076923,4520.512820,4222.051282,4657.948717,3998.974359,4067.692307
154,4411.282051,4577.435897,4507.692307,4104.102564,4509.743589,4192.820512,4447.692307,4233.333333,4244.615384,4515.897435,4230.256410,4658.461538,3997.435898,4077.948717
155,4412.307692,4583.076923,4510.256410,4094.871794,4512.820512,4192.307692,4448.717948,4234.358974,4250.769230,4513.333333,4227.692307,4653.846153,4005.641025,4070.256410
156,4411.282051,4588.205128,4506.153846,4091.794871,4507.179487,4193.846153,4447.692307,4228.717948,4247.179487,4515.384615,4219.487179,4651.794871,4010.256410,4059.487179
157,4407.692307,4579.487179,4500.512820,4093.846153,4500.000000,4189.230769,4445.128205,4225.641025,4240.000000,4514.871794,4210.769230,4652.820512,3998.461539,4060.512820
158,4401.025641,4566.153846,4497.435897,4088.717948,4498.461538,4181.538461,4439.487179,4223.589743,4229.230769,4503.076923,4196.410256,4647.179487,3985.641026,4056.923076
159,4396.410256,4568.717948,4493.846153,4080.000000,4500.512820,4182.564102,4436.923076,4219.487179,4222.564102,4498.974358,4192.820512,4638.974358,3989.743590,4050.256410
160,4392.307692,4573.333333,4489.743589,4076.923076,4502.564102,4189.230769,4439.487179,4216.410256,4224.615384,4503.589743,4199.487179,4636.923076,3995.384616,4050.769230
161,4391.282051,4565.128205,4489.230769,4076.923076,4503.589743,4191.794871,4444.102564,4217.435897,4229.230769,4505.641025,4201.025641,4637.948717,3991.282052,4050.769230
162,4397.948717,4564.615384,4495.897435,4081.025641,4505.128205,4191.282051,4446.153846,4224.102564,4234.871794,4506.666666,4201.025641,4642.051282,3992.307693,4053.846153
163,4409.230769,4575.897435,4504.102564,4094.358974,4509.743589,4195.384615,4452.307692,4233.333333,4242.564102,4509.230769,4209.230769,4651.282051,4003.076923,4067.179487
164,4412.307692,4584.102564,4507.692307,4101.025641,4515.897435,4200.000000,4458.461538,4236.923076,4253.333333,4521.025641,4217.948717,4657.435897,4010.769230,4072.820512
165,4405.128205,4581.538461,4507.692307,4090.256410,4510.256410,4195.897435,4451.282051,4235.384615,4254.358974,4528.717948,4214.358974,4653.846153,4007.692307,4060.000000
166,4395.897435,4572.820512,4502.051282,4083.589743,4501.538461,4188.205128,4440.512820,4229.230769,4237.948717,4513.333333,4207.692307,4646.666666,3997.435898,4050.256410
167,4399.487179,4566.666666,4496.410256,4088.205128,4504.102564,4186.153846,4442.564102,4223.589743,4226.153846,4500.000000,4203.076923,4647.179487,3996.410257,4056.410256
168,4407.692307,4566.666666,4499.487179,4089.743589,4507.179487,4189.230769,4443.589743,4221.025641,4230.256410,4509.230769,4203.076923,4649.743589,4001.538461,4063.076923
169,4404.102564,4566.153846,4502.051282,4087.692307,4505.128205,4189.743589,4440.512820,4222.564102,4236.410256,4513.333333,4211.282051,4648.717948,3997.948718,4064.102564
170,4400.000000,4568.717948,4501.025641,4088.717948,4507.179487,4191.282051,4443.076923,4228.205128,4240.512820,4510.256410,4220.512820,4652.820512,3998.461539,4065.128205
171,4407.179487,4576.410256,4504.102564,4090.256410,4512.307692,4193.846153,4445.128205,4231.282051,4245.641025,4516.923076,4218.461538,4660.000000,4007.692307,4061.538461
172,4412.307692,4577.435897,4504.102564,4090.256410,4510.769230,4193.846153,4444.102564,4226.666666,4246.153846,4516.923076,4204.102564,4659.487179,4012.307692,4057.435897
173,4408.717948,4567.692307,4502.051282,4094.871794,4504.615384,4192.820512,4444.615384,4226.666666,4242.564102,4507.692307,4200.000000,4654.358974,4013.846153,4064.102564
174,4403.076923,4566.153846,4501.025641,4101.025641,4504.615384,4193.333333,4445.128205,4232.820512,4240.512820,4508.205128,4213.846153,4653.333333,4013.846153,4074.358974
175,4405.128205,4574.358974,4502.051282,4100.512820,4510.769230,4195.897435,4447.179487,4235.384615,4241.538461,4517.948717,4223.076923,4656.410256,4011.282051,4071.282051
176,4408.205128,4576.923076,4501.538461,4097.435897,4514.871794,4196.410256,4451.282051,4229.230769,4244.615384,4518.974358,4211.794871,4655.897435,4006.153846,4055.897435
177,4405.641025,4572.820512,4496.923076,4093.846153,4509.743589,4193.333333,4448.717948,4225.641025,4242.051282,4511.794871,4200.512820,4651.794871,4000.000000,4045.641025
178,4403.589743,4569.743589,4495.384615,4090.256410,4505.128205,4190.769230,4448.205128,4229.743589,4235.384615,4504.102564,4205.641025,4649.743589,3997.435898,4055.384615
179,4405.128205,4569.230769,4499.487179,4090.256410,4508.205128,4194.358974,4454.358974,4234.871794,4233.846153,4505.128205,4216.410256,4653.333333,4001.025641,4072.820512
180,4406.666666,4574.871794,4502.564102,4094.358974,4514.358974,4197.435897,4458.461538,4237.948717,4243.589743,4514.358974,4221.025641,4656.923076,4000.000000,4070.256410
181,4405.641025,4575.384615,4502.051282,4090.769230,4516.923076,4197.948717,4457.948717,4241.538461,4248.717948,4518.461538,4217.435897,4654.358974,3995.384616,4057.435897
182,4402.564102,4564.615384,4506.666666,4079.487179,4513.846153,4196.923076,4454.358974,4239.487179,4244.102564,4512.307692,4209.230769,4650.256410,3992.820513,4055.384615
183,4403.076923,4558.974358,4507.692307,4078.461538,4509.230769,4194.871794,4453.333333,4231.282051,4240.000000,4510.256410,4201.025641,4649.230769,3987.179488,4057.948717
184,4404.615384,4562.051282,4505.641025,4082.051282,4509.230769,4190.256410,4452.820512,4227.692307,4239.487179,4513.846153,4194.871794,4649.743589,3979.487180,4056.923076
185,4400.000000,4562.564102,4510.256410,4083.076923,4510.769230,4191.282051,4450.769230,4230.769230,4237.948717,4511.794871,4193.333333,4647.692307,3976.410257,4056.410256
186,4396.410256,4563.076923,4518.461538,4081.025641,4507.179487,4192.307692,4450.256410,4230.769230,4238.974358,4509.230769,4196.410256,4646.666666,3975.897436,4056.410256
187,4401.538461,4561.538461,4523.076923,4078.461538,4504.102564,4189.230769,4448.205128,4226.666666,4241.025641,4510.769230,4200.512820,4647.179487,3973.846154,4057.435897
188,4404.102564,4556.923076,4522.051282,4081.025641,4505.128205,4189.743589,4445.641025,4227.179487,4240.000000,4510.769230,4201.025641,4646.666666,3970.256411,4063.076923
189,4400.000000,4557.435897,4522.564102,4083.589743,4506.153846,4190.256410,4452.307692,4232.307692,4238.974358,4505.641025,4201.025641,4645.128205,3975.384616,4066.666666
190,4398.461538,4561.538461,4525.128205,4084.102564,4503.589743,4188.717948,4460.512820,4232.307692,4237.948717,4501.538461,4204.102564,4644.615384,3982.051283,4058.974358
191,4393.846153,4557.435897,4522.564102,4084.615384,4501.025641,4188.717948,4458.461538,4228.205128,4236.410256,4501.025641,4201.025641,4643.076923,3976.410257,4050.769230
192,4392.307692,4553.333333,4520.000000,4081.025641,4503.589743,4190.769230,4455.897435,4227.692307,4236.923076,4495.897435,4193.846153,4641.538461,3971.282052,4055.897435
193,4402.051282,4558.461538,4525.128205,4082.051282,4508.205128,4191.794871,4461.025641,4232.307692,4237.435897,4498.974358,4199.487179,4646.153846,3976.923077,4066.153846
194,4403.589743,4561.025641,4531.282051,4087.692307,4505.128205,4191.282051,4460.000000,4233.333333,4234.358974,4508.717948,4201.025641,4649.230769,3980.000000,4067.692307
195,4397.948717,4556.923076,4527.179487,4084.102564,4498.461538,4189.230769,4451.282051,4229.743589,4234.358974,4505.128205,4190.769230,4644.102564,3971.794872,4058.974358
196,4395.897435,4555.897435,4522.051282,4077.435897,4500.512820,4185.641025,4448.717948,4230.256410,4238.974358,4497.435897,4197.435897,4642.051282,3963.589744,4049.230769
197,4395.384615,4558.461538,4523.076923,4082.564102,4504.102564,4186.666666,4451.794871,4229.743589,4231.794871,4495.897435,4206.666666,4643.589743,3962.564103,4051.794871
198,4399.487179,4561.538461,4527.179487,4088.205128,4502.051282,4189.743589,4449.230769,4226.666666,4224.102564,4495.897435,4196.923076,4643.589743,3968.717949,4065.641025
199,4408.205128,4563.589743,4531.794871,4089.230769,4504.615384,4192.307692,4446.666666,4229.230769,4234.358974,4501.025641,4196.410256,4645.641025,3977.435898,4074.358974
200,4402.564102,4558.974358,4529.230769,4086.153846,4509.743589,4190.256410,4445.641025,4227.179487,4234.871794,4498.461538,4197.948717,4644.102564,3976.923077,4064.102564
201,4390.256410,4556.923076,4524.102564,4079.487179,4507.179487,4186.153846,4444.102564,4222.051282,4222.564102,4490.256410,4189.230769,4637.948717,3968.205129,4051.282051
202,4393.333333,4562.564102,4524.615384,4078.974358,4504.102564,4188.205128,4444.102564,4227.179487,4228.205128,4498.461538,4191.794871,4642.051282,3964.102565,4048.717948
203,4400.512820,4566.666666,4530.256410,4083.589743,4503.589743,4188.717948,4446.153846,4230.769230,4237.435897,4506.666666,4206.153846,4648.717948,3973.846154,4055.897435
204,4403.589743,4565.128205,4535.897435,4087.179487,4502.564102,4186.153846,4446.666666,4229.743589,4235.384615,4501.538461,4214.358974,4649.230769,3986.153847,4068.205128
205,4405.641025,4562.564102,4532.307692,4085.128205,4503.589743,4186.153846,4446.153846,4235.384615,4238.974358,4503.589743,4208.717948,4649.230769,3985.128206,4066.666666
206,4400.000000,4561.025641,4528.205128,4080.512820,4508.205128,4189.743589,4446.666666,4236.410256,4243.076923,4508.205128,4196.410256,4646.666666,3981.025642,4061.025641
207,4395.384615,4564.102564,4530.256410,4085.641025,4511.794871,4192.307692,4452.820512,4231.282051,4237.948717,4503.589743,4199.487179,4645.641025,3983.589744,4066.153846
208,4398.974358,4565.128205,4531.282051,4090.769230,4513.846153,4196.923076,4460.000000,4235.897435,4238.461538,4498.461538,4213.846153,4649.230769,3981.538462,4067.179487
209,4403.076923,4561.025641,4530.769230,4085.128205,4513.333333,4196.410256,4457.435897,4240.000000,4237.948717,4499.487179,4209.743589,4647.692307,3977.948718,4057.435897
210,4403.589743,4566.153846,4536.923076,4085.128205,4511.282051,4193.333333,4456.923076,4238.974358,4240.512820,4510.769230,4200.512820,4647.179487,3989.230770,4060.000000
211,4408.717948,4575.897435,4539.487179,4095.384615,4515.897435,4196.410256,4461.538461,4245.128205,4252.307692,4524.102564,4210.256410,4653.846153,3995.897436,4073.333333
212,4407.179487,4574.871794,4534.871794,4097.948717,4517.435897,4196.410256,4458.461538,4246.153846,4251.282051,4522.051282,4214.871794,4653.333333,3986.153847,4071.794871
213,4403.076923,4572.820512,4536.923076,4094.871794,4511.282051,4194.358974,4453.333333,4241.025641,4244.615384,4512.820512,4210.769230,4651.282051,3987.692308,4071.282051
214,4413.333333,4574.358974,4540.512820,4098.461538,4513.846153,4197.435897,4455.897435,4243.589743,4249.230769,4513.846153,4213.846153,4656.923076,3999.487180,4078.974358
215,4421.538461,4575.384615,4540.000000,4106.666666,4520.512820,4201.538461,4460.000000,4251.282051,4253.333333,4521.025641,4223.589743,4661.025641,3999.487180,4075.897435
216,4413.846153,4577.948717,4542.051282,4110.769230,4521.025641,4200.000000,4461.025641,4252.307692,4248.205128,4524.615384,4226.153846,4662.051282,3996.923077,4069.230769
217,4409.743589,4579.487179,4542.564102,4106.666666,4515.897435,4195.897435,4458.461538,4245.641025,4247.179487,4520.512820,4218.461538,4662.051282,4000.512820,4076.923076
218,4417.435897,4576.410256,4541.538461,4104.102564,4514.871794,4196.410256,4454.871794,4240.512820,4249.743589,4513.846153,4217.435897,4660.000000,4001.538461,4086.153846
219,4421.025641,4578.461538,4540.512820,4106.153846,4516.923076,4199.487179,4453.333333,4241.538461,4254.358974,4515.897435,4216.923076,4660.000000,4001.538461,4083.589743
220,4416.923076,4580.000000,4535.384615,4103.076923,4516.410256,4196.923076,4450.769230,4242.564102,4256.923076,4522.564102,4214.871794,4658.974358,4002.564102,4074.358974
221,4409.230769,4573.846153,4528.717948,4100.512820,4514.871794,4192.820512,4444.102564,4235.384615,4245.128205,4515.897435,4217.435897,4653.333333,3998.974359,4064.102564
222,4402.564102,4572.307692,4527.692307,4102.564102,4512.307692,4193.846153,4441.025641,4226.666666,4235.384615,4505.128205,4212.307692,4649.230769,3996.410257,4061.538461
223,4403.589743,4576.410256,4526.666666,4099.487179,4512.307692,4193.846153,4443.589743,4226.153846,4238.974358,4506.666666,4203.589743,4650.256410,3995.897436,4069.230769
224,4407.692307,4572.307692,4527.692307,4093.333333,4515.384615,4193.333333,4445.128205,4229.743589,4238.974358,4513.333333,4203.589743,4649.743589,3991.282052,4073.846153
225,4408.717948,4566.666666,4530.256410,4095.384615,4517.948717,4196.410256,4446.666666,4234.871794,4243.076923,4513.846153,4206.153846,4650.769230,3988.717949,4068.205128
226,4403.589743,4570.256410,4529.230769,4098.974358,4517.948717,4197.948717,4447.692307,4236.923076,4254.358974,4515.897435,4207.179487,4651.282051,3993.333334,4064.615384
227,4401.025641,4575.897435,4528.205128,4096.410256,4515.897435,4194.871794,4444.615384,4232.307692,4249.230769,4517.948717,4213.846153,4649.230769,3999.487180,4063.076923
228,4407.179487,4578.461538,4528.717948,4095.384615,4516.410256,4192.307692,4443.589743,4229.743589,4235.897435,4515.897435,4210.769230,4651.794871,4004.102564,4064.615384
229,4413.846153,4577.435897,4530.256410,4097.435897,4516.410256,4192.820512,4445.128205,4233.846153,4239.487179,4518.974358,4205.641025,4655.384615,4007.692307,4074.358974
230,4412.820512,4573.846153,4531.282051,4098.461538,4515.897435,4193.846153,4445.128205,4231.282051,4247.692307,4517.948717,4209.230769,4653.846153,4004.102564,4075.897435
231,4406.153846,4573.846153,4528.205128,4097.435897,4510.256410,4188.205128,4444.102564,4222.051282,4240.512820,4510.256410,4207.179487,4649.230769,3997.948718,4064.102564
232,4399.487179,4575.384615,4525.641025,4095.384615,4503.589743,4183.076923,4444.615384,4223.076923,4228.205128,4507.692307,4208.205128,4648.205128,3997.948718,4065.128205
233,4400.000000,4570.769230,4528.205128,4091.794871,4506.666666,4188.717948,4444.615384,4227.692307,4228.205128,4513.333333,4215.384615,4650.256410,3998.974359,4075.384615
234,4407.692307,4563.589743,4528.205128,4090.256410,4508.205128,4188.205128,4445.641025,4224.615384,4237.948717,4515.384615,4211.282051,4652.820512,4000.000000,4067.179487
235,4407.692307,4564.615384,4525.641025,4091.282051,4503.076923,4182.051282,4448.205128,4225.128205,4242.051282,4510.256410,4206.153846,4652.307692,4003.076923,4056.923076
236,4400.000000,4572.820512,4527.179487,4094.358974,4501.538461,4185.641025,4448.205128,4234.871794,4240.000000,4511.794871,4209.230769,4651.282051,3999.487180,4066.153846
237,4396.410256,4570.256410,4524.615384,4091.794871,4504.102564,4187.179487,4451.794871,4235.897435,4238.461538,4514.358974,4208.717948,4652.820512,3988.205129,4072.307692
238,4399.487179,4558.461538,4521.538461,4081.538461,4504.615384,4181.538461,4453.846153,4224.615384,4231.282051,4506.666666,4203.076923,4648.717948,3982.564103,4066.666666
239,4399.487179,4562.051282,4523.076923,4079.487179,4503.076923,4181.025641,4449.230769,4216.923076,4224.102564,4497.948717,4204.102564,4645.128205,3989.743590,4066.153846
240,4396.410256,4571.282051,4523.589743,4089.743589,4503.076923,4184.615384,4443.589743,4215.897435,4223.589743,4501.025641,4208.717948,4646.153846,3993.333334,4063.076923
241,4395.384615,4564.615384,4521.025641,4092.820512,4504.615384,4184.615384,4441.025641,4216.410256,4224.102564,4503.076923,4206.666666,4646.153846,3985.641026,4050.769230
242,4401.538461,4564.102564,4524.615384,4089.230769,4507.179487,4188.205128,4441.025641,4220.000000,4227.179487,4497.948717,4208.717948,4646.666666,3986.153847,4057.948717
243,4410.256410,4578.461538,4531.794871,4094.358974,4508.717948,4191.282051,4443.589743,4223.589743,4236.410256,4504.615384,4218.974358,4652.820512,4003.589743,4081.538461
244,4413.333333,4582.564102,4532.820512,4100.512820,4510.769230,4191.282051,4446.666666,4226.666666,4244.615384,4509.743589,4215.384615,4656.923076,4012.307692,4085.641025
245,4406.153846,4574.358974,4527.692307,4098.974358,4513.846153,4191.282051,4443.076923,4227.179487,4242.051282,4503.589743,4202.051282,4652.307692,4002.051282,4066.666666
246,4400.512820,4576.410256,4525.128205,4097.948717,4512.307692,4190.256410,4440.000000,4225.128205,4239.487179,4506.666666,4211.282051,4649.230769,3997.948718,4061.538461
247,4404.615384,4583.076923,4524.102564,4092.307692,4511.282051,4189.743589,4441.025641,4222.564102,4239.487179,4515.384615,4227.692307,4652.307692,4004.615384,4070.769230
248,4405.128205,4581.538461,4522.564102,4087.692307,4512.820512,4190.256410,4438.974358,4219.487179,4234.871794,4515.897435,4217.948717,4653.333333,4002.051282,4068.717948
249,4401.538461,4580.512820,4523.076923,4096.410256,4514.358974,4194.871794,4441.025641,4222.051282,4235.384615,4513.333333,4205.641025,4650.256410,3997.435898,4065.641025
250,4401.538461,4580.512820,4522.051282,4107.692307,4517.435897,4198.974358,4449.743589,4228.717948,4245.128205,4515.897435,4212.820512,4649.743589,4002.564102,4069.743589
251,4402.564102,4576.923076,4522.564102,4101.538461,4518.974358,4196.410256,4451.794871,4229.743589,4250.769230,4515.897435,4217.948717,4654.358974,4003.076923,4065.128205
252,4401.538461,4577.948717,4525.128205,4089.743589,4515.897435,4193.846153,4446.666666,4228.205128,4244.102564,4508.717948,4213.333333,4654.871794,4000.000000,4059.487179
253,4398.461538,4580.000000,4519.487179,4088.205128,4513.333333,4194.871794,4445.641025,4229.230769,4236.410256,4503.589743,4211.282051,4648.717948,4001.538461,4066.153846
254,4395.384615,4570.769230,4513.846153,4088.717948,4513.846153,4190.256410,4447.692307,4226.666666,4234.871794,4502.564102,4208.717948,4644.615384,4001.025641,4066.666666
255,4395.384615,4562.564102,4517.435897,4085.641025,4511.282051,4185.641025,4447.692307,4222.564102,4237.435897,4500.512820,4204.102564,4644.102564,3994.871795,4053.333333
256,4394.358974,4569.230769,4515.384615,4086.666666,4510.769230,4188.205128,4447.179487,4221.538461,4235.897435,4498.974358,4205.128205,4642.051282,3992.307693,4051.282051
257,4389.743589,4573.846153,4509.230769,4089.230769,4508.205128,4187.179487,4446.153846,4217.435897,4229.230769,4502.051282,4208.205128,4642.051282,3992.307693,4060.512820
258,4390.769230,4568.717948,4511.282051,4085.128205,4503.589743,4180.512820,4443.589743,4211.282051,4223.076923,4502.564102,4209.230769,4642.564102,3990.256411,4062.051282
259,4396.410256,4569.230769,4512.307692,4083.589743,4504.102564,4179.487179,4438.974358,4208.205128,4222.564102,4499.487179,4207.179487,4638.974358,3995.384616,4058.461538
