,AF3,F7,F3,FC5,T7,P7,O1,O2,P8,T8,FC6,F4,F8,AF4
0,4364.615384,4500.512820,4509.230769,4261.538461,4477.948717,4182.564102,4427.692307,4190.769230,4177.948717,4458.461538,4157.948717,4628.205128,3975.897436,4036.410256
1,4365.128205,4505.641025,4513.846153,4261.538461,4482.051282,4185.641025,4436.410256,4203.589743,4201.025641,4481.025641,4169.743589,4632.820512,3977.948718,4045.641025
2,4375.384615,4505.128205,4523.076923,4265.641025,4483.076923,4185.128205,4438.974358,4212.307692,4213.333333,4492.307692,4194.358974,4638.461538,3995.897436,4056.923076
3,4380.000000,4503.076923,4525.128205,4265.128205,4483.076923,4186.666666,4440.512820,4213.333333,4210.256410,4493.333333,4208.717948,4647.692307,4010.769230,4057.435897
4,4375.897435,4506.666666,4522.564102,4264.615384,4482.051282,4187.179487,4444.102564,4211.794871,4208.717948,4496.923076,4198.461538,4649.230769,4007.692307,4055.897435
5,4368.717948,4508.205128,4522.564102,4264.102564,4480.512820,4184.102564,4440.512820,4208.205128,4200.000000,4488.717948,4184.102564,4640.512820,4000.000000,4053.333333
6,4362.051282,4498.461538,4515.897435,4252.820512,4481.025641,4182.564102,4434.358974,4204.615384,4189.743589,4474.871794,4186.153846,4635.897435,3993.846154,4048.205128
7,4368.717948,4495.897435,4513.333333,4245.128205,4477.435897,4184.102564,4437.948717,4205.641025,4201.025641,4478.974358,4189.230769,4642.051282,3989.230770,4050.256410
8,4381.025641,4507.692307,4521.538461,4257.435897,4475.384615,4185.128205,4444.102564,4208.205128,4211.794871,4486.666666,4178.461538,4644.615384,3990.769231,4054.358974
9,4376.923076,4508.205128,4520.000000,4265.128205,4481.025641,4185.128205,4438.974358,4205.641025,4203.076923,4481.025641,4167.692307,4636.410256,3993.846154,4050.769230
10,4369.230769,4503.076923,4513.846153,4266.153846,4483.589743,4184.615384,4437.435897,4203.076923,4199.487179,4481.025641,4178.461538,4637.435897,3996.923077,4051.282051
11,4374.871794,4504.615384,4517.435897,4272.307692,4485.128205,4186.666666,4446.666666,4208.717948,4208.717948,4487.179487,4190.769230,4646.153846,3997.435898,4057.948717
12,4377.435897,4508.717948,4521.538461,4267.692307,4486.666666,4189.230769,4445.128205,4211.794871,4211.282051,4483.076923,4184.615384,4644.102564,3989.743590,4055.384615
13,4378.461538,4511.282051,4524.102564,4265.128205,4489.743589,4188.717948,4439.487179,4209.743589,4209.743589,4485.641025,4181.538461,4643.076923,3985.641026,4052.820512
14,4388.205128,4512.307692,4530.256410,4279.487179,4491.794871,4188.717948,4444.102564,4212.307692,4215.897435,4498.461538,4189.230769,4650.769230,3997.435898,4061.538461
15,4386.666666,4509.230769,4528.717948,4277.435897,4487.179487,4186.666666,4445.128205,4211.282051,4211.282051,4493.333333,4184.615384,4647.692307,3998.461539,4061.025641
16,4373.333333,4504.102564,4517.948717,4262.051282,4486.666666,4185.128205,4440.512820,4197.435897,4193.846153,4471.794871,4171.282051,4633.846153,3978.974359,4049.230769
17,4373.333333,4510.256410,4516.410256,4264.615384,4492.307692,4191.794871,4444.615384,4189.743589,4186.666666,4465.641025,4171.282051,4634.358974,3979.487180,4047.179487
18,4382.051282,4520.000000,4521.538461,4270.256410,4490.256410,4192.307692,4446.153846,4195.897435,4198.461538,4475.384615,4176.923076,4643.589743,3992.307693,4052.307692
19,4377.435897,4512.307692,4518.461538,4263.589743,4478.461538,4182.564102,4434.358974,4195.384615,4204.615384,4482.564102,4172.307692,4639.487179,3985.128206,4051.282051
20,4370.256410,4499.487179,4511.282051,4262.564102,4474.871794,4178.974358,4425.128205,4187.179487,4195.897435,4481.025641,4167.179487,4632.307692,3977.435898,4047.179487
21,4372.820512,4497.948717,4507.692307,4265.128205,4478.974358,4174.871794,4423.076923,4189.743589,4198.974358,4477.948717,4169.743589,4633.846153,3985.128206,4043.589743
22,4373.333333,4501.025641,4508.717948,4264.102564,4476.410256,4172.820512,4423.589743,4197.435897,4204.615384,4477.435897,4171.794871,4634.871794,3986.666667,4043.076923
23,4371.794871,4503.589743,4509.230769,4264.615384,4475.897435,4178.974358,4424.615384,4197.948717,4199.487179,4480.000000,4171.794871,4633.333333,3979.487180,4046.153846
24,4370.769230,4507.692307,4506.153846,4260.512820,4479.487179,4177.948717,4423.076923,4197.435897,4200.000000,4480.512820,4168.205128,4631.794871,3972.820513,4042.564102
25,4369.230769,4505.641025,4505.641025,4253.846153,4476.410256,4172.820512,4421.025641,4194.871794,4198.974358,4480.512820,4168.205128,4631.794871,3974.871795,4040.512820
26,4375.384615,4504.615384,4512.820512,4256.410256,4473.846153,4181.538461,4426.153846,4198.974358,4195.897435,4486.153846,4178.974358,4639.487179,3991.282052,4049.230769
27,4383.076923,4514.358974,4520.000000,4266.666666,4485.641025,4188.205128,4431.282051,4211.282051,4208.717948,4496.410256,4186.666666,4648.205128,3999.487180,4057.948717
28,4387.179487,4518.461538,4522.051282,4275.897435,4488.717948,4183.589743,4429.230769,4214.871794,4217.435897,4496.923076,4188.205128,4649.230769,3992.820513,4062.564102
29,4389.230769,4514.871794,4518.461538,4274.358974,4480.000000,4183.589743,4427.179487,4212.820512,4206.666666,4494.358974,4190.256410,4647.692307,3996.923077,4064.615384
30,4383.076923,4509.230769,4510.769230,4261.025641,4482.051282,4183.076923,4426.153846,4210.256410,4207.179487,4493.846153,4189.230769,4642.051282,3998.461539,4057.948717
31,4377.948717,4503.076923,4508.717948,4260.512820,4483.076923,4181.538461,4423.589743,4206.666666,4213.333333,4493.333333,4182.564102,4636.923076,3987.179488,4050.769230
32,4388.717948,4508.717948,4516.923076,4274.358974,4481.538461,4185.128205,4429.743589,4208.205128,4210.769230,4496.923076,4190.769230,4641.025641,3989.230770,4058.461538
33,4401.025641,4521.025641,4526.666666,4278.461538,4484.615384,4187.179487,4438.974358,4216.410256,4219.487179,4505.641025,4210.256410,4648.717948,4004.102564,4069.743589
34,4392.820512,4515.897435,4522.564102,4269.230769,4482.564102,4185.641025,4435.384615,4214.871794,4223.076923,4501.538461,4211.282051,4644.615384,4001.538461,4065.641025
35,4380.512820,4506.153846,4511.794871,4262.564102,4480.000000,4184.102564,4426.666666,4200.000000,4202.051282,4484.102564,4202.051282,4635.897435,3988.205129,4054.358974
36,4382.564102,4516.410256,4514.358974,4268.205128,4487.179487,4184.102564,4426.153846,4195.384615,4191.794871,4483.076923,4202.051282,4637.948717,3988.717949,4055.384615
37,4392.820512,4529.230769,4522.564102,4279.487179,4493.846153,4186.666666,4433.846153,4208.205128,4209.230769,4496.923076,4204.102564,4647.179487,3999.487180,4066.666666
38,4394.871794,4520.512820,4518.974358,4277.948717,4489.743589,4186.666666,4437.435897,4212.820512,4215.384615,4498.461538,4197.948717,4649.743589,3997.435898,4066.666666
39,4385.641025,4506.666666,4514.871794,4264.615384,4482.564102,4179.487179,4429.743589,4202.051282,4198.974358,4490.769230,4195.897435,4644.102564,3982.051283,4056.923076
40,4379.487179,4509.743589,4519.487179,4263.076923,4480.512820,4177.948717,4427.179487,4197.948717,4194.871794,4487.179487,4200.000000,4642.051282,3976.923077,4051.282051
41,4380.512820,4517.435897,4518.974358,4272.820512,4481.025641,4181.025641,4433.333333,4208.717948,4203.076923,4488.717948,4200.000000,4645.641025,3989.230770,4054.358974
42,4387.692307,4520.512820,4517.948717,4277.435897,4482.051282,4178.461538,4436.410256,4215.384615,4210.256410,4494.358974,4197.435897,4649.230769,3998.461539,4061.538461
43,4393.333333,4523.076923,4523.076923,4274.871794,4484.615384,4181.025641,4434.871794,4213.333333,4211.794871,4498.461538,4196.923076,4650.769230,3988.717949,4064.615384
44,4388.717948,4518.461538,4523.076923,4266.153846,4487.692307,4187.692307,4435.384615,4216.410256,4209.230769,4495.897435,4199.487179,4648.205128,3981.025642,4061.538461
45,4380.512820,4512.820512,4517.435897,4261.538461,4490.769230,4188.717948,4435.897435,4217.948717,4207.179487,4493.333333,4200.512820,4645.641025,3983.076924,4055.384615
46,4380.512820,4513.846153,4515.384615,4267.179487,4489.230769,4185.641025,4440.000000,4213.846153,4211.282051,4496.410256,4200.512820,4646.666666,3985.128206,4054.871794
47,4391.794871,4516.410256,4522.564102,4275.384615,4485.128205,4186.666666,4446.153846,4215.897435,4220.000000,4503.589743,4200.512820,4653.333333,3990.769231,4066.153846
48,4398.461538,4516.410256,4530.256410,4281.025641,4485.641025,4189.743589,4446.153846,4223.589743,4222.051282,4507.692307,4200.000000,4658.461538,3997.435898,4075.384615
49,4390.769230,4514.871794,4524.615384,4275.897435,4487.692307,4189.743589,4437.435897,4216.923076,4214.358974,4503.076923,4202.051282,4653.333333,3987.179488,4064.102564
50,4387.179487,4517.948717,4518.461538,4266.153846,4485.128205,4185.128205,4431.794871,4205.641025,4205.128205,4494.871794,4202.051282,4646.153846,3977.435898,4054.871794
51,4392.820512,4518.974358,4522.564102,4270.769230,4487.692307,4184.615384,4431.282051,4206.666666,4207.692307,4487.692307,4191.794871,4648.205128,3982.564103,4063.589743
52,4387.692307,4512.307692,4522.564102,4277.948717,4488.717948,4187.692307,4431.794871,4205.128205,4209.743589,4485.128205,4181.025641,4647.692307,3976.923077,4063.076923
53,4378.974358,4510.769230,4515.897435,4271.282051,4482.564102,4185.641025,4433.333333,4197.948717,4202.564102,4487.692307,4186.666666,4641.025641,3963.076924,4052.307692
54,4376.923076,4514.358974,4514.871794,4265.641025,4487.179487,4183.589743,4436.410256,4198.974358,4195.384615,4488.717948,4198.461538,4636.923076,3963.589744,4049.743589
55,4374.358974,4511.794871,4516.923076,4266.666666,4492.820512,4185.128205,4438.461538,4203.589743,4193.846153,4485.128205,4190.769230,4637.435897,3969.230770,4053.333333
56,4382.051282,4512.307692,4520.000000,4269.743589,4488.205128,4186.153846,4440.512820,4207.179487,4198.974358,4484.102564,4176.923076,4642.051282,3970.256411,4056.923076
57,4394.871794,4524.102564,4529.230769,4282.051282,4488.717948,4186.153846,4445.641025,4214.871794,4207.179487,4491.282051,4187.692307,4651.282051,3978.974359,4064.615384
58,4392.820512,4529.230769,4535.384615,4293.846153,4498.461538,4193.333333,4447.692307,4220.512820,4212.307692,4503.076923,4207.179487,4654.871794,3988.205129,4069.230769
59,4385.128205,4526.153846,4527.692307,4286.153846,4501.025641,4195.897435,4445.128205,4217.435897,4215.897435,4504.615384,4201.025641,4647.179487,3977.435898,4063.589743
60,4386.153846,4521.538461,4520.000000,4275.897435,4492.820512,4190.256410,4443.589743,4211.794871,4216.410256,4497.435897,4191.794871,4641.025641,3963.076924,4058.974358
61,4387.179487,4520.512820,4524.615384,4279.487179,4487.179487,4188.717948,4449.230769,4210.256410,4213.333333,4498.974358,4197.948717,4642.051282,3964.102565,4060.000000
62,4385.128205,4522.564102,4526.666666,4282.564102,4492.820512,4191.282051,4456.410256,4215.897435,4215.384615,4503.076923,4195.384615,4646.153846,3978.974359,4061.025641
63,4380.512820,4516.923076,4517.435897,4277.435897,4494.358974,4194.358974,4448.717948,4217.948717,4215.897435,4493.333333,4185.641025,4643.589743,3977.948718,4054.358974
64,4380.000000,4514.871794,4516.923076,4275.897435,4490.256410,4192.820512,4442.564102,4213.333333,4212.307692,4486.153846,4194.871794,4639.487179,3969.743590,4054.871794
65,4385.641025,4522.564102,4520.512820,4280.000000,4492.307692,4190.769230,4447.692307,4215.384615,4214.871794,4496.410256,4207.179487,4641.538461,3974.871795,4065.641025
66,4384.102564,4523.076923,4514.358974,4274.871794,4492.820512,4191.282051,4445.128205,4215.384615,4212.820512,4503.589743,4191.282051,4640.512820,3976.923077,4062.051282
67,4380.000000,4516.923076,4513.333333,4272.307692,4487.692307,4191.282051,4440.000000,4204.615384,4202.564102,4500.000000,4180.512820,4636.923076,3972.307693,4052.820512
68,4380.000000,4513.846153,4517.948717,4279.487179,4485.641025,4186.666666,4443.589743,4204.102564,4203.589743,4496.410256,4196.410256,4636.923076,3965.128206,4055.897435
69,4373.333333,4506.666666,4513.846153,4274.871794,4488.205128,4183.589743,4443.076923,4211.282051,4209.230769,4487.179487,4189.230769,4634.871794,3955.897436,4055.897435
70,4370.769230,4502.051282,4508.205128,4266.153846,4490.256410,4187.692307,4437.435897,4206.153846,4202.051282,4474.871794,4166.666666,4630.769230,3952.307693,4046.153846
71,4380.000000,4512.307692,4514.871794,4272.820512,4490.769230,4189.230769,4440.000000,4204.102564,4200.000000,4483.589743,4182.564102,4634.358974,3963.076924,4047.692307
72,4385.641025,4525.641025,4523.589743,4279.487179,4490.256410,4189.743589,4444.102564,4217.948717,4214.871794,4503.076923,4207.692307,4640.000000,3970.769231,4058.461538
73,4382.564102,4527.692307,4521.025641,4275.897435,4491.794871,4188.205128,4442.051282,4223.589743,4223.076923,4505.128205,4203.076923,4639.487179,3968.205129,4060.512820
74,4383.076923,4517.435897,4516.410256,4275.897435,4488.717948,4183.589743,4438.461538,4215.897435,4216.410256,4497.435897,4192.820512,4638.461538,3964.615385,4056.410256
75,4384.102564,4512.820512,4516.923076,4278.461538,4482.564102,4184.102564,4436.410256,4215.384615,4210.256410,4496.410256,4187.692307,4634.358974,3959.487180,4053.846153
76,4382.051282,4519.487179,4522.051282,4276.410256,4487.179487,4189.743589,4438.461538,4216.410256,4210.256410,4495.897435,4180.000000,4633.333333,3961.025642,4054.358974
77,4379.487179,4522.051282,4522.564102,4277.435897,4487.692307,4192.307692,4443.076923,4215.897435,4211.794871,4493.333333,4181.025641,4637.948717,3967.692308,4057.435897
78,4376.410256,4514.358974,4516.410256,4277.948717,4482.051282,4187.179487,4437.948717,4217.948717,4214.871794,4494.358974,4193.846153,4639.487179,3968.205129,4056.410256
79,4371.794871,4505.128205,4510.256410,4270.256410,4481.538461,4178.974358,4428.205128,4213.333333,4213.846153,4490.769230,4196.410256,4632.820512,3953.333334,4049.230769
80,4370.256410,4503.589743,4510.256410,4267.692307,4481.025641,4177.948717,4425.128205,4203.076923,4206.153846,4485.641025,4189.743589,4630.256410,3940.000000,4043.076923
81,4380.000000,4515.897435,4520.512820,4279.487179,4481.538461,4183.589743,4428.717948,4204.102564,4204.615384,4489.743589,4192.307692,4640.000000,3955.384616,4050.769230
82,4394.871794,4532.307692,4533.846153,4287.179487,4490.769230,4187.179487,4435.384615,4215.897435,4209.230769,4499.487179,4203.589743,4651.282051,3982.564103,4073.333333
83,4400.512820,4530.769230,4538.461538,4280.512820,4494.871794,4188.717948,4442.564102,4218.461538,4211.282051,4507.179487,4207.692307,4653.846153,3978.461539,4083.589743
84,4396.923076,4520.512820,4532.307692,4282.051282,4489.230769,4191.282051,4441.538461,4210.256410,4211.282051,4507.179487,4202.051282,4649.230769,3954.871795,4071.794871
85,4391.794871,4523.076923,4523.076923,4292.307692,4489.230769,4190.256410,4433.846153,4205.128205,4211.282051,4497.948717,4201.025641,4643.076923,3948.717949,4059.487179
86,4387.692307,4529.230769,4523.076923,4292.820512,4491.282051,4187.179487,4431.794871,4205.128205,4204.102564,4487.692307,4200.000000,4639.487179,3955.384616,4060.512820
87,4385.128205,4524.615384,4526.666666,4285.128205,4489.743589,4186.153846,4432.820512,4201.538461,4194.871794,4483.076923,4200.512820,4638.974358,3960.512821,4065.641025
88,4383.076923,4516.923076,4521.025641,4275.897435,4490.256410,4187.179487,4431.282051,4195.384615,4194.358974,4481.538461,4202.564102,4637.948717,3958.974359,4061.025641
89,4377.948717,4511.794871,4510.256410,4271.282051,4485.128205,4185.641025,4427.692307,4194.871794,4196.410256,4485.128205,4195.897435,4633.846153,3954.871795,4049.743589
90,4373.333333,4503.589743,4504.615384,4267.692307,4474.358974,4179.487179,4426.153846,4196.923076,4196.410256,4488.205128,4188.205128,4628.205128,3951.282052,4043.589743
91,4373.333333,4497.435897,4504.102564,4264.615384,4474.871794,4176.410256,4424.615384,4195.384615,4195.384615,4484.615384,4185.128205,4622.564102,3946.666667,4046.153846
92,4371.794871,4496.410256,4506.153846,4266.666666,4484.615384,4182.051282,4424.615384,4194.871794,4195.897435,4482.051282,4184.102564,4623.076923,3948.205129,4047.692307
93,4372.307692,4498.974358,4511.794871,4271.282051,4487.692307,4187.179487,4429.230769,4201.025641,4201.538461,4487.179487,4183.076923,4630.769230,3957.435898,4047.692307
94,4378.461538,4505.641025,4513.846153,4269.743589,4485.128205,4183.589743,4430.769230,4209.230769,4204.615384,4490.769230,4186.666666,4637.435897,3967.179488,4049.230769
95,4375.384615,4502.564102,4506.666666,4261.538461,4483.589743,4182.051282,4426.153846,4203.589743,4196.923076,4484.102564,4185.128205,4631.794871,3965.641026,4043.589743
96,4364.615384,4491.794871,4502.564102,4260.000000,4487.179487,4184.615384,4425.641025,4192.820512,4186.666666,4477.435897,4177.948717,4623.589743,3960.512821,4041.025641
97,4370.256410,4491.282051,4507.179487,4274.358974,4491.282051,4185.641025,4430.256410,4198.974358,4193.846153,4485.641025,4181.538461,4629.743589,3967.692308,4047.179487
98,4383.076923,4501.025641,4507.692307,4281.025641,4484.615384,4185.128205,4429.743589,4206.153846,4206.666666,4494.871794,4184.102564,4635.897435,3972.820513,4046.666666
99,4380.000000,4503.076923,4502.564102,4268.717948,4476.410256,4182.564102,4425.128205,4202.564102,4200.512820,4488.205128,4187.179487,4631.794871,3968.717949,4042.564102
100,4380.000000,4506.153846,4510.256410,4269.230769,4484.615384,4184.615384,4428.717948,4207.692307,4196.923076,4488.205128,4197.948717,4637.435897,3972.820513,4051.794871
101,4389.743589,4510.256410,4519.487179,4284.102564,4494.358974,4188.205128,4433.846153,4218.461538,4210.256410,4496.410256,4195.897435,4646.666666,3987.692308,4061.025641
102,4386.666666,4503.076923,4512.307692,4282.051282,4490.256410,4187.692307,4432.820512,4213.333333,4213.846153,4492.820512,4187.179487,4640.000000,3982.564103,4054.871794
103,4380.512820,4502.051282,4511.282051,4277.435897,4484.615384,4185.128205,4431.282051,4205.641025,4208.717948,4491.282051,4197.435897,4637.435897,3973.333334,4052.820512
104,4384.615384,4508.717948,4520.000000,4280.000000,4480.000000,4185.641025,4430.256410,4210.256410,4211.794871,4497.948717,4209.743589,4646.666666,3983.589744,4058.461538
105,4383.076923,4502.564102,4513.333333,4271.794871,4476.923076,4182.051282,4427.179487,4205.128205,4208.205128,4492.307692,4194.358974,4643.076923,3984.102565,4056.410256
106,4378.461538,4492.307692,4502.051282,4261.538461,4477.948717,4174.358974,4424.615384,4194.871794,4200.000000,4483.076923,4185.128205,4634.871794,3976.923077,4054.358974
107,4384.615384,4497.948717,4507.179487,4264.615384,4474.358974,4173.846153,4424.615384,4200.000000,4205.641025,4488.205128,4193.846153,4640.000000,3980.000000,4055.897435
108,4384.102564,4503.076923,4513.333333,4273.846153,4474.358974,4180.512820,4426.153846,4209.230769,4209.743589,4493.846153,4192.820512,4643.589743,3984.102565,4053.846153
109,4382.051282,4503.589743,4509.743589,4278.974358,4484.102564,4186.666666,4432.820512,4207.179487,4212.307692,4494.358974,4191.794871,4644.102564,3987.179488,4055.897435
110,4392.820512,4514.358974,4513.846153,4281.538461,4491.282051,4185.641025,4435.897435,4211.282051,4222.564102,4502.051282,4199.487179,4649.743589,3990.769231,4065.128205
111,4393.846153,4516.410256,4517.435897,4278.461538,4491.282051,4185.641025,4432.820512,4220.000000,4227.179487,4509.743589,4205.128205,4649.230769,3990.256411,4066.666666
112,4382.051282,4503.589743,4510.256410,4267.179487,4491.282051,4190.256410,4434.358974,4216.410256,4223.076923,4506.153846,4205.641025,4643.076923,3987.692308,4056.410256
113,4383.076923,4501.025641,4510.769230,4266.153846,4492.307692,4189.743589,4440.000000,4215.897435,4222.051282,4502.051282,4207.692307,4646.666666,3993.333334,4056.410256
114,4392.820512,4512.820512,4517.948717,4278.974358,4489.230769,4186.666666,4442.051282,4221.025641,4227.179487,4507.179487,4211.282051,4652.307692,3993.846154,4063.076923
115,4390.256410,4515.897435,4516.410256,4280.512820,4486.666666,4184.102564,4439.487179,4216.923076,4225.641025,4503.589743,4211.794871,4648.717948,3983.589744,4061.025641
116,4383.589743,4511.794871,4512.307692,4275.384615,4489.743589,4185.641025,4440.000000,4214.358974,4220.000000,4497.948717,4211.794871,4646.666666,3979.487180,4059.487179
117,4384.615384,4507.179487,4514.358974,4283.076923,4492.820512,4191.794871,4444.102564,4220.000000,4221.025641,4506.153846,4202.564102,4652.307692,3986.666667,4061.025641
118,4384.102564,4501.538461,4515.384615,4282.564102,4491.282051,4190.256410,4437.435897,4215.384615,4218.974358,4501.538461,4190.769230,4651.794871,3988.717949,4056.410256
119,4380.512820,4499.487179,4513.333333,4274.871794,4488.717948,4186.666666,4431.794871,4205.128205,4206.666666,4484.102564,4192.307692,4644.615384,3976.410257,4052.307692
120,4381.538461,4503.076923,4517.435897,4280.000000,4491.794871,4190.769230,4435.384615,4207.692307,4205.128205,4485.128205,4201.538461,4645.128205,3969.743590,4058.461538
121,4383.076923,4508.205128,4518.974358,4283.589743,4493.333333,4192.820512,4437.948717,4213.333333,4218.974358,4493.846153,4203.589743,4651.282051,3976.410257,4060.512820
122,4378.974358,4506.666666,4514.358974,4276.410256,4488.717948,4186.666666,4435.384615,4212.820512,4220.512820,4487.179487,4196.923076,4649.743589,3976.923077,4052.820512
123,4378.461538,4500.512820,4512.820512,4276.410256,4486.666666,4185.641025,4435.384615,4208.717948,4213.333333,4486.666666,4200.512820,4646.666666,3969.230770,4050.256410
124,4381.538461,4501.025641,4513.846153,4277.948717,4490.769230,4188.205128,4438.461538,4209.230769,4208.717948,4495.897435,4201.025641,4646.153846,3967.692308,4053.333333
125,4377.948717,4505.128205,4511.282051,4269.230769,4490.769230,4185.128205,4438.461538,4208.717948,4203.076923,4486.666666,4184.102564,4642.051282,3966.666667,4051.794871
126,4378.974358,4506.666666,4512.820512,4267.692307,4484.615384,4183.589743,4436.410256,4207.692307,4204.615384,4477.948717,4184.102564,4642.564102,3962.564103,4051.282051
127,4380.000000,4504.102564,4518.461538,4271.282051,4483.076923,4183.589743,4431.794871,4207.179487,4209.230769,4486.666666,4195.384615,4648.205128,3965.128206,4054.358974
128,4372.820512,4500.000000,4514.871794,4270.769230,4485.128205,4182.051282,4427.692307,4203.589743,4204.615384,4485.641025,4187.179487,4644.615384,3965.641026,4050.256410
129,4374.358974,4505.641025,4511.794871,4274.358974,4483.589743,4184.102564,4427.692307,4205.641025,4202.564102,4481.025641,4183.076923,4643.076923,3958.974359,4046.666666
130,4385.128205,4514.358974,4516.923076,4280.000000,4486.153846,4188.205128,4431.794871,4212.820512,4208.205128,4491.794871,4193.846153,4651.282051,3964.102565,4054.358974
131,4385.128205,4509.743589,4516.410256,4278.974358,4492.307692,4188.717948,4438.461538,4219.487179,4216.410256,4497.948717,4188.205128,4654.358974,3978.461539,4057.948717
132,4382.564102,4507.179487,4521.025641,4280.000000,4491.794871,4189.743589,4438.461538,4222.564102,4224.615384,4495.384615,4184.102564,4655.384615,3980.000000,4058.974358
133,4389.230769,4514.871794,4528.205128,4284.102564,4489.230769,4192.307692,4436.923076,4221.025641,4222.564102,4499.487179,4201.025641,4661.538461,3973.846154,4069.230769
134,4389.230769,4516.923076,4524.615384,4282.051282,4491.282051,4191.282051,4438.461538,4217.435897,4215.384615,4500.512820,4210.256410,4661.025641,3976.923077,4070.769230
135,4380.000000,4511.794871,4522.051282,4281.025641,4491.794871,4189.743589,4439.487179,4218.974358,4215.384615,4498.461538,4199.487179,4653.333333,3981.025642,4057.948717
136,4375.384615,4507.179487,4520.512820,4277.948717,4489.743589,4188.717948,4441.538461,4221.025641,4220.000000,4504.615384,4191.794871,4648.717948,3975.897436,4050.256410
137,4382.564102,4508.717948,4521.025641,4277.435897,4490.256410,4190.769230,4444.615384,4223.589743,4230.769230,4509.743589,4197.435897,4650.769230,3972.820513,4056.410256
138,4388.205128,4513.333333,4525.641025,4281.025641,4490.769230,4192.307692,4443.076923,4229.743589,4237.948717,4504.102564,4204.102564,4655.897435,3979.487180,4065.128205
139,4383.589743,4511.282051,4525.128205,4278.461538,4489.230769,4188.205128,4438.974358,4226.153846,4227.692307,4499.487179,4201.025641,4652.820512,3983.589744,4065.641025
140,4384.102564,4512.820512,4522.051282,4276.923076,4489.743589,4188.717948,4437.435897,4221.538461,4217.948717,4501.025641,4197.435897,4648.205128,3980.512821,4060.512820
141,4390.769230,4521.025641,4525.641025,4282.051282,4493.846153,4195.897435,4441.538461,4225.128205,4223.076923,4507.179487,4202.051282,4652.307692,3981.025642,4061.025641
142,4391.794871,4518.974358,4529.743589,4283.589743,4494.358974,4197.948717,4447.179487,4228.717948,4226.153846,4511.282051,4202.051282,4655.897435,3980.000000,4070.256410
143,4386.153846,4508.717948,4524.615384,4277.948717,4490.769230,4191.282051,4440.512820,4228.717948,4228.205128,4513.846153,4200.512820,4651.282051,3974.871795,4068.717948
144,4382.051282,4508.717948,4519.487179,4277.948717,4489.743589,4186.153846,4430.256410,4224.102564,4233.333333,4511.794871,4202.564102,4650.256410,3972.820513,4057.435897
145,4385.128205,4508.717948,4521.025641,4277.435897,4490.256410,4185.128205,4433.333333,4220.512820,4227.692307,4502.051282,4201.025641,4651.794871,3975.897436,4052.820512
146,4389.743589,4505.641025,4522.564102,4272.307692,4489.743589,4186.666666,4443.076923,4229.230769,4226.153846,4501.538461,4197.948717,4649.743589,3982.051283,4057.435897
147,4392.820512,4513.333333,4522.564102,4272.307692,4491.282051,4192.307692,4449.743589,4239.487179,4236.923076,4515.384615,4198.461538,4650.256410,3982.051283,4065.641025
148,4393.333333,4522.051282,4525.128205,4279.487179,4493.846153,4195.897435,4449.743589,4232.307692,4238.974358,4520.000000,4205.128205,4655.897435,3973.846154,4071.794871
149,4388.717948,4516.410256,4523.589743,4282.564102,4492.307692,4192.307692,4438.974358,4221.538461,4225.128205,4509.743589,4209.230769,4651.794871,3971.794872,4066.666666
150,4383.076923,4510.256410,4519.487179,4277.948717,4488.205128,4185.641025,4435.384615,4220.000000,4219.487179,4506.666666,4205.128205,4644.102564,3977.435898,4056.923076
151,4389.230769,4516.410256,4524.615384,4282.564102,4487.179487,4187.179487,4442.051282,4222.051282,4227.179487,4516.410256,4198.974358,4647.692307,3975.897436,4060.512820
152,4390.769230,4517.435897,4524.615384,4285.641025,4490.256410,4189.743589,4437.435897,4219.487179,4223.076923,4514.358974,4196.923076,4648.205128,3963.076924,4063.589743
153,4378.461538,4506.666666,4515.897435,4272.307692,4489.230769,4185.641025,4431.282051,4213.333333,4216.923076,4501.025641,4194.871794,4638.974358,3957.435898,4056.410256
154,4372.820512,4503.076923,4515.897435,4263.076923,4486.153846,4184.615384,4435.897435,4214.358974,4220.512820,4496.923076,4191.282051,4637.435897,3966.666667,4052.307692
155,4374.871794,4509.230769,4516.923076,4267.179487,4488.717948,4189.230769,4434.358974,4214.871794,4215.384615,4495.384615,4185.641025,4638.974358,3965.641026,4048.205128
156,4372.307692,4509.230769,4508.717948,4266.153846,4485.128205,4183.589743,4427.179487,4210.769230,4206.153846,4484.615384,4180.512820,4636.923076,3947.692308,4044.102564
157,4371.282051,4499.487179,4503.076923,4261.538461,4474.358974,4176.923076,4426.153846,4211.282051,4211.794871,4483.076923,4184.615384,4634.871794,3942.051283,4046.153846
158,4370.769230,4498.461538,4508.205128,4261.025641,4474.871794,4180.000000,4426.153846,4212.307692,4215.897435,4496.410256,4194.871794,4635.384615,3950.256411,4047.179487
159,4371.794871,4501.538461,4515.897435,4261.538461,4480.000000,4178.461538,4426.153846,4213.846153,4215.897435,4502.051282,4201.538461,4637.948717,3957.948718,4046.153846
160,4377.948717,4501.538461,4516.410256,4269.230769,4479.487179,4173.846153,4428.205128,4216.923076,4218.461538,4501.538461,4200.000000,4642.564102,3968.205129,4051.794871
161,4383.076923,4509.230769,4517.435897,4276.410256,4483.589743,4180.000000,4429.743589,4218.974358,4216.923076,4503.076923,4198.974358,4646.153846,3971.282052,4058.974358
162,4381.025641,4516.923076,4517.435897,4267.692307,4491.794871,4188.205128,4431.282051,4218.461538,4216.923076,4499.487179,4202.051282,4644.615384,3964.102565,4059.487179
163,4377.948717,4507.692307,4513.846153,4261.025641,4491.794871,4188.717948,4431.282051,4216.410256,4220.000000,4498.974358,4196.923076,4638.974358,3965.128206,4055.897435
164,4383.076923,4504.102564,4513.846153,4265.641025,4485.641025,4189.743589,4430.769230,4215.384615,4218.974358,4504.615384,4196.410256,4640.512820,3971.794872,4057.435897
165,4390.769230,4519.487179,4521.538461,4265.128205,4484.102564,4187.692307,4431.282051,4217.435897,4220.512820,4508.717948,4213.333333,4651.282051,3971.794872,4064.102564
166,4390.769230,4521.538461,4526.153846,4269.230769,4482.564102,4181.025641,4431.282051,4217.948717,4222.051282,4510.256410,4221.025641,4655.897435,3967.692308,4067.179487
167,4384.615384,4511.794871,4521.538461,4278.461538,4481.538461,4183.076923,4430.769230,4208.717948,4210.769230,4504.102564,4205.128205,4650.769230,3965.641026,4064.615384
168,4380.000000,4512.820512,4515.897435,4274.358974,4486.666666,4187.179487,4426.666666,4202.051282,4204.615384,4492.820512,4196.410256,4647.692307,3965.128206,4060.512820
169,4386.153846,4520.512820,4516.410256,4268.205128,4489.230769,4187.179487,4426.666666,4210.256410,4217.435897,4499.487179,4202.051282,4648.717948,3968.717949,4060.512820
170,4393.846153,4525.128205,4521.538461,4275.897435,4484.615384,4185.128205,4430.769230,4220.000000,4226.153846,4514.358974,4206.153846,4653.333333,3974.871795,4065.128205
171,4391.282051,4522.051282,4523.076923,4281.538461,4485.641025,4188.205128,4429.743589,4216.410256,4218.974358,4508.717948,4201.538461,4656.923076,3971.282052,4065.641025
172,4384.102564,4516.410256,4519.487179,4275.384615,4492.820512,4190.769230,4429.743589,4205.641025,4204.615384,4491.282051,4190.769230,4651.794871,3956.923077,4058.974358
173,4381.538461,4509.743589,4516.923076,4266.153846,4490.256410,4187.692307,4433.333333,4206.666666,4198.974358,4481.538461,4189.230769,4641.025641,3947.179488,4051.794871
174,4378.461538,4505.128205,4515.384615,4264.102564,4485.641025,4183.589743,4429.743589,4207.179487,4203.076923,4482.051282,4198.974358,4637.435897,3950.256411,4050.769230
175,4376.923076,4509.743589,4516.923076,4272.307692,4488.717948,4185.128205,4427.692307,4205.128205,4208.717948,4492.820512,4201.538461,4641.025641,3961.025642,4055.384615
176,4387.692307,4518.461538,4523.589743,4282.051282,4491.794871,4191.794871,4435.897435,4215.384615,4218.461538,4509.230769,4200.512820,4648.717948,3969.230770,4061.025641
177,4396.923076,4522.051282,4531.282051,4280.512820,4491.794871,4191.282051,4438.974358,4226.153846,4229.743589,4517.435897,4208.205128,4653.846153,3968.717949,4062.051282
178,4397.435897,4526.153846,4532.820512,4276.410256,4490.256410,4191.282051,4438.974358,4224.102564,4229.230769,4512.307692,4217.435897,4655.897435,3971.794872,4067.179487
179,4396.410256,4533.333333,4528.205128,4275.384615,4491.794871,4194.871794,4437.948717,4214.871794,4215.384615,4502.051282,4214.358974,4654.358974,3978.461539,4072.820512
180,4393.846153,4529.230769,4523.589743,4274.871794,4492.820512,4191.794871,4431.794871,4206.666666,4210.769230,4498.974358,4207.692307,4648.205128,3969.230770,4068.205128
181,4392.820512,4519.487179,4524.102564,4277.948717,4488.717948,4185.128205,4428.717948,4200.512820,4211.282051,4500.000000,4206.666666,4642.564102,3962.051283,4063.076923
182,4392.307692,4518.974358,4525.128205,4278.461538,4489.230769,4186.666666,4430.256410,4202.564102,4205.128205,4496.410256,4203.589743,4643.589743,3970.256411,4063.589743
183,4393.333333,4524.615384,4524.615384,4272.820512,4493.846153,4194.871794,4432.820512,4207.179487,4207.179487,4496.923076,4201.025641,4648.717948,3967.692308,4063.589743
184,4395.897435,4530.256410,4528.717948,4275.384615,4492.307692,4194.358974,4437.435897,4210.256410,4214.871794,4503.589743,4213.333333,4652.307692,3962.051283,4067.179487
185,4398.974358,4531.794871,4535.897435,4284.615384,4489.743589,4190.256410,4445.641025,4217.435897,4219.487179,4506.153846,4219.487179,4654.358974,3975.384616,4076.410256
186,4396.923076,4527.179487,4533.846153,4284.615384,4490.769230,4189.743589,4444.615384,4217.435897,4221.025641,4504.102564,4204.102564,4652.307692,3975.384616,4072.307692
187,4392.307692,4519.487179,4526.153846,4277.948717,4490.769230,4191.794871,4436.410256,4209.743589,4218.461538,4505.128205,4198.974358,4647.179487,3962.051283,4062.051282
188,4384.615384,4514.871794,4520.512820,4267.692307,4488.717948,4188.205128,4429.230769,4204.102564,4213.333333,4501.025641,4205.128205,4641.538461,3962.564103,4060.512820
189,4380.000000,4517.435897,4519.487179,4258.974358,4489.230769,4182.051282,4427.692307,4206.153846,4208.717948,4487.179487,4200.512820,4637.435897,3962.564103,4061.025641
190,4390.256410,4524.615384,4528.717948,4268.205128,4493.846153,4187.692307,4434.871794,4214.871794,4213.846153,4490.769230,4205.641025,4644.102564,3961.538462,4064.102564
191,4400.000000,4525.641025,4537.435897,4283.589743,4494.358974,4194.871794,4442.051282,4220.000000,4224.615384,4510.769230,4220.512820,4654.871794,3970.256411,4071.282051
192,4396.410256,4517.948717,4532.820512,4285.128205,4489.230769,4191.282051,4441.025641,4216.410256,4226.666666,4510.769230,4217.435897,4655.897435,3975.384616,4069.743589
193,4390.256410,4511.794871,4524.102564,4275.384615,4488.717948,4187.692307,4434.358974,4210.769230,4216.923076,4497.948717,4205.641025,4645.128205,3967.179488,4060.000000
194,4386.666666,4505.128205,4515.897435,4268.205128,4491.282051,4187.692307,4433.846153,4207.692307,4210.769230,4494.871794,4195.897435,4634.871794,3954.871795,4053.333333
195,4388.717948,4503.589743,4520.000000,4274.358974,4489.743589,4188.205128,4442.051282,4214.358974,4223.589743,4498.974358,4193.846153,4639.487179,3955.384616,4057.948717
196,4397.435897,4514.871794,4534.358974,4288.717948,4497.435897,4194.358974,4446.153846,4228.205128,4234.871794,4504.102564,4213.846153,4656.410256,3976.410257,4070.256410
197,4399.487179,4519.487179,4534.358974,4287.692307,4503.076923,4198.974358,4442.564102,4227.179487,4226.153846,4508.205128,4228.205128,4659.487179,3996.410257,4073.846153
198,4395.384615,4511.794871,4523.076923,4274.871794,4497.435897,4192.820512,4441.538461,4220.000000,4219.487179,4508.205128,4222.051282,4650.256410,3996.923077,4070.769230
199,4397.435897,4511.282051,4528.717948,4278.461538,4496.410256,4193.846153,4445.128205,4226.153846,4230.256410,4515.384615,4218.974358,4655.897435,3992.307693,4075.897435
200,4398.974358,4515.897435,4537.948717,4287.179487,4498.974358,4203.076923,4445.641025,4229.230769,4237.948717,4520.512820,4215.897435,4662.051282,3993.333334,4080.000000
201,4395.384615,4514.871794,4530.769230,4280.512820,4497.948717,4200.512820,4443.589743,4225.128205,4231.794871,4510.256410,4209.230769,4654.871794,3995.384616,4070.256410
202,4394.358974,4517.948717,4528.717948,4279.487179,4503.076923,4196.410256,4445.128205,4225.641025,4227.179487,4505.128205,4212.820512,4656.410256,4002.564102,4068.205128
203,4397.435897,4525.641025,4534.358974,4287.179487,4509.743589,4203.076923,4448.717948,4230.769230,4231.282051,4516.410256,4222.051282,4664.615384,4010.256410,4079.487179
204,4400.000000,4523.076923,4532.820512,4283.589743,4503.589743,4201.538461,4448.717948,4228.717948,4231.282051,4517.435897,4215.384615,4661.538461,4005.641025,4079.487179
205,4392.820512,4509.743589,4522.051282,4273.846153,4489.743589,4187.179487,4444.615384,4221.025641,4219.487179,4503.076923,4203.076923,4652.820512,3993.846154,4067.692307
206,4385.128205,4504.102564,4517.948717,4274.358974,4489.743589,4186.666666,4442.564102,4220.512820,4216.923076,4496.410256,4201.025641,4652.307692,3991.794872,4061.025641
207,4390.256410,4510.256410,4529.230769,4280.000000,4498.974358,4196.410256,4445.641025,4228.205128,4227.179487,4503.076923,4200.512820,4658.974358,3997.435898,4069.230769
208,4397.435897,4514.358974,4533.333333,4279.487179,4498.974358,4195.384615,4445.641025,4227.692307,4223.589743,4509.230769,4198.461538,4659.487179,3997.948718,4077.435897
209,4396.923076,4513.846153,4525.128205,4278.461538,4494.358974,4191.794871,4442.051282,4223.076923,4217.948717,4510.256410,4203.076923,4653.846153,4000.000000,4075.897435
210,4393.846153,4515.897435,4526.666666,4278.461538,4496.410256,4191.794871,4443.076923,4226.666666,4227.179487,4509.743589,4210.769230,4656.923076,4003.076923,4069.230769
211,4390.769230,4515.384615,4531.794871,4277.948717,4497.435897,4190.769230,4447.179487,4224.615384,4233.333333,4509.743589,4206.153846,4662.051282,3995.384616,4065.128205
212,4390.256410,4511.794871,4529.230769,4279.487179,4494.358974,4190.256410,4443.076923,4216.410256,4227.692307,4507.179487,4194.871794,4657.435897,3985.128206,4066.153846
213,4396.410256,4509.230769,4530.256410,4278.974358,4494.871794,4191.282051,4435.897435,4217.435897,4221.025641,4501.025641,4197.435897,4654.871794,3991.794872,4070.769230
214,4403.076923,4512.820512,4534.358974,4278.974358,4498.974358,4192.820512,4438.461538,4224.615384,4222.564102,4498.461538,4208.717948,4663.076923,4006.666666,4076.410256
215,4402.051282,4516.923076,4534.358974,4286.153846,4497.435897,4192.307692,4444.615384,4227.692307,4226.666666,4505.128205,4205.641025,4665.128205,4002.051282,4074.358974
216,4396.923076,4515.897435,4531.794871,4289.230769,4491.794871,4188.717948,4442.564102,4226.153846,4223.589743,4507.179487,4196.923076,4656.923076,3982.051283,4067.692307
217,4393.333333,4512.307692,4530.769230,4284.102564,4493.846153,4188.717948,4438.461538,4224.102564,4220.512820,4503.076923,4205.128205,4657.435897,3980.000000,4065.128205
218,4402.051282,4518.461538,4535.384615,4290.769230,4504.615384,4194.871794,4442.051282,4230.769230,4227.692307,4504.615384,4212.820512,4666.666666,3999.487180,4075.384615
219,4411.282051,4527.692307,4544.102564,4298.974358,4507.692307,4196.410256,4452.307692,4238.974358,4236.923076,4511.282051,4207.179487,4671.794871,4011.794871,4086.153846
220,4410.769230,4531.282051,4548.205128,4294.358974,4501.025641,4196.923076,4454.871794,4240.000000,4241.538461,4520.512820,4216.410256,4673.846153,4010.769230,4087.179487
221,4412.307692,4529.743589,4547.692307,4293.333333,4502.564102,4202.564102,4448.717948,4236.923076,4241.538461,4528.717948,4239.487179,4676.923076,4010.769230,4087.179487
222,4411.794871,4522.564102,4544.615384,4299.487179,4505.128205,4201.538461,4443.076923,4231.794871,4232.307692,4522.564102,4236.923076,4675.384615,4011.794871,4086.666666
223,4406.153846,4521.025641,4541.025641,4297.435897,4498.461538,4193.846153,4444.615384,4229.230769,4228.717948,4511.282051,4215.897435,4668.205128,4009.230769,4082.051282
224,4406.153846,4523.589743,4543.589743,4292.307692,4493.333333,4193.333333,4446.666666,4232.820512,4235.897435,4512.307692,4208.717948,4667.179487,4004.615384,4077.948717
225,4406.666666,4523.076923,4544.615384,4294.358974,4495.897435,4196.410256,4444.102564,4232.820512,4240.000000,4519.487179,4216.410256,4671.794871,4000.000000,4078.461538
226,4398.974358,4522.051282,4540.000000,4290.256410,4498.461538,4195.897435,4443.076923,4228.205128,4238.461538,4524.615384,4220.000000,4671.282051,4003.076923,4077.948717
227,4395.384615,4518.974358,4538.461538,4282.051282,4498.974358,4192.307692,4441.538461,4225.641025,4230.256410,4522.051282,4215.384615,4666.153846,4003.076923,4074.358974
228,4398.974358,4518.974358,4539.487179,4285.128205,4496.410256,4189.743589,4440.512820,4224.102564,4223.076923,4512.820512,4215.384615,4667.179487,4001.025641,4075.897435
229,4399.487179,4528.717948,4543.076923,4289.743589,4493.846153,4192.307692,4442.564102,4225.128205,4227.692307,4514.358974,4219.487179,4669.230769,4004.615384,4078.974358
230,4396.410256,4531.794871,4541.025641,4280.000000,4494.871794,4192.820512,4439.487179,4224.615384,4226.153846,4511.282051,4211.282051,4665.128205,4001.538461,4075.897435
231,4395.384615,4525.128205,4535.897435,4272.820512,4495.897435,4190.256410,4434.871794,4223.589743,4219.487179,4500.000000,4206.153846,4665.128205,3992.307693,4072.820512
232,4396.923076,4519.487179,4537.948717,4282.564102,4493.333333,4192.820512,4440.000000,4227.179487,4231.282051,4505.641025,4215.897435,4669.230769,3995.384616,4075.384615
233,4394.358974,4518.461538,4537.948717,4286.666666,4493.333333,4195.897435,4443.589743,4226.153846,4236.923076,4516.410256,4221.025641,4666.153846,4002.051282,4073.333333
234,4392.820512,4522.051282,4535.897435,4281.025641,4493.846153,4194.358974,4440.512820,4224.102564,4228.205128,4516.410256,4216.923076,4659.487179,3995.384616,4069.230769
235,4396.923076,4528.717948,4540.512820,4282.051282,4495.384615,4193.846153,4442.051282,4224.615384,4226.666666,4516.923076,4215.384615,4662.051282,3992.307693,4071.794871
236,4394.871794,4526.666666,4544.102564,4291.794871,4497.435897,4195.897435,4440.000000,4222.051282,4228.717948,4512.307692,4210.256410,4666.666666,3995.384616,4073.333333
237,4391.282051,4517.948717,4541.025641,4295.897435,4491.282051,4191.794871,4435.897435,4221.538461,4226.666666,4506.666666,4206.153846,4666.153846,3996.410257,4071.282051
238,4395.897435,4522.051282,4541.025641,4287.692307,4488.717948,4188.205128,4440.000000,4226.153846,4230.769230,4514.358974,4216.410256,4666.153846,3997.948718,4072.307692
239,4398.974358,4529.230769,4543.589743,4280.000000,4493.333333,4191.794871,4441.538461,4225.641025,4235.897435,4521.538461,4222.051282,4664.102564,4002.051282,4075.384615
240,4394.871794,4522.564102,4539.487179,4281.538461,4491.794871,4192.820512,4436.410256,4220.000000,4230.256410,4516.923076,4214.871794,4658.974358,4001.025641,4074.871794
241,4394.358974,4517.948717,4536.923076,4287.692307,4492.820512,4195.897435,4439.487179,4220.000000,4225.128205,4510.769230,4207.179487,4656.923076,3994.871795,4075.384615
242,4398.461538,4529.743589,4538.974358,4293.333333,4503.076923,4200.512820,4447.179487,4223.076923,4225.128205,4510.256410,4207.692307,4662.051282,3993.333334,4077.948717
243,4397.948717,4534.871794,4542.051282,4296.410256,4502.564102,4196.923076,4443.589743,4223.589743,4229.743589,4514.358974,4214.871794,4665.128205,3997.948718,4076.410256
244,4395.897435,4526.666666,4542.051282,4293.333333,4493.846153,4193.333333,4438.974358,4225.641025,4232.820512,4514.871794,4215.384615,4661.025641,4004.102564,4076.923076
245,4401.025641,4531.282051,4544.102564,4290.769230,4498.461538,4197.948717,4443.589743,4225.641025,4229.743589,4511.282051,4210.256410,4661.538461,4003.076923,4083.589743
246,4403.589743,4537.948717,4546.666666,4290.769230,4504.102564,4198.974358,4446.153846,4224.615384,4227.692307,4513.846153,4218.461538,4665.128205,3996.410257,4082.564102
247,4392.820512,4528.205128,4542.564102,4283.589743,4494.358974,4191.282051,4441.025641,4221.538461,4228.205128,4512.307692,4220.000000,4658.974358,3988.205129,4069.743589
248,4385.641025,4514.358974,4536.410256,4278.461538,4489.230769,4190.769230,4438.974358,4220.000000,4222.051282,4500.512820,4204.102564,4650.769230,3980.000000,4065.128205
249,4389.743589,4513.846153,4536.923076,4280.512820,4494.358974,4191.794871,4437.435897,4218.974358,4218.974358,4496.923076,4206.153846,4653.846153,3978.974359,4072.307692
250,4388.717948,4517.435897,4537.948717,4277.948717,4492.820512,4185.641025,4428.717948,4214.358974,4221.025641,4500.512820,4215.384615,4653.846153,3982.051283,4068.205128
251,4384.102564,4518.461538,4535.897435,4273.846153,4486.666666,4183.589743,4424.615384,4214.358974,4219.487179,4505.641025,4204.102564,4651.794871,3985.128206,4059.487179
252,4391.794871,4528.205128,4545.641025,4278.461538,4488.205128,4184.615384,4435.384615,4217.435897,4224.102564,4508.205128,4196.923076,4658.974358,3988.205129,4068.717948
253,4400.000000,4531.282051,4572.307692,4284.615384,4492.307692,4185.641025,4441.025641,4217.435897,4233.333333,4504.615384,4204.102564,4661.538461,3987.692308,4078.974358
254,4389.743589,4516.410256,4585.641025,4277.948717,4491.282051,4186.666666,4432.307692,4211.282051,4222.051282,4495.384615,4204.615384,4653.333333,3978.974359,4069.743589
255,4376.923076,4507.692307,4576.410256,4266.666666,4488.205128,4183.076923,4424.102564,4203.589743,4199.487179,4490.256410,4196.410256,4645.128205,3966.666667,4054.871794
256,4382.564102,4521.538461,4577.435897,4269.743589,4490.256410,4181.538461,4428.205128,4210.256410,4207.179487,4495.897435,4196.923076,4651.794871,3965.641026,4059.487179
257,4398.974358,4530.769230,4588.205128,4282.051282,4493.333333,4192.820512,4440.000000,4225.641025,4231.282051,4504.615384,4210.256410,4663.589743,3978.461539,4073.846153
258,4397.948717,4522.051282,4585.641025,4282.564102,4495.897435,4197.948717,4443.076923,4229.230769,4232.307692,4505.128205,4211.794871,4662.564102,3987.179488,4076.410256
259,4384.102564,4521.025641,4576.410256,4275.384615,4494.358974,4188.205128,4437.948717,4217.948717,4221.538461,4497.435897,4194.871794,4650.769230,3979.487180,4069.743589
260,4384.615384,4524.102564,4576.923076,4277.948717,4491.794871,4188.717948,4438.974358,4218.461538,4222.564102,4497.435897,4195.897435,4651.282051,3974.358975,4069.230769
