,AF3,F7,F3,FC5,T7,P7,O1,O2,P8,T8,FC6,F4,F8,AF4
0,4349.743589,4516.923076,4520.512820,4272.307692,4494.871794,4210.769230,4448.205128,4215.384615,4236.923076,4512.307692,4218.461538,4615.384615,3983.076924,4038.974358
1,4352.820512,4520.512820,4524.615384,4274.358974,4500.512820,4214.871794,4452.820512,4225.128205,4243.076923,4514.358974,4220.000000,4619.487179,3989.230770,4043.589743
2,4356.410256,4520.000000,4523.589743,4273.333333,4494.871794,4210.769230,4444.615384,4222.051282,4238.461538,4510.769230,4212.307692,4614.871794,3985.641026,4041.538461
3,4357.948717,4523.076923,4523.076923,4276.410256,4490.256410,4204.615384,4439.487179,4217.948717,4234.871794,4509.230769,4216.410256,4613.333333,3985.128206,4045.128205
4,4366.153846,4532.820512,4534.871794,4288.717948,4500.512820,4212.820512,4450.256410,4227.692307,4246.153846,4521.025641,4232.820512,4626.153846,3997.435898,4056.923076
5,4371.794871,4536.410256,4541.538461,4295.897435,4506.153846,4221.025641,4453.333333,4234.358974,4253.846153,4532.307692,4232.307692,4631.282051,4001.538461,4060.512820
6,4369.230769,4534.358974,4537.435897,4292.820512,4500.512820,4214.871794,4448.717948,4227.179487,4246.666666,4526.153846,4220.000000,4622.051282,3990.769231,4055.384615
7,4366.153846,4533.333333,4535.897435,4285.641025,4498.461538,4212.820512,4455.897435,4223.076923,4241.025641,4513.846153,4220.512820,4613.846153,3981.538462,4050.769230
8,4367.179487,4533.846153,4538.461538,4283.589743,4504.102564,4220.000000,4464.615384,4226.666666,4247.179487,4514.358974,4225.641025,4617.948717,3986.666667,4052.820512
9,4368.205128,4532.307692,4537.435897,4286.153846,4505.128205,4218.461538,4463.076923,4229.743589,4252.820512,4524.615384,4224.102564,4625.128205,3995.384616,4056.410256
10,4367.692307,4529.743589,4534.871794,4285.641025,4499.487179,4215.384615,4460.000000,4230.256410,4250.769230,4527.179487,4219.487179,4623.589743,3991.794872,4055.384615
11,4365.128205,4531.282051,4536.410256,4283.589743,4497.948717,4214.871794,4458.974358,4228.717948,4245.128205,4515.384615,4221.025641,4616.410256,3983.076924,4051.282051
12,4366.153846,4540.000000,4535.384615,4286.153846,4500.512820,4214.358974,4457.435897,4228.717948,4244.102564,4509.743589,4226.153846,4615.897435,3987.692308,4051.282051
13,4367.692307,4540.512820,4528.205128,4289.230769,4503.076923,4216.923076,4456.410256,4228.717948,4246.153846,4520.512820,4227.179487,4617.948717,3996.410257,4052.820512
14,4359.487179,4527.179487,4520.000000,4280.512820,4498.974358,4215.384615,4449.230769,4218.974358,4241.538461,4523.589743,4221.538461,4606.666666,3990.256411,4048.717948
15,4350.769230,4520.000000,4520.512820,4270.256410,4492.820512,4206.153846,4442.564102,4208.717948,4235.384615,4514.358974,4217.948717,4598.461538,3983.589744,4042.564102
16,4354.358974,4524.102564,4522.051282,4273.333333,4493.846153,4204.615384,4446.153846,4209.230769,4237.435897,4510.256410,4223.076923,4608.205128,3988.205129,4040.512820
17,4360.000000,4524.102564,4521.538461,4279.487179,4501.025641,4213.846153,4454.358974,4212.307692,4241.025641,4513.333333,4226.153846,4617.435897,3992.820513,4046.153846
18,4363.589743,4523.589743,4528.205128,4282.051282,4505.128205,4215.897435,4457.435897,4215.897435,4245.641025,4523.076923,4225.641025,4618.461538,3992.307693,4053.333333
19,4370.256410,4528.717948,4538.461538,4281.538461,4503.589743,4214.358974,4457.435897,4224.615384,4252.820512,4528.205128,4232.820512,4624.102564,3995.897436,4057.435897
20,4375.384615,4531.282051,4540.000000,4279.487179,4499.487179,4214.871794,4460.000000,4227.692307,4253.333333,4519.487179,4236.923076,4632.820512,3998.974359,4060.000000
21,4377.948717,4527.179487,4537.435897,4279.487179,4495.897435,4214.871794,4461.025641,4225.641025,4251.794871,4515.384615,4236.923076,4634.871794,3999.487180,4067.179487
22,4378.974358,4528.205128,4542.051282,4285.128205,4501.025641,4220.000000,4461.025641,4228.205128,4256.923076,4522.564102,4241.538461,4634.358974,3997.948718,4068.205128
23,4375.384615,4529.230769,4540.000000,4287.179487,4506.153846,4222.564102,4460.512820,4228.717948,4250.769230,4520.512820,4236.410256,4628.205128,3992.820513,4060.512820
24,4370.769230,4529.743589,4527.179487,4281.538461,4501.025641,4215.897435,4457.435897,4218.461538,4237.948717,4513.846153,4223.076923,4617.948717,3992.307693,4054.358974
25,4368.717948,4531.794871,4525.641025,4280.512820,4496.923076,4209.743589,4449.743589,4211.282051,4236.410256,4516.923076,4223.589743,4614.358974,3994.871795,4052.307692
26,4368.205128,4531.282051,4533.333333,4282.564102,4499.487179,4210.769230,4444.102564,4216.410256,4240.512820,4517.948717,4231.794871,4618.461538,3994.871795,4054.871794
27,4370.769230,4531.794871,4538.974358,4286.666666,4502.564102,4213.333333,4450.256410,4222.051282,4243.076923,4515.897435,4233.846153,4622.564102,4000.000000,4058.974358
28,4373.846153,4534.358974,4533.846153,4288.717948,4501.025641,4210.769230,4456.923076,4222.564102,4248.205128,4521.025641,4229.743589,4620.512820,4004.102564,4056.923076
29,4372.820512,4533.846153,4525.128205,4282.051282,4498.974358,4208.717948,4453.846153,4222.051282,4251.794871,4526.666666,4224.102564,4616.410256,4000.512820,4051.794871
30,4372.820512,4531.794871,4526.153846,4277.435897,4500.000000,4215.897435,4454.358974,4226.153846,4253.846153,4530.256410,4232.820512,4619.487179,3999.487180,4055.897435
31,4372.307692,4529.743589,4530.769230,4281.538461,4501.538461,4222.564102,4462.051282,4233.333333,4256.410256,4530.256410,4245.641025,4623.589743,4000.512820,4059.487179
32,4365.641025,4525.128205,4525.641025,4278.974358,4500.000000,4216.923076,4459.487179,4230.769230,4252.307692,4518.461538,4232.820512,4614.871794,3997.435898,4051.794871
33,4365.128205,4530.769230,4519.487179,4275.384615,4502.564102,4214.871794,4450.769230,4220.512820,4247.692307,4510.256410,4217.948717,4610.256410,3994.871795,4046.666666
34,4372.820512,4541.538461,4527.179487,4285.641025,4505.128205,4218.461538,4452.820512,4222.564102,4248.717948,4516.410256,4224.102564,4614.871794,3997.948718,4050.256410
35,4375.897435,4542.564102,4536.410256,4294.358974,4504.615384,4218.461538,4458.461538,4229.743589,4248.205128,4523.076923,4232.820512,4616.923076,4001.025641,4056.410256
36,4378.461538,4541.025641,4538.461538,4291.282051,4505.641025,4218.461538,4459.487179,4226.666666,4250.256410,4522.564102,4236.923076,4616.923076,4002.051282,4060.512820
37,4378.461538,4540.000000,4536.410256,4286.153846,4504.102564,4217.435897,4457.948717,4223.589743,4254.871794,4521.025641,4236.923076,4619.487179,3997.948718,4061.538461
38,4375.897435,4534.358974,4536.923076,4285.128205,4502.051282,4217.948717,4459.487179,4228.717948,4256.923076,4526.666666,4238.974358,4623.076923,3996.410257,4061.538461
39,4376.923076,4531.794871,4539.487179,4285.128205,4498.974358,4218.461538,4460.512820,4231.794871,4255.897435,4529.743589,4237.435897,4623.076923,3999.487180,4059.487179
40,4375.897435,4530.256410,4535.384615,4283.589743,4491.794871,4215.384615,4457.948717,4228.205128,4253.333333,4518.974358,4229.743589,4617.435897,3997.948718,4055.384615
41,4375.897435,4528.205128,4534.871794,4281.538461,4490.256410,4214.871794,4456.410256,4223.076923,4251.794871,4508.717948,4230.256410,4618.461538,3993.333334,4057.948717
42,4380.000000,4530.769230,4539.487179,4282.051282,4500.512820,4218.461538,4459.487179,4225.128205,4253.846153,4513.846153,4238.974358,4629.230769,3996.410257,4066.153846
43,4382.051282,4533.333333,4541.025641,4281.025641,4503.589743,4217.435897,4457.948717,4229.743589,4255.897435,4518.461538,4238.974358,4628.205128,4004.102564,4066.153846
44,4378.461538,4534.871794,4536.923076,4284.615384,4497.948717,4215.384615,4454.871794,4227.179487,4252.307692,4515.384615,4232.820512,4618.461538,4003.076923,4062.051282
45,4380.000000,4540.000000,4537.435897,4291.282051,4501.538461,4217.948717,4456.923076,4224.615384,4245.128205,4513.846153,4237.435897,4621.025641,4002.564102,4065.128205
46,4381.538461,4543.076923,4535.384615,4288.717948,4501.538461,4213.846153,4453.846153,4224.102564,4239.487179,4509.743589,4241.538461,4623.076923,4006.666666,4064.102564
47,4378.461538,4539.487179,4526.666666,4284.102564,4494.871794,4209.230769,4445.128205,4217.435897,4241.025641,4509.230769,4235.384615,4617.435897,4003.589743,4059.487179
48,4376.410256,4533.846153,4524.615384,4284.102564,4496.410256,4213.333333,4443.589743,4210.256410,4242.051282,4514.358974,4228.717948,4614.358974,3995.384616,4060.000000
49,4370.769230,4530.769230,4525.128205,4282.564102,4499.487179,4216.923076,4445.641025,4208.717948,4237.435897,4504.102564,4226.666666,4611.282051,3992.307693,4057.435897
50,4370.769230,4530.256410,4524.102564,4281.538461,4497.948717,4216.410256,4450.256410,4216.410256,4242.051282,4498.974358,4231.282051,4610.256410,3995.384616,4054.871794
51,4380.512820,4537.948717,4528.205128,4286.666666,4500.000000,4218.461538,4459.487179,4232.820512,4256.410256,4517.948717,4239.487179,4617.948717,4002.564102,4062.051282
52,4383.076923,4542.564102,4529.743589,4285.641025,4503.589743,4225.128205,4463.076923,4238.974358,4263.076923,4527.179487,4244.102564,4623.076923,4004.615384,4068.717948
53,4372.307692,4533.333333,4524.615384,4277.948717,4499.487179,4223.076923,4458.974358,4231.282051,4257.435897,4512.820512,4240.000000,4615.384615,3998.461539,4062.051282
54,4370.256410,4526.666666,4522.564102,4278.461538,4495.897435,4219.487179,4460.512820,4230.769230,4250.256410,4508.717948,4233.846153,4605.641025,3995.897436,4055.384615
55,4372.820512,4529.743589,4524.102564,4282.564102,4497.948717,4223.589743,4463.076923,4233.846153,4251.282051,4514.871794,4231.794871,4604.615384,3998.461539,4055.384615
56,4365.641025,4527.692307,4521.025641,4282.051282,4501.025641,4226.153846,4461.538461,4230.769230,4255.384615,4513.333333,4230.256410,4606.666666,3996.923077,4053.333333
57,4359.487179,4524.615384,4518.974358,4279.487179,4496.410256,4218.974358,4460.512820,4228.205128,4252.307692,4507.692307,4230.256410,4603.076923,3990.256411,4047.179487
58,4361.538461,4526.666666,4521.538461,4275.897435,4488.717948,4214.871794,4459.487179,4227.179487,4243.589743,4502.051282,4229.230769,4598.461538,3986.153847,4043.076923
59,4360.000000,4526.153846,4517.948717,4270.769230,4490.256410,4217.948717,4459.487179,4222.564102,4242.051282,4500.512820,4224.102564,4600.000000,3990.769231,4047.692307
60,4355.897435,4521.025641,4513.846153,4270.769230,4491.794871,4216.410256,4460.000000,4215.897435,4242.051282,4501.025641,4224.102564,4604.615384,3990.769231,4052.307692
61,4356.410256,4512.820512,4517.435897,4269.230769,4487.179487,4214.358974,4458.974358,4214.871794,4237.948717,4498.461538,4231.282051,4608.205128,3986.153847,4050.256410
62,4360.000000,4512.820512,4523.589743,4268.205128,4484.102564,4217.435897,4459.487179,4217.435897,4237.948717,4493.333333,4231.794871,4612.307692,3987.692308,4050.256410
63,4365.128205,4524.102564,4524.615384,4270.769230,4486.666666,4215.897435,4455.897435,4215.897435,4241.538461,4494.358974,4229.743589,4612.820512,3991.794872,4054.871794
64,4367.179487,4529.230769,4517.435897,4272.820512,4491.282051,4206.153846,4446.666666,4209.230769,4240.000000,4498.974358,4232.307692,4607.692307,3992.307693,4055.384615
65,4363.076923,4527.179487,4509.743589,4273.846153,4490.769230,4204.102564,4441.025641,4208.717948,4239.487179,4500.512820,4232.820512,4601.538461,3993.333334,4052.820512
66,4360.512820,4527.692307,4511.282051,4274.871794,4485.641025,4207.692307,4441.025641,4211.794871,4237.948717,4499.487179,4229.230769,4600.000000,3989.743590,4049.230769
67,4361.538461,4526.666666,4514.358974,4276.410256,4482.564102,4205.641025,4442.051282,4210.256410,4234.358974,4495.384615,4231.794871,4599.487179,3983.076924,4043.589743
68,4360.512820,4526.153846,4511.282051,4275.897435,4485.641025,4207.179487,4444.615384,4210.769230,4236.923076,4496.923076,4233.333333,4597.435897,3986.666667,4044.615384
69,4360.000000,4528.717948,4508.205128,4272.820512,4491.282051,4216.410256,4445.128205,4215.384615,4241.025641,4507.692307,4225.641025,4601.538461,3992.307693,4052.820512
70,4361.538461,4530.256410,4508.205128,4274.358974,4497.435897,4219.487179,4448.717948,4218.974358,4242.051282,4511.282051,4224.102564,4606.153846,3993.333334,4055.897435
71,4363.076923,4531.282051,4512.820512,4276.923076,4502.564102,4217.435897,4456.410256,4224.102564,4243.589743,4504.102564,4230.256410,4607.692307,3997.435898,4054.871794
72,4367.692307,4531.794871,4518.974358,4275.384615,4503.076923,4217.948717,4456.923076,4224.615384,4245.128205,4500.512820,4228.717948,4611.282051,4000.000000,4058.461538
73,4367.692307,4527.179487,4515.384615,4272.307692,4502.564102,4217.435897,4448.717948,4216.923076,4241.025641,4495.897435,4223.076923,4611.282051,3990.769231,4058.461538
74,4363.076923,4526.666666,4507.692307,4274.358974,4504.102564,4214.358974,4444.615384,4215.897435,4240.000000,4487.692307,4222.051282,4604.615384,3982.051283,4051.794871
75,4358.461538,4526.153846,4508.205128,4268.717948,4506.666666,4208.205128,4445.128205,4219.487179,4237.435897,4485.641025,4212.307692,4594.871794,3977.948718,4042.051282
76,4348.717948,4514.358974,4505.641025,4257.948717,4501.538461,4200.512820,4443.589743,4213.846153,4228.205128,4481.538461,4194.871794,4585.641025,3970.769231,4030.769230
77,4342.564102,4507.692307,4502.564102,4260.000000,4494.358974,4198.974358,4443.076923,4206.153846,4227.179487,4477.435897,4194.358974,4582.051282,3965.641026,4026.153846
78,4349.743589,4513.846153,4505.128205,4267.179487,4494.871794,4205.641025,4443.589743,4210.769230,4232.307692,4481.025641,4203.589743,4590.769230,3969.743590,4032.820512
79,4357.948717,4522.564102,4508.717948,4268.717948,4504.615384,4207.692307,4446.666666,4215.384615,4233.333333,4485.641025,4205.128205,4600.000000,3973.333334,4040.000000
80,4360.512820,4525.128205,4514.871794,4268.717948,4510.769230,4209.743589,4448.205128,4212.820512,4233.333333,4489.743589,4207.179487,4601.538461,3977.435898,4042.564102
81,4357.435897,4522.564102,4515.897435,4269.230769,4508.717948,4211.282051,4445.641025,4211.794871,4235.897435,4488.717948,4209.230769,4602.564102,3981.538462,4043.589743
82,4350.256410,4517.435897,4507.692307,4268.717948,4506.153846,4206.153846,4443.076923,4210.769230,4235.384615,4481.538461,4202.564102,4602.564102,3974.871795,4038.974358
83,4345.641025,4514.358974,4507.692307,4267.179487,4506.153846,4205.641025,4444.615384,4207.179487,4232.307692,4480.512820,4195.897435,4601.538461,3967.179488,4035.384615
84,4350.769230,4517.948717,4518.974358,4268.205128,4503.589743,4209.230769,4445.128205,4211.794871,4235.384615,4486.666666,4198.974358,4603.589743,3972.307693,4036.923076
85,4357.948717,4521.025641,4525.128205,4273.846153,4502.564102,4211.794871,4450.769230,4220.512820,4238.461538,4490.256410,4207.179487,4611.794871,3981.025642,4040.512820
86,4355.897435,4518.461538,4523.589743,4274.358974,4505.128205,4211.794871,4453.846153,4216.923076,4234.871794,4487.692307,4205.128205,4612.307692,3978.974359,4040.000000
87,4347.692307,4512.820512,4517.435897,4270.769230,4502.051282,4207.692307,4447.692307,4208.205128,4233.333333,4483.589743,4195.384615,4605.128205,3972.820513,4033.333333
88,4344.615384,4511.282051,4509.230769,4270.256410,4498.974358,4205.641025,4450.769230,4210.769230,4234.871794,4484.615384,4192.820512,4602.564102,3972.820513,4025.128205
89,4344.615384,4514.358974,4505.641025,4269.743589,4503.589743,4210.769230,4456.923076,4213.333333,4232.820512,4487.692307,4195.897435,4602.051282,3971.794872,4024.102564
90,4337.948717,4511.282051,4504.615384,4261.538461,4501.538461,4208.717948,4448.717948,4207.692307,4229.743589,4483.589743,4192.307692,4596.923076,3965.128206,4026.153846
91,4334.358974,4502.051282,4501.538461,4255.897435,4490.769230,4196.923076,4439.487179,4200.512820,4226.153846,4475.897435,4188.717948,4593.333333,3963.076924,4020.512820
92,4341.025641,4503.589743,4500.000000,4260.000000,4487.692307,4196.923076,4443.589743,4203.589743,4225.641025,4475.897435,4195.384615,4596.410256,3969.743590,4021.538461
93,4350.256410,4515.897435,4511.282051,4270.256410,4499.487179,4209.230769,4452.820512,4219.487179,4239.487179,4488.205128,4205.128205,4605.128205,3976.410257,4033.333333
94,4353.846153,4521.538461,4521.538461,4276.923076,4506.666666,4214.358974,4460.512820,4229.230769,4250.256410,4502.051282,4208.717948,4609.230769,3980.512821,4037.948717
95,4351.794871,4518.461538,4514.358974,4271.282051,4501.538461,4209.743589,4462.051282,4223.589743,4245.641025,4502.564102,4207.179487,4604.615384,3986.666667,4034.871794
96,4350.256410,4518.461538,4511.282051,4265.128205,4498.461538,4207.692307,4457.435897,4220.512820,4244.102564,4499.487179,4207.179487,4603.589743,3992.820513,4036.923076
97,4351.282051,4522.564102,4519.487179,4269.230769,4502.564102,4213.333333,4458.461538,4222.564102,4250.769230,4505.641025,4211.282051,4609.743589,3993.846154,4038.974358
98,4355.384615,4524.615384,4516.410256,4275.384615,4507.179487,4218.461538,4461.538461,4224.102564,4252.820512,4511.282051,4216.410256,4607.692307,3990.769231,4038.974358
99,4352.307692,4521.538461,4506.666666,4273.333333,4505.641025,4215.384615,4461.025641,4223.076923,4245.128205,4506.153846,4213.846153,4599.487179,3985.128206,4037.435897
100,4345.128205,4514.871794,4505.128205,4270.769230,4500.000000,4209.743589,4459.487179,4218.974358,4234.358974,4494.358974,4204.102564,4596.923076,3979.487180,4030.256410
101,4346.666666,4516.923076,4509.743589,4275.384615,4500.000000,4212.820512,4460.512820,4220.000000,4237.948717,4489.743589,4205.641025,4601.538461,3982.051283,4028.717948
102,4350.769230,4521.025641,4513.846153,4274.871794,4501.025641,4215.384615,4462.051282,4227.692307,4246.666666,4495.897435,4216.923076,4606.666666,3986.666667,4035.897435
103,4346.153846,4514.358974,4512.820512,4269.743589,4496.923076,4209.230769,4457.948717,4226.153846,4242.051282,4502.051282,4213.846153,4608.205128,3990.256411,4036.410256
104,4344.102564,4511.794871,4511.794871,4269.743589,4493.333333,4207.179487,4454.358974,4218.461538,4237.435897,4499.487179,4206.153846,4608.205128,3993.333334,4035.384615
105,4352.307692,4522.051282,4520.000000,4275.897435,4498.461538,4215.384615,4457.435897,4220.512820,4241.025641,4500.000000,4216.410256,4611.794871,3994.358975,4042.051282
106,4357.948717,4525.128205,4525.641025,4278.461538,4502.051282,4215.897435,4460.512820,4223.589743,4242.051282,4502.564102,4222.051282,4616.410256,3991.794872,4045.128205
107,4357.948717,4521.025641,4521.538461,4281.025641,4500.512820,4212.307692,4458.461538,4221.025641,4239.487179,4501.025641,4212.820512,4616.410256,3990.256411,4042.564102
108,4358.461538,4523.589743,4520.000000,4283.076923,4500.512820,4214.358974,4456.410256,4218.461538,4241.025641,4500.000000,4211.794871,4615.384615,3991.282052,4044.615384
109,4360.000000,4528.205128,4520.512820,4280.000000,4502.051282,4216.410256,4458.974358,4219.487179,4242.564102,4502.564102,4217.948717,4615.897435,3990.256411,4046.666666
110,4360.000000,4527.179487,4520.000000,4282.051282,4501.025641,4217.948717,4461.538461,4221.538461,4242.051282,4506.153846,4221.025641,4616.923076,3990.769231,4044.102564
111,4359.487179,4522.564102,4518.974358,4284.615384,4498.461538,4214.871794,4459.487179,4221.538461,4241.538461,4504.102564,4222.051282,4616.410256,3994.358975,4045.641025
112,4362.564102,4522.051282,4518.974358,4282.564102,4497.435897,4213.333333,4456.410256,4220.512820,4241.025641,4503.076923,4218.974358,4615.897435,3997.435898,4049.743589
113,4366.153846,4526.153846,4522.564102,4283.076923,4502.564102,4217.435897,4458.974358,4223.589743,4246.666666,4508.717948,4215.897435,4617.435897,4002.051282,4051.794871
114,4363.589743,4526.666666,4522.051282,4284.102564,4501.025641,4215.897435,4460.000000,4223.589743,4247.692307,4506.666666,4218.974358,4616.410256,3998.974359,4046.666666
115,4362.051282,4523.589743,4517.948717,4285.128205,4492.307692,4210.769230,4452.820512,4221.538461,4241.538461,4501.538461,4217.948717,4613.846153,3990.769231,4041.538461
116,4364.102564,4524.102564,4521.538461,4286.666666,4492.820512,4212.307692,4452.820512,4219.487179,4240.512820,4504.615384,4213.333333,4610.256410,3991.794872,4044.102564
117,4357.948717,4521.538461,4522.051282,4286.153846,4498.461538,4215.384615,4457.948717,4215.384615,4240.512820,4504.102564,4210.769230,4604.102564,3992.307693,4045.128205
118,4350.769230,4514.871794,4511.794871,4281.025641,4495.384615,4214.358974,4454.871794,4212.307692,4233.333333,4494.358974,4204.615384,4598.461538,3981.025642,4036.410256
119,4353.846153,4517.435897,4505.641025,4277.435897,4492.307692,4215.897435,4454.358974,4213.333333,4230.769230,4494.871794,4203.076923,4602.051282,3978.461539,4032.820512
120,4357.948717,4521.538461,4508.717948,4276.410256,4498.974358,4214.871794,4455.384615,4217.435897,4238.461538,4502.051282,4215.384615,4607.692307,3991.794872,4041.538461
121,4356.923076,4518.461538,4508.717948,4274.871794,4495.897435,4210.769230,4451.794871,4218.461538,4240.000000,4501.538461,4221.538461,4604.615384,3995.897436,4042.564102
122,4359.487179,4515.897435,4507.179487,4275.384615,4487.692307,4211.282051,4453.846153,4213.333333,4235.897435,4499.487179,4215.384615,4605.641025,3989.743590,4040.000000
123,4363.589743,4520.000000,4510.256410,4273.846153,4491.794871,4210.256410,4456.410256,4210.769230,4236.923076,4496.923076,4211.794871,4611.794871,3991.794872,4045.641025
124,4357.948717,4518.974358,4509.743589,4267.179487,4493.333333,4203.589743,4446.666666,4209.230769,4232.307692,4494.358974,4210.256410,4607.692307,3991.794872,4043.589743
125,4347.692307,4509.230769,4504.615384,4265.128205,4481.538461,4198.974358,4439.487179,4204.615384,4224.102564,4494.358974,4208.205128,4601.538461,3985.128206,4036.410256
126,4351.794871,4508.717948,4505.128205,4270.256410,4476.410256,4200.000000,4443.076923,4205.128205,4225.128205,4499.487179,4211.282051,4601.538461,3982.564103,4037.435897
127,4358.974358,4513.333333,4506.666666,4273.333333,4478.974358,4200.000000,4443.076923,4210.769230,4229.230769,4500.000000,4209.230769,4602.564102,3979.487180,4037.435897
128,4362.051282,4514.358974,4507.179487,4277.435897,4477.948717,4201.025641,4443.589743,4214.871794,4231.794871,4497.435897,4205.641025,4606.153846,3983.076924,4040.512820
129,4369.230769,4522.051282,4516.923076,4286.153846,4483.589743,4208.205128,4452.820512,4223.589743,4239.487179,4506.666666,4218.461538,4620.512820,4002.564102,4053.846153
130,4380.000000,4532.820512,4524.615384,4289.743589,4495.897435,4216.923076,4460.512820,4232.307692,4249.743589,4520.000000,4235.384615,4628.717948,4017.948717,4061.538461
131,4378.974358,4530.769230,4514.871794,4284.102564,4496.923076,4221.025641,4462.564102,4228.717948,4251.282051,4516.923076,4235.897435,4622.564102,4011.794871,4057.435897
132,4370.256410,4521.025641,4506.153846,4276.923076,4488.205128,4213.333333,4459.487179,4219.487179,4243.589743,4504.102564,4225.128205,4615.897435,4001.025641,4054.871794
133,4368.205128,4515.897435,4511.282051,4277.435897,4483.589743,4202.564102,4453.333333,4215.384615,4236.410256,4501.538461,4220.512820,4613.333333,3993.333334,4052.307692
134,4373.846153,4518.974358,4516.923076,4280.512820,4484.102564,4203.589743,4451.282051,4217.435897,4236.923076,4504.102564,4218.461538,4612.820512,3989.743590,4049.230769
135,4378.974358,4527.179487,4517.948717,4281.025641,4488.717948,4212.820512,4456.923076,4220.512820,4240.512820,4504.615384,4214.871794,4615.384615,3993.846154,4052.820512
136,4379.487179,4529.743589,4520.000000,4282.564102,4493.333333,4216.410256,4463.076923,4222.051282,4243.076923,4506.666666,4216.410256,4617.948717,4001.538461,4056.410256
137,4375.384615,4521.025641,4520.000000,4286.666666,4492.307692,4216.923076,4463.076923,4224.102564,4243.589743,4506.153846,4223.589743,4617.948717,4001.538461,4055.384615
138,4372.307692,4518.461538,4519.487179,4287.692307,4491.282051,4216.410256,4457.948717,4223.076923,4240.512820,4501.025641,4224.615384,4616.410256,3995.897436,4052.307692
139,4373.846153,4527.179487,4520.000000,4286.666666,4490.769230,4211.282051,4452.307692,4215.897435,4237.435897,4496.923076,4217.948717,4617.435897,3995.897436,4050.769230
140,4376.923076,4530.769230,4520.512820,4287.179487,4491.282051,4211.794871,4454.358974,4213.846153,4237.948717,4498.461538,4217.948717,4616.410256,3998.974359,4053.333333
141,4377.948717,4530.256410,4521.538461,4287.692307,4495.384615,4219.487179,4459.487179,4219.487179,4241.025641,4501.025641,4221.538461,4616.410256,3995.384616,4057.948717
142,4376.923076,4531.794871,4522.564102,4289.743589,4495.897435,4219.487179,4460.000000,4223.076923,4247.179487,4504.615384,4224.102564,4620.512820,3994.871795,4058.461538
143,4377.435897,4528.205128,4522.051282,4286.666666,4493.846153,4216.923076,4460.000000,4229.230769,4253.333333,4509.743589,4227.179487,4624.102564,4003.076923,4058.974358
144,4378.461538,4524.615384,4521.538461,4279.487179,4491.794871,4217.948717,4463.076923,4234.358974,4255.897435,4513.846153,4226.666666,4625.128205,4005.128205,4060.000000
145,4379.487179,4530.256410,4524.102564,4280.000000,4490.769230,4216.923076,4465.128205,4233.333333,4258.461538,4519.487179,4228.205128,4630.256410,3998.461539,4060.000000
146,4381.538461,4532.307692,4525.641025,4289.230769,4491.794871,4216.923076,4464.102564,4228.717948,4259.487179,4518.974358,4231.794871,4635.384615,3998.461539,4062.564102
147,4379.487179,4525.641025,4522.564102,4292.307692,4493.333333,4215.897435,4458.974358,4220.512820,4248.205128,4507.179487,4226.153846,4626.153846,3997.948718,4061.025641
148,4371.794871,4520.000000,4518.974358,4286.153846,4485.128205,4209.743589,4453.846153,4212.307692,4235.897435,4497.435897,4214.358974,4613.846153,3990.256411,4051.794871
149,4370.256410,4520.512820,4517.948717,4283.589743,4481.025641,4207.179487,4454.871794,4210.769230,4236.410256,4499.487179,4212.820512,4617.435897,3987.179488,4050.256410
150,4379.487179,4525.128205,4521.538461,4287.179487,4485.128205,4211.794871,4457.948717,4214.358974,4241.538461,4502.564102,4220.512820,4627.692307,3993.846154,4058.974358
151,4386.153846,4527.692307,4524.615384,4290.769230,4484.102564,4215.897435,4458.974358,4218.461538,4247.692307,4505.128205,4232.307692,4628.205128,4002.051282,4062.564102
152,4388.717948,4528.205128,4525.641025,4293.333333,4484.615384,4216.923076,4461.025641,4225.128205,4254.358974,4511.282051,4239.487179,4628.205128,4006.666666,4064.615384
153,4388.205128,4529.230769,4524.102564,4289.743589,4486.666666,4213.333333,4460.512820,4229.230769,4253.333333,4512.820512,4233.846153,4630.256410,4003.589743,4066.666666
154,4384.615384,4528.717948,4523.076923,4286.666666,4483.589743,4211.282051,4458.974358,4231.794871,4251.794871,4511.794871,4229.230769,4626.153846,3999.487180,4063.076923
155,4386.666666,4531.794871,4524.615384,4290.256410,4485.128205,4215.384615,4460.512820,4237.435897,4258.974358,4514.871794,4236.410256,4624.615384,4003.589743,4063.076923
156,4391.794871,4534.871794,4526.153846,4294.358974,4490.256410,4219.487179,4462.051282,4236.410256,4261.025641,4519.487179,4241.025641,4630.769230,4006.153846,4070.256410
157,4389.743589,4531.282051,4525.641025,4295.384615,4491.794871,4220.512820,4460.512820,4230.256410,4253.846153,4515.897435,4235.384615,4633.846153,3999.487180,4070.769230
158,4379.487179,4524.615384,4523.589743,4292.307692,4487.179487,4220.000000,4459.487179,4225.641025,4245.641025,4503.589743,4225.128205,4624.102564,3993.333334,4061.538461
159,4374.871794,4526.153846,4522.564102,4289.230769,4482.564102,4217.948717,4460.000000,4222.051282,4240.512820,4493.846153,4222.051282,4616.923076,3991.794872,4056.923076
160,4383.076923,4531.794871,4524.102564,4292.820512,4482.564102,4216.923076,4458.974358,4221.538461,4246.153846,4497.948717,4227.692307,4623.076923,3992.820513,4061.025641
161,4391.794871,4532.307692,4526.666666,4298.461538,4489.743589,4220.000000,4461.025641,4231.282051,4258.974358,4509.743589,4231.282051,4633.333333,3998.461539,4068.205128
162,4386.666666,4529.230769,4525.641025,4293.333333,4491.282051,4218.974358,4463.076923,4236.410256,4256.923076,4509.230769,4224.615384,4632.307692,4002.564102,4068.205128
163,4377.435897,4525.641025,4524.615384,4283.589743,4483.076923,4212.307692,4454.358974,4224.102564,4244.615384,4498.974358,4223.589743,4624.615384,3996.410257,4060.512820
164,4383.076923,4530.256410,4525.641025,4288.205128,4478.461538,4210.769230,4445.641025,4221.025641,4248.205128,4505.128205,4233.846153,4626.666666,3993.333334,4062.564102
165,4390.256410,4534.871794,4525.128205,4294.871794,4483.589743,4214.358974,4451.794871,4232.307692,4259.487179,4519.487179,4235.384615,4632.307692,4001.538461,4070.769230
166,4387.692307,4530.256410,4524.102564,4292.307692,4487.179487,4217.948717,4460.512820,4232.820512,4258.461538,4515.384615,4229.743589,4629.230769,4004.102564,4067.179487
167,4381.025641,4524.615384,4523.076923,4288.205128,4486.666666,4217.435897,4459.487179,4225.641025,4251.282051,4501.025641,4227.692307,4622.564102,3997.948718,4058.461538
168,4376.923076,4525.641025,4520.000000,4289.743589,4486.666666,4215.384615,4457.435897,4225.641025,4249.230769,4498.461538,4227.692307,4621.538461,3993.333334,4058.974358
169,4379.487179,4529.230769,4517.948717,4291.282051,4484.102564,4214.358974,4458.461538,4231.282051,4252.820512,4507.692307,4231.282051,4624.102564,3997.435898,4063.589743
170,4387.179487,4531.794871,4521.025641,4288.717948,4483.076923,4214.871794,4456.923076,4231.794871,4258.974358,4517.435897,4238.461538,4627.692307,4004.102564,4067.692307
171,4388.717948,4533.333333,4523.076923,4288.205128,4485.641025,4215.897435,4457.435897,4232.307692,4265.641025,4517.435897,4242.051282,4632.307692,4007.179487,4068.717948
172,4384.102564,4531.282051,4520.512820,4290.256410,4486.666666,4215.384615,4458.974358,4233.333333,4266.666666,4512.820512,4242.051282,4632.820512,4006.666666,4069.230769
173,4383.589743,4527.179487,4521.025641,4290.256410,4483.589743,4214.358974,4456.923076,4231.282051,4261.025641,4513.333333,4241.538461,4631.282051,4007.692307,4069.230769
174,4385.128205,4527.179487,4524.102564,4289.230769,4481.538461,4215.897435,4456.410256,4230.256410,4257.948717,4511.794871,4240.000000,4631.794871,4009.743589,4069.230769
175,4389.230769,4530.769230,4524.102564,4287.179487,4484.615384,4218.461538,4459.487179,4236.410256,4263.076923,4512.307692,4242.564102,4631.794871,4008.205128,4068.717948
176,4390.256410,4532.820512,4522.051282,4289.230769,4488.205128,4216.923076,4459.487179,4236.923076,4264.615384,4517.435897,4242.564102,4630.769230,4002.564102,4067.692307
177,4384.102564,4531.282051,4523.076923,4293.846153,4484.102564,4215.384615,4457.435897,4229.743589,4254.871794,4508.205128,4235.897435,4630.256410,3997.948718,4065.128205
178,4384.615384,4531.282051,4525.128205,4294.871794,4482.051282,4215.897435,4455.897435,4228.717948,4251.282051,4496.410256,4235.384615,4632.820512,4002.051282,4067.179487
179,4388.717948,4529.743589,4523.589743,4288.205128,4488.717948,4207.692307,4450.769230,4225.128205,4254.358974,4505.128205,4240.512820,4632.307692,4005.128205,4071.282051
180,4385.128205,4524.102564,4523.076923,4282.051282,4490.256410,4202.564102,4450.769230,4221.025641,4252.820512,4514.871794,4237.435897,4630.256410,3997.948718,4068.717948
181,4383.589743,4525.641025,4524.615384,4282.051282,4488.717948,4210.769230,4456.410256,4225.641025,4247.692307,4502.564102,4227.692307,4630.769230,3991.794872,4065.128205
182,4384.102564,4528.205128,4520.000000,4284.615384,4494.358974,4217.435897,4460.512820,4224.102564,4243.589743,4487.692307,4221.538461,4626.153846,3989.230770,4061.538461
183,4378.461538,4521.538461,4511.794871,4282.564102,4498.461538,4214.871794,4456.923076,4213.846153,4238.974358,4482.564102,4214.871794,4616.923076,3983.076924,4055.384615
184,4373.333333,4515.384615,4507.692307,4276.923076,4493.333333,4211.282051,4446.666666,4206.666666,4234.871794,4479.487179,4206.666666,4613.333333,3977.435898,4051.282051
185,4374.358974,4516.410256,4509.230769,4274.358974,4491.794871,4212.307692,4446.666666,4208.717948,4234.358974,4477.435897,4204.102564,4616.923076,3976.410257,4050.769230
186,4372.820512,4515.384615,4510.256410,4275.384615,4496.923076,4212.820512,4451.794871,4212.307692,4234.358974,4476.923076,4204.615384,4617.948717,3973.846154,4048.205128
187,4368.205128,4509.743589,4509.230769,4275.384615,4496.410256,4209.230769,4447.692307,4211.282051,4235.384615,4474.358974,4203.076923,4614.871794,3969.230770,4044.615384
188,4367.692307,4509.230769,4508.205128,4273.846153,4495.384615,4208.205128,4446.666666,4209.230769,4236.923076,4475.384615,4201.538461,4614.871794,3965.641026,4043.589743
189,4370.769230,4515.897435,4508.717948,4271.282051,4500.512820,4211.794871,4455.897435,4214.871794,4238.974358,4481.538461,4206.153846,4618.461538,3965.128206,4043.076923
190,4370.769230,4515.384615,4510.769230,4272.820512,4499.487179,4216.923076,4459.487179,4223.589743,4243.076923,4485.128205,4208.717948,4621.025641,3971.794872,4045.641025
191,4363.076923,4504.615384,4509.743589,4272.307692,4490.256410,4213.333333,4452.820512,4221.025641,4242.564102,4481.025641,4197.435897,4615.897435,3974.358975,4044.102564
192,4360.000000,4503.076923,4506.666666,4268.717948,4485.641025,4205.128205,4446.666666,4216.410256,4236.410256,4479.487179,4186.153846,4611.794871,3967.179488,4038.461538
193,4363.589743,4513.846153,4506.666666,4269.230769,4487.179487,4204.102564,4448.717948,4219.487179,4234.871794,4481.025641,4193.333333,4613.333333,3964.615385,4039.487179
194,4366.153846,4516.923076,4508.205128,4271.794871,4492.307692,4212.307692,4457.435897,4224.102564,4239.487179,4485.641025,4204.102564,4617.948717,3975.384616,4045.641025
195,4365.128205,4514.358974,4509.230769,4271.794871,4494.358974,4217.948717,4460.512820,4223.076923,4239.487179,4492.307692,4200.000000,4618.461538,3983.589744,4045.641025
196,4362.051282,4512.307692,4507.692307,4272.307692,4491.282051,4213.846153,4453.846153,4221.538461,4234.871794,4488.205128,4195.384615,4615.384615,3976.410257,4042.051282
197,4362.564102,4511.794871,4508.205128,4273.846153,4492.820512,4211.282051,4450.256410,4223.076923,4237.435897,4481.538461,4204.615384,4619.487179,3976.923077,4046.153846
198,4364.615384,4513.333333,4509.230769,4274.358974,4493.846153,4212.307692,4448.205128,4218.461538,4238.974358,4482.051282,4206.666666,4625.641025,3985.128206,4050.769230
199,4365.128205,4515.384615,4509.743589,4273.846153,4489.230769,4211.282051,4445.641025,4212.820512,4236.923076,4485.641025,4199.487179,4624.615384,3984.615385,4047.692307
200,4363.589743,4514.871794,4509.743589,4270.769230,4486.153846,4207.179487,4447.179487,4214.871794,4235.897435,4485.641025,4201.538461,4620.000000,3977.948718,4043.589743
201,4358.461538,4508.717948,4506.153846,4266.666666,4486.153846,4199.487179,4443.589743,4212.820512,4229.230769,4477.435897,4201.538461,4618.461538,3971.794872,4038.974358
202,4358.461538,4506.153846,4508.205128,4268.205128,4487.179487,4199.487179,4441.025641,4211.282051,4227.179487,4473.846153,4191.282051,4621.538461,3970.256411,4036.923076
203,4367.179487,4513.333333,4519.487179,4275.384615,4492.820512,4210.769230,4452.820512,4222.564102,4238.974358,4488.205128,4197.435897,4626.666666,3979.487180,4044.615384
204,4373.333333,4518.974358,4524.102564,4281.538461,4500.000000,4220.000000,4459.487179,4229.230769,4247.179487,4500.512820,4213.333333,4631.282051,3987.179488,4054.871794
205,4375.897435,4524.102564,4521.025641,4282.051282,4498.461538,4217.948717,4448.205128,4222.564102,4245.128205,4497.435897,4213.333333,4633.333333,3986.666667,4057.948717
206,4381.025641,4530.769230,4524.102564,4285.128205,4498.461538,4214.358974,4446.666666,4224.615384,4247.692307,4497.435897,4212.307692,4637.435897,3993.846154,4060.000000
207,4382.051282,4530.769230,4528.717948,4292.820512,4500.000000,4216.410256,4455.897435,4229.230769,4247.692307,4502.564102,4212.820512,4637.435897,4001.025641,4062.051282
208,4376.410256,4525.128205,4525.128205,4295.384615,4498.974358,4218.974358,4458.974358,4227.692307,4242.564102,4498.974358,4208.205128,4633.333333,3993.333334,4057.948717
209,4376.410256,4526.666666,4522.564102,4289.230769,4498.974358,4217.948717,4456.410256,4225.641025,4243.076923,4490.256410,4205.641025,4631.794871,3985.641026,4053.333333
210,4374.871794,4527.692307,4521.538461,4283.076923,4496.410256,4211.282051,4450.256410,4220.512820,4240.512820,4481.538461,4204.615384,4627.179487,3982.564103,4050.256410
211,4369.743589,4521.538461,4521.025641,4282.051282,4491.282051,4208.717948,4448.205128,4217.948717,4236.923076,4485.128205,4203.589743,4625.128205,3981.538462,4048.717948
212,4373.846153,4524.615384,4523.076923,4287.179487,4490.256410,4215.384615,4456.923076,4221.538461,4244.102564,4499.487179,4206.153846,4634.358974,3986.153847,4053.846153
213,4381.025641,4526.666666,4523.589743,4285.128205,4495.897435,4219.487179,4461.025641,4222.564102,4249.230769,4502.051282,4211.282051,4639.487179,3991.282052,4057.948717
214,4376.410256,4521.025641,4522.051282,4275.384615,4495.897435,4214.871794,4456.410256,4219.487179,4243.076923,4493.333333,4211.282051,4633.333333,3991.794872,4053.846153
215,4370.256410,4520.512820,4521.538461,4276.410256,4489.743589,4212.307692,4456.923076,4220.512820,4239.487179,4493.333333,4207.179487,4631.282051,3995.897436,4050.256410
216,4373.333333,4524.102564,4523.076923,4285.641025,4494.358974,4219.487179,4459.487179,4226.666666,4246.153846,4502.051282,4205.641025,4638.974358,3992.820513,4052.820512
217,4373.846153,4521.538461,4522.564102,4285.128205,4498.461538,4220.000000,4459.487179,4228.717948,4247.692307,4502.051282,4209.230769,4638.974358,3981.025642,4053.333333
218,4371.282051,4520.512820,4522.051282,4284.615384,4490.256410,4214.358974,4457.948717,4225.641025,4241.025641,4493.333333,4210.769230,4633.846153,3981.025642,4050.769230
219,4378.974358,4528.717948,4531.282051,4293.846153,4486.666666,4216.410256,4458.974358,4223.589743,4241.538461,4493.846153,4211.282051,4638.974358,3994.358975,4056.410256
220,4386.153846,4532.307692,4536.410256,4296.410256,4496.410256,4221.025641,4463.589743,4224.615384,4248.717948,4505.128205,4214.358974,4646.153846,3997.948718,4061.025641
221,4385.128205,4531.794871,4530.256410,4290.256410,4502.051282,4222.051282,4466.153846,4231.794871,4253.846153,4513.333333,4216.410256,4642.051282,3995.897436,4058.461538
222,4385.128205,4535.897435,4532.820512,4293.846153,4501.025641,4225.641025,4471.282051,4241.538461,4256.410256,4513.846153,4220.000000,4641.538461,4006.153846,4060.512820
223,4390.256410,4535.897435,4540.512820,4300.000000,4504.102564,4231.282051,4476.923076,4241.025641,4260.000000,4514.871794,4224.102564,4650.256410,4012.307692,4066.153846
224,4392.820512,4534.358974,4538.974358,4297.948717,4506.666666,4230.256410,4475.384615,4233.846153,4258.974358,4513.846153,4223.589743,4650.769230,4005.641025,4066.666666
225,4393.333333,4539.487179,4537.435897,4297.435897,4508.205128,4226.153846,4472.307692,4236.410256,4256.923076,4512.307692,4226.666666,4648.205128,4007.692307,4069.230769
226,4391.794871,4541.538461,4537.435897,4297.435897,4508.717948,4228.205128,4474.871794,4237.948717,4258.461538,4510.769230,4223.589743,4647.692307,4011.794871,4066.153846
227,4387.692307,4532.307692,4532.820512,4294.358974,4502.051282,4226.666666,4471.794871,4231.282051,4257.435897,4510.256410,4213.846153,4642.564102,4001.538461,4056.410256
228,4385.641025,4528.717948,4530.256410,4294.871794,4497.435897,4220.000000,4461.538461,4228.205128,4254.871794,4509.743589,4215.897435,4638.461538,3993.333334,4055.384615
229,4385.128205,4535.897435,4531.794871,4297.435897,4500.512820,4218.461538,4457.948717,4227.692307,4254.358974,4504.615384,4220.512820,4640.000000,3993.846154,4059.487179
230,4386.666666,4536.410256,4535.384615,4297.435897,4505.128205,4221.538461,4460.000000,4229.743589,4255.384615,4504.102564,4215.897435,4641.025641,3993.846154,4063.076923
231,4388.717948,4529.230769,4539.487179,4295.897435,4496.923076,4220.512820,4461.538461,4234.358974,4258.461538,4511.794871,4218.461538,4642.051282,3995.384616,4066.153846
232,4390.256410,4529.743589,4539.487179,4292.820512,4488.717948,4220.000000,4463.076923,4237.948717,4260.512820,4515.897435,4227.179487,4646.153846,3999.487180,4066.153846
233,4388.717948,4531.282051,4533.846153,4288.205128,4494.358974,4223.589743,4464.615384,4237.948717,4257.948717,4514.358974,4221.538461,4649.230769,3997.948718,4060.000000
234,4384.102564,4522.564102,4529.230769,4286.153846,4494.871794,4218.461538,4461.025641,4232.307692,4249.743589,4510.256410,4209.230769,4646.666666,3992.820513,4056.923076
235,4385.641025,4518.461538,4532.307692,4286.153846,4489.743589,4213.846153,4459.487179,4229.230769,4248.717948,4508.205128,4211.282051,4647.692307,3991.282052,4062.564102
236,4394.871794,4525.128205,4541.538461,4288.205128,4492.820512,4218.461538,4461.025641,4233.333333,4253.333333,4510.256410,4224.102564,4652.820512,3993.333334,4068.717948
237,4395.384615,4527.692307,4541.025641,4290.769230,4493.333333,4218.974358,4460.000000,4231.794871,4252.307692,4511.282051,4225.128205,4652.820512,3995.384616,4066.153846
238,4382.051282,4523.589743,4528.205128,4286.153846,4486.666666,4211.282051,4458.461538,4223.589743,4249.230769,4508.205128,4214.358974,4644.102564,3990.769231,4058.974358
239,4373.846153,4521.538461,4520.512820,4279.487179,4485.641025,4208.205128,4460.000000,4223.589743,4247.692307,4505.641025,4209.743589,4635.384615,3982.051283,4052.307692
240,4375.897435,4520.512820,4520.000000,4279.487179,4487.179487,4214.358974,4462.051282,4225.128205,4245.128205,4500.000000,4208.717948,4630.256410,3977.948718,4045.128205
241,4378.461538,4523.589743,4521.025641,4287.179487,4487.179487,4218.974358,4462.564102,4224.102564,4244.615384,4497.435897,4206.153846,4631.794871,3981.538462,4047.692307
242,4378.974358,4526.153846,4520.000000,4287.692307,4488.717948,4215.897435,4460.512820,4224.615384,4246.666666,4502.564102,4207.179487,4637.948717,3985.128206,4053.846153
243,4383.589743,4527.692307,4520.000000,4285.128205,4490.769230,4215.384615,4458.974358,4223.589743,4248.717948,4508.205128,4214.358974,4639.487179,3985.641026,4054.358974
244,4390.256410,4532.820512,4522.051282,4288.205128,4493.333333,4218.974358,4459.487179,4224.615384,4249.230769,4508.717948,4222.564102,4641.025641,3990.256411,4057.948717
245,4389.230769,4531.794871,4522.051282,4285.128205,4491.282051,4217.435897,4459.487179,4227.692307,4249.743589,4509.743589,4222.051282,4643.589743,3995.897436,4063.076923
246,4385.641025,4524.615384,4521.025641,4278.974358,4484.615384,4214.871794,4459.487179,4228.717948,4250.256410,4511.794871,4216.410256,4641.538461,3996.923077,4061.025641
247,4387.179487,4524.102564,4523.076923,4283.076923,4485.641025,4217.435897,4462.051282,4229.230769,4249.743589,4506.153846,4211.794871,4639.487179,3992.820513,4060.000000
248,4391.794871,4527.692307,4529.230769,4289.230769,4493.846153,4221.025641,4463.589743,4230.769230,4250.256410,4503.589743,4214.358974,4643.589743,3991.282052,4065.128205
249,4391.794871,4530.769230,4533.333333,4288.717948,4493.846153,4219.487179,4462.051282,4229.230769,4248.717948,4509.230769,4220.512820,4648.205128,3993.333334,4066.666666
250,4392.307692,4531.794871,4534.871794,4291.794871,4489.230769,4214.358974,4458.461538,4225.641025,4245.128205,4511.282051,4224.102564,4648.717948,3992.307693,4064.102564
251,4397.948717,4534.358974,4537.948717,4299.487179,4493.333333,4215.897435,4461.025641,4229.743589,4248.717948,4514.358974,4226.666666,4654.358974,3995.897436,4067.179487
252,4402.051282,4539.487179,4541.538461,4301.538461,4499.487179,4224.615384,4468.205128,4231.794871,4258.461538,4525.641025,4229.743589,4662.051282,4001.538461,4074.358974
253,4395.897435,4537.435897,4536.410256,4296.923076,4495.897435,4225.128205,4466.666666,4223.589743,4256.923076,4518.461538,4225.641025,4656.923076,3996.923077,4070.769230
254,4387.692307,4531.282051,4525.128205,4289.230769,4490.256410,4216.410256,4458.974358,4218.974358,4244.615384,4500.000000,4216.923076,4646.666666,3990.256411,4060.512820
255,4389.743589,4533.846153,4521.538461,4286.666666,4491.794871,4213.333333,4456.410256,4224.615384,4243.076923,4504.615384,4217.948717,4645.641025,3992.307693,4060.512820
256,4391.282051,4536.410256,4524.102564,4286.153846,4492.307692,4218.461538,4456.923076,4224.615384,4249.230769,4510.769230,4222.051282,4644.102564,3994.358975,4059.487179
257,4388.717948,4532.307692,4523.076923,4280.512820,4488.205128,4216.923076,4455.897435,4217.435897,4248.717948,4501.538461,4218.461538,4639.487179,3989.743590,4056.923076
258,4388.205128,4532.820512,4521.025641,4279.487179,4488.717948,4214.871794,4456.923076,4216.923076,4247.692307,4501.538461,4216.410256,4643.076923,3989.230770,4061.538461
259,4389.230769,4534.871794,4524.102564,4284.615384,4493.333333,4216.923076,4457.948717,4220.512820,4249.743589,4514.871794,4223.076923,4648.205128,3995.897436,4064.102564
