,AF3,F7,F3,FC5,T7,P7,O1,O2,P8,T8,FC6,F4,F8,AF4
0,4386.666666,4531.794871,4533.846153,4278.461538,4519.487179,4203.076923,4440.000000,4224.102564,4229.743589,4499.487179,4204.102564,4663.589743,4000.000000,4060.512820
1,4387.179487,4529.230769,4536.410256,4274.871794,4520.000000,4202.564102,4447.179487,4236.923076,4240.000000,4499.487179,4196.410256,4662.051282,3996.410257,4061.538461
2,4391.282051,4529.230769,4537.435897,4276.410256,4521.025641,4204.102564,4453.333333,4245.641025,4246.666666,4501.538461,4197.435897,4663.589743,4000.512820,4064.102564
3,4385.641025,4529.230769,4534.871794,4280.512820,4524.102564,4206.153846,4448.717948,4238.461538,4237.435897,4497.948717,4202.051282,4664.102564,4000.512820,4061.025641
4,4387.692307,4531.794871,4536.923076,4278.974358,4522.051282,4201.025641,4451.282051,4233.333333,4233.333333,4498.461538,4208.205128,4663.589743,4001.025641,4066.153846
5,4393.846153,4531.794871,4538.974358,4278.461538,4521.025641,4197.948717,4455.384615,4236.923076,4238.974358,4498.974358,4213.846153,4665.128205,4006.666666,4073.846153
6,4387.179487,4529.230769,4537.948717,4280.000000,4523.589743,4203.076923,4452.307692,4236.923076,4237.948717,4498.461538,4209.743589,4666.666666,4006.666666,4066.153846
7,4382.051282,4529.230769,4535.897435,4278.974358,4523.589743,4208.717948,4452.820512,4233.333333,4229.230769,4497.948717,4202.564102,4665.641025,3996.410257,4061.025641
8,4388.717948,4529.230769,4536.410256,4276.923076,4522.564102,4207.179487,4455.897435,4234.871794,4231.282051,4502.564102,4204.102564,4664.615384,3994.358975,4067.179487
9,4390.256410,4525.641025,4536.923076,4275.897435,4523.076923,4201.538461,4452.307692,4238.461538,4241.025641,4509.743589,4201.538461,4664.615384,4005.641025,4065.641025
10,4385.641025,4529.743589,4539.487179,4277.435897,4519.487179,4201.538461,4447.179487,4237.948717,4238.974358,4510.256410,4198.974358,4665.128205,4007.692307,4062.564102
11,4384.615384,4533.333333,4536.923076,4281.025641,4516.410256,4202.564102,4445.641025,4235.384615,4230.256410,4504.102564,4205.641025,4664.102564,3997.948718,4062.564102
12,4382.564102,4524.615384,4528.205128,4278.974358,4520.000000,4200.000000,4446.666666,4236.410256,4229.743589,4498.974358,4204.615384,4660.512820,3993.846154,4057.435897
13,4376.923076,4518.461538,4523.589743,4268.717948,4519.487179,4199.487179,4447.692307,4238.974358,4229.230769,4494.358974,4192.820512,4656.923076,3993.846154,4048.717948
14,4372.820512,4518.974358,4522.051282,4265.641025,4517.435897,4197.948717,4446.666666,4236.923076,4225.641025,4491.794871,4194.358974,4654.871794,3987.692308,4048.205128
15,4379.487179,4523.589743,4525.128205,4271.282051,4520.512820,4198.974358,4453.846153,4242.051282,4235.897435,4501.025641,4206.666666,4660.000000,3990.769231,4057.435897
16,4384.615384,4527.692307,4532.307692,4273.846153,4521.538461,4203.589743,4463.589743,4253.846153,4246.666666,4510.769230,4204.102564,4664.615384,4001.025641,4059.487179
17,4375.384615,4521.025641,4528.205128,4271.282051,4517.435897,4202.051282,4459.487179,4250.769230,4234.871794,4506.666666,4192.307692,4656.923076,3996.923077,4051.794871
18,4366.153846,4511.282051,4518.974358,4268.717948,4518.974358,4199.487179,4453.846153,4238.974358,4218.461538,4496.410256,4194.871794,4647.692307,3986.666667,4048.205128
19,4369.230769,4512.820512,4521.025641,4269.743589,4526.153846,4204.615384,4455.384615,4240.000000,4221.025641,4493.333333,4205.128205,4647.692307,3985.641026,4049.230769
20,4369.743589,4513.846153,4521.538461,4266.666666,4520.000000,4201.025641,4450.769230,4241.025641,4222.564102,4495.897435,4198.974358,4647.692307,3981.538462,4042.564102
21,4366.666666,4508.205128,4516.410256,4267.179487,4510.769230,4189.743589,4443.076923,4233.333333,4220.512820,4496.410256,4187.692307,4645.641025,3980.512821,4039.487179
22,4371.794871,4510.256410,4520.512820,4271.282051,4512.307692,4193.333333,4447.179487,4237.435897,4230.769230,4499.487179,4192.307692,4649.230769,3992.307693,4051.794871
23,4376.410256,4513.846153,4523.589743,4269.230769,4512.820512,4196.923076,4450.769230,4245.641025,4241.025641,4503.076923,4195.897435,4649.743589,3996.923077,4054.871794
24,4373.333333,4514.358974,4521.025641,4271.282051,4512.820512,4194.358974,4450.769230,4245.128205,4234.871794,4501.025641,4190.769230,4647.179487,3987.692308,4045.128205
25,4371.794871,4515.897435,4521.538461,4276.410256,4518.461538,4196.410256,4454.358974,4243.589743,4224.615384,4498.974358,4192.820512,4650.256410,3983.589744,4045.128205
26,4369.743589,4513.846153,4521.025641,4271.282051,4513.846153,4195.897435,4451.794871,4240.000000,4221.025641,4496.410256,4189.230769,4649.230769,3982.051283,4049.743589
27,4365.128205,4505.128205,4519.487179,4261.538461,4505.641025,4193.333333,4446.153846,4235.384615,4217.948717,4487.692307,4177.435897,4645.128205,3976.410257,4045.641025
28,4367.692307,4503.076923,4522.051282,4264.615384,4511.794871,4199.487179,4452.820512,4242.051282,4218.461538,4487.692307,4185.128205,4648.717948,3977.948718,4044.615384
29,4373.333333,4504.615384,4524.615384,4269.743589,4515.897435,4204.615384,4454.358974,4245.641025,4227.179487,4499.487179,4201.538461,4655.384615,3983.076924,4051.794871
30,4371.282051,4502.564102,4523.589743,4268.205128,4508.205128,4195.384615,4442.564102,4234.358974,4223.076923,4503.589743,4200.512820,4656.923076,3981.538462,4053.333333
31,4372.307692,4507.692307,4524.102564,4269.743589,4508.205128,4189.743589,4442.564102,4230.769230,4210.256410,4497.435897,4196.410256,4656.923076,3983.076924,4049.230769
32,4377.435897,4509.743589,4525.128205,4269.743589,4513.333333,4195.384615,4446.666666,4234.358974,4210.769230,4498.461538,4195.384615,4655.384615,3987.692308,4050.256410
33,4371.794871,4498.974358,4522.564102,4265.128205,4508.717948,4193.846153,4442.564102,4232.820512,4215.897435,4500.512820,4183.589743,4649.230769,3985.128206,4051.794871
34,4365.641025,4493.333333,4515.384615,4261.025641,4510.256410,4192.820512,4447.692307,4238.461538,4218.461538,4496.923076,4175.897435,4645.128205,3986.153847,4052.307692
35,4370.256410,4504.615384,4517.948717,4266.153846,4520.512820,4204.615384,4461.025641,4247.179487,4227.179487,4498.974358,4187.179487,4648.717948,3991.282052,4054.358974
36,4370.256410,4508.205128,4520.512820,4270.256410,4517.948717,4207.692307,4458.461538,4244.615384,4223.589743,4498.974358,4193.846153,4646.666666,3984.102565,4050.256410
37,4360.512820,4497.435897,4508.205128,4263.589743,4507.692307,4194.871794,4449.230769,4232.820512,4204.615384,4489.743589,4182.051282,4636.923076,3977.948718,4043.076923
38,4358.461538,4494.358974,4506.153846,4257.948717,4509.230769,4193.846153,4449.230769,4227.692307,4206.153846,4490.256410,4171.794871,4636.410256,3983.589744,4043.076923
39,4367.179487,4504.102564,4518.974358,4265.128205,4517.948717,4205.641025,4453.846153,4237.435897,4223.076923,4503.076923,4190.256410,4646.666666,3989.230770,4051.794871
40,4368.717948,4507.179487,4516.410256,4265.641025,4516.923076,4202.051282,4453.846153,4242.564102,4219.487179,4505.128205,4203.076923,4646.666666,3986.153847,4053.333333
41,4354.358974,4495.384615,4503.076923,4253.846153,4509.230769,4189.230769,4447.179487,4230.256410,4204.102564,4489.230769,4180.000000,4632.820512,3978.461539,4044.615384
42,4350.256410,4490.769230,4502.564102,4256.923076,4511.282051,4190.256410,4445.128205,4226.666666,4203.076923,4482.564102,4169.743589,4629.743589,3977.948718,4040.000000
43,4360.000000,4497.435897,4509.230769,4266.666666,4515.384615,4199.487179,4453.333333,4242.051282,4211.794871,4493.333333,4186.666666,4641.538461,3985.128206,4043.076923
44,4364.615384,4502.051282,4509.743589,4266.666666,4516.410256,4203.589743,4461.025641,4252.307692,4221.025641,4502.564102,4193.333333,4650.256410,3987.692308,4049.743589
45,4364.102564,4507.179487,4514.358974,4272.307692,4520.512820,4206.153846,4460.512820,4250.256410,4227.692307,4499.487179,4190.256410,4648.717948,3985.641026,4055.897435
46,4367.179487,4511.282051,4519.487179,4277.435897,4522.564102,4209.230769,4456.410256,4245.641025,4222.564102,4491.282051,4191.282051,4648.205128,3985.641026,4054.358974
47,4366.666666,4497.948717,4515.384615,4270.769230,4517.948717,4206.666666,4450.256410,4237.435897,4210.256410,4490.256410,4184.615384,4650.769230,3978.461539,4046.666666
48,4357.435897,4484.102564,4507.179487,4264.102564,4510.769230,4197.435897,4442.051282,4228.717948,4202.564102,4490.256410,4174.871794,4644.615384,3966.153847,4042.564102
49,4357.435897,4490.769230,4509.743589,4266.153846,4509.743589,4192.820512,4441.538461,4225.641025,4203.076923,4485.641025,4173.846153,4640.512820,3968.717949,4050.256410
50,4371.282051,4492.820512,4520.000000,4269.230769,4512.307692,4197.435897,4449.743589,4229.230769,4209.230769,4483.076923,4175.897435,4647.692307,3976.410257,4060.000000
51,4376.410256,4486.666666,4521.538461,4268.205128,4511.282051,4197.948717,4454.358974,4229.743589,4209.743589,4482.051282,4181.538461,4651.794871,3969.743590,4058.461538
52,4370.769230,4487.692307,4520.512820,4264.615384,4506.666666,4189.743589,4455.897435,4227.692307,4205.641025,4481.538461,4187.179487,4649.743589,3963.076924,4054.358974
53,4372.820512,4490.256410,4523.076923,4266.666666,4508.717948,4191.794871,4462.051282,4237.435897,4212.820512,4486.666666,4188.205128,4655.384615,3973.333334,4063.589743
54,4376.923076,4492.307692,4523.076923,4273.333333,4513.846153,4203.076923,4467.179487,4249.743589,4225.641025,4494.358974,4187.692307,4662.564102,3982.564103,4070.256410
55,4372.307692,4493.333333,4520.512820,4267.179487,4514.871794,4202.051282,4469.743589,4245.641025,4223.589743,4490.256410,4182.564102,4656.410256,3974.871795,4060.000000
56,4369.230769,4486.153846,4520.000000,4258.461538,4514.871794,4196.410256,4467.692307,4239.487179,4216.410256,4486.153846,4183.589743,4648.717948,3965.128206,4053.846153
57,4368.717948,4485.641025,4520.000000,4267.179487,4514.358974,4198.974358,4464.615384,4244.102564,4220.512820,4495.897435,4187.179487,4651.794871,3966.666667,4057.948717
58,4372.820512,4496.923076,4520.000000,4278.461538,4516.410256,4205.641025,4467.179487,4247.179487,4226.153846,4505.128205,4184.102564,4656.923076,3975.384616,4060.512820
59,4379.487179,4498.461538,4522.051282,4276.923076,4524.615384,4208.205128,4469.743589,4241.538461,4217.435897,4497.948717,4184.615384,4656.410256,3981.538462,4063.076923
60,4376.410256,4494.871794,4523.076923,4271.282051,4525.641025,4203.076923,4466.153846,4236.923076,4210.256410,4490.769230,4188.205128,4655.384615,3983.589744,4065.128205
61,4370.256410,4496.923076,4521.025641,4272.307692,4516.410256,4199.487179,4465.641025,4241.538461,4222.051282,4495.384615,4185.641025,4655.384615,3982.564103,4061.025641
62,4376.410256,4496.410256,4523.589743,4278.461538,4516.923076,4203.589743,4468.205128,4249.743589,4232.820512,4498.974358,4185.641025,4654.871794,3981.025642,4060.000000
63,4381.025641,4496.410256,4526.153846,4281.538461,4520.512820,4204.615384,4462.564102,4247.692307,4223.589743,4496.410256,4189.743589,4655.384615,3980.000000,4063.589743
64,4373.846153,4498.974358,4523.589743,4274.358974,4513.333333,4195.384615,4455.384615,4236.923076,4210.769230,4494.358974,4189.743589,4653.846153,3979.487180,4058.461538
65,4369.743589,4493.846153,4521.025641,4270.256410,4504.102564,4190.256410,4452.307692,4231.794871,4209.230769,4488.717948,4187.179487,4647.179487,3974.358975,4051.282051
66,4370.769230,4488.205128,4521.025641,4272.820512,4508.205128,4195.384615,4454.358974,4235.384615,4209.743589,4483.076923,4178.461538,4646.153846,3971.794872,4054.358974
67,4370.256410,4492.820512,4521.538461,4273.846153,4516.410256,4202.564102,4461.538461,4242.051282,4212.820512,4484.615384,4177.948717,4651.794871,3977.948718,4061.025641
68,4368.205128,4491.794871,4521.025641,4272.307692,4515.384615,4201.538461,4461.025641,4242.051282,4217.948717,4487.692307,4191.282051,4654.871794,3976.410257,4059.487179
69,4366.666666,4483.589743,4522.051282,4276.923076,4510.256410,4195.897435,4457.948717,4235.897435,4216.923076,4488.205128,4189.743589,4652.307692,3973.846154,4056.923076
70,4367.179487,4484.615384,4520.512820,4274.358974,4507.692307,4197.948717,4462.051282,4233.333333,4208.205128,4487.179487,4176.923076,4650.769230,3976.923077,4055.384615
71,4361.538461,4485.641025,4512.820512,4261.538461,4510.769230,4198.461538,4458.461538,4230.256410,4196.410256,4477.435897,4176.923076,4648.717948,3972.820513,4044.102564
72,4356.923076,4480.512820,4512.820512,4262.051282,4510.769230,4192.820512,4449.230769,4222.564102,4196.923076,4475.384615,4183.076923,4646.666666,3965.641026,4037.435897
73,4364.615384,4487.692307,4522.564102,4271.794871,4504.615384,4193.333333,4450.256410,4222.051282,4203.589743,4484.102564,4183.076923,4649.230769,3970.256411,4049.743589
74,4378.461538,4500.512820,4526.153846,4276.923076,4505.128205,4197.435897,4455.384615,4231.794871,4206.153846,4491.282051,4182.051282,4655.384615,3977.948718,4061.538461
75,4380.000000,4498.974358,4521.538461,4279.487179,4511.794871,4197.435897,4454.871794,4237.948717,4203.589743,4494.358974,4184.102564,4657.435897,3978.974359,4058.461538
76,4370.256410,4491.794871,4521.025641,4277.948717,4510.256410,4193.333333,4452.307692,4231.282051,4198.974358,4491.282051,4183.589743,4651.282051,3974.871795,4052.820512
77,4367.179487,4493.846153,4521.025641,4272.820512,4506.153846,4193.846153,4447.692307,4223.076923,4192.820512,4482.051282,4176.923076,4646.153846,3972.820513,4050.769230
78,4370.769230,4498.461538,4519.487179,4273.333333,4512.820512,4197.948717,4446.153846,4224.615384,4189.230769,4476.923076,4173.333333,4649.743589,3976.923077,4048.717948
79,4371.282051,4497.948717,4522.051282,4277.948717,4518.461538,4197.948717,4453.846153,4228.205128,4193.846153,4484.615384,4180.000000,4656.410256,3979.487180,4051.794871
80,4368.717948,4496.410256,4523.589743,4277.948717,4515.384615,4199.487179,4458.461538,4227.692307,4196.923076,4495.384615,4191.282051,4660.512820,3981.025642,4057.435897
81,4369.230769,4492.307692,4523.589743,4276.410256,4508.717948,4197.435897,4455.897435,4225.641025,4194.871794,4496.410256,4197.435897,4658.461538,3984.102565,4056.923076
82,4373.846153,4492.307692,4526.153846,4277.948717,4506.666666,4193.333333,4459.487179,4231.282051,4197.435897,4494.358974,4194.871794,4660.512820,3985.641026,4058.974358
83,4378.461538,4500.512820,4528.205128,4281.025641,4511.282051,4195.384615,4462.564102,4240.512820,4207.692307,4501.025641,4190.256410,4667.692307,3985.128206,4064.102564
84,4378.974358,4503.589743,4528.205128,4281.025641,4513.846153,4200.512820,4462.051282,4239.487179,4214.358974,4508.205128,4198.461538,4669.230769,3984.102565,4064.615384
85,4376.923076,4498.974358,4524.615384,4282.564102,4515.384615,4202.051282,4463.589743,4233.846153,4207.692307,4497.948717,4207.179487,4665.128205,3986.666667,4060.000000
86,4375.897435,4498.461538,4525.128205,4284.102564,4516.923076,4202.564102,4463.076923,4234.871794,4198.974358,4491.794871,4197.435897,4664.102564,3989.743590,4058.461538
87,4378.461538,4506.666666,4533.846153,4287.692307,4521.025641,4205.641025,4460.512820,4238.461538,4202.564102,4506.666666,4194.871794,4664.615384,3992.820513,4063.076923
88,4383.076923,4511.282051,4537.948717,4294.358974,4524.615384,4204.102564,4461.538461,4238.974358,4212.307692,4514.871794,4208.717948,4664.615384,3996.410257,4065.128205
89,4380.512820,4505.641025,4528.717948,4293.846153,4517.948717,4198.974358,4456.923076,4231.794871,4208.205128,4503.076923,4210.256410,4662.051282,3993.333334,4058.461538
90,4367.692307,4497.948717,4520.000000,4282.564102,4507.692307,4192.820512,4446.666666,4221.025641,4192.307692,4490.769230,4193.333333,4651.794871,3981.025642,4047.179487
91,4358.974358,4495.384615,4520.512820,4277.948717,4509.743589,4191.282051,4443.076923,4215.384615,4180.512820,4486.666666,4179.487179,4643.589743,3975.897436,4044.615384
92,4364.615384,4497.435897,4521.025641,4283.589743,4515.897435,4199.487179,4445.128205,4219.487179,4182.564102,4488.205128,4183.589743,4649.230769,3986.153847,4051.282051
93,4373.333333,4501.025641,4522.051282,4289.743589,4513.333333,4203.589743,4451.282051,4224.615384,4192.307692,4494.358974,4193.333333,4657.948717,3991.794872,4053.846153
94,4375.897435,4501.538461,4529.743589,4293.333333,4513.846153,4196.923076,4456.410256,4229.743589,4197.435897,4500.000000,4196.410256,4661.538461,3989.743590,4055.897435
95,4376.410256,4501.025641,4534.871794,4291.794871,4515.384615,4193.333333,4450.769230,4234.871794,4195.384615,4502.051282,4198.974358,4663.589743,3992.820513,4058.461538
96,4374.871794,4501.538461,4529.743589,4288.205128,4506.666666,4194.871794,4447.692307,4233.333333,4191.794871,4502.051282,4202.564102,4662.564102,3993.846154,4054.358974
97,4368.717948,4502.564102,4522.051282,4289.230769,4503.589743,4189.743589,4451.794871,4224.102564,4194.358974,4494.871794,4191.794871,4661.538461,3983.589744,4048.205128
98,4363.589743,4502.564102,4523.589743,4290.256410,4508.205128,4189.230769,4451.282051,4221.538461,4190.769230,4483.076923,4175.384615,4657.948717,3974.358975,4048.205128
99,4365.641025,4502.564102,4527.179487,4287.692307,4506.666666,4196.923076,4445.128205,4225.128205,4180.000000,4482.564102,4176.923076,4653.846153,3975.897436,4050.256410
100,4372.307692,4506.666666,4523.076923,4289.743589,4505.641025,4195.897435,4443.076923,4223.076923,4181.025641,4492.307692,4188.717948,4654.871794,3983.076924,4051.794871
101,4376.923076,4511.794871,4522.564102,4295.897435,4506.153846,4190.769230,4447.179487,4223.076923,4192.307692,4497.948717,4200.000000,4662.051282,3993.333334,4056.923076
102,4381.538461,4513.333333,4534.358974,4298.461538,4505.128205,4193.846153,4451.794871,4228.717948,4192.820512,4496.923076,4205.128205,4669.743589,4000.512820,4062.564102
103,4386.666666,4514.871794,4536.923076,4296.923076,4509.230769,4200.000000,4448.717948,4227.692307,4188.205128,4498.974358,4206.153846,4669.230769,4000.000000,4063.589743
104,4384.102564,4514.871794,4531.794871,4296.923076,4515.384615,4198.461538,4444.102564,4224.615384,4192.307692,4505.128205,4203.076923,4665.128205,3997.948718,4061.025641
105,4377.948717,4511.282051,4532.307692,4298.974358,4513.333333,4193.333333,4447.692307,4226.153846,4196.410256,4507.179487,4193.846153,4665.641025,3995.384616,4059.487179
106,4375.384615,4510.256410,4528.205128,4296.923076,4505.641025,4192.307692,4445.641025,4220.512820,4190.769230,4496.410256,4188.205128,4663.076923,3987.179488,4057.948717
107,4375.897435,4513.846153,4524.615384,4293.333333,4504.615384,4193.333333,4439.487179,4212.307692,4182.564102,4487.179487,4195.897435,4656.410256,3981.538462,4056.410256
108,4380.512820,4515.897435,4530.769230,4296.923076,4508.717948,4193.333333,4442.051282,4216.410256,4180.512820,4494.358974,4205.641025,4658.461538,3990.256411,4058.461538
109,4383.589743,4518.461538,4533.846153,4301.538461,4508.205128,4196.410256,4446.666666,4223.589743,4182.051282,4499.487179,4200.000000,4665.641025,3999.487180,4060.000000
110,4378.974358,4521.025641,4527.692307,4298.461538,4505.128205,4198.461538,4446.666666,4222.051282,4182.051282,4486.666666,4189.230769,4663.589743,3990.256411,4055.897435
111,4373.333333,4512.307692,4525.641025,4291.794871,4508.717948,4195.897435,4445.128205,4220.512820,4183.076923,4478.974358,4184.102564,4652.820512,3976.923077,4049.230769
112,4370.769230,4504.615384,4525.641025,4290.769230,4507.179487,4192.820512,4443.076923,4223.589743,4182.564102,4481.538461,4181.025641,4648.717948,3974.358975,4045.128205
113,4367.692307,4507.179487,4522.051282,4293.846153,4498.461538,4191.282051,4441.538461,4220.512820,4177.435897,4478.461538,4183.589743,4652.307692,3971.794872,4041.025641
114,4366.153846,4504.615384,4524.615384,4295.384615,4499.487179,4190.769230,4446.153846,4214.871794,4175.384615,4478.461538,4187.179487,4655.384615,3967.692308,4044.615384
115,4370.256410,4504.102564,4533.846153,4296.410256,4504.615384,4191.794871,4451.282051,4217.948717,4184.102564,4484.615384,4188.205128,4657.948717,3977.948718,4053.846153
116,4377.435897,4508.717948,4540.000000,4297.948717,4505.128205,4194.358974,4454.358974,4226.666666,4188.205128,4487.179487,4192.820512,4666.153846,3993.846154,4056.923076
117,4380.000000,4508.717948,4538.974358,4296.410256,4502.564102,4194.871794,4454.871794,4229.230769,4182.051282,4491.282051,4201.538461,4668.717948,3989.743590,4052.307692
118,4371.794871,4505.641025,4532.307692,4290.256410,4497.435897,4189.743589,4449.230769,4222.564102,4176.923076,4497.435897,4203.589743,4658.974358,3980.512821,4047.179487
119,4364.615384,4505.641025,4527.692307,4287.179487,4496.410256,4187.179487,4443.076923,4215.897435,4181.025641,4492.307692,4199.487179,4654.358974,3983.076924,4044.615384
120,4366.153846,4504.615384,4523.076923,4284.102564,4503.076923,4191.794871,4444.102564,4215.384615,4182.564102,4486.153846,4194.358974,4656.410256,3983.076924,4041.025641
121,4368.205128,4507.692307,4523.589743,4287.179487,4511.282051,4196.410256,4447.179487,4223.076923,4179.487179,4492.307692,4187.179487,4657.435897,3981.538462,4041.538461
122,4365.641025,4513.333333,4524.615384,4295.897435,4511.282051,4196.410256,4444.102564,4228.205128,4185.128205,4492.307692,4185.641025,4655.384615,3982.051283,4045.128205
123,4360.512820,4509.743589,4520.000000,4293.333333,4503.076923,4192.307692,4440.512820,4218.974358,4187.179487,4477.435897,4189.230769,4648.717948,3974.358975,4039.487179
124,4361.538461,4506.666666,4518.461538,4289.230769,4496.410256,4188.717948,4438.974358,4207.692307,4172.820512,4470.256410,4190.769230,4648.205128,3968.717949,4036.410256
125,4372.820512,4511.794871,4524.615384,4298.974358,4503.589743,4195.384615,4442.564102,4211.794871,4164.102564,4482.564102,4196.923076,4657.948717,3982.564103,4046.153846
126,4377.948717,4515.384615,4527.692307,4302.564102,4512.307692,4202.051282,4446.666666,4222.564102,4175.897435,4493.333333,4205.128205,4663.076923,3994.871795,4051.282051
127,4370.769230,4512.307692,4525.128205,4294.871794,4506.666666,4196.410256,4445.641025,4224.615384,4188.205128,4492.820512,4201.538461,4661.025641,3989.230770,4048.717948
128,4370.769230,4507.179487,4526.153846,4296.410256,4500.000000,4189.230769,4444.102564,4229.230769,4196.923076,4496.410256,4194.358974,4660.512820,3990.769231,4051.794871
129,4376.410256,4512.307692,4528.205128,4298.974358,4503.589743,4191.282051,4447.692307,4234.871794,4205.128205,4504.615384,4205.128205,4661.538461,3999.487180,4054.871794
130,4374.358974,4518.974358,4525.641025,4293.846153,4504.102564,4194.871794,4449.743589,4231.794871,4196.923076,4504.615384,4215.897435,4662.564102,3995.384616,4051.282051
131,4368.205128,4514.358974,4521.538461,4292.307692,4498.461538,4192.820512,4447.692307,4230.256410,4191.794871,4497.948717,4209.230769,4661.025641,3990.256411,4048.717948
132,4370.769230,4510.256410,4524.615384,4294.871794,4498.974358,4192.820512,4450.769230,4236.410256,4206.153846,4497.435897,4203.589743,4660.000000,3994.871795,4050.256410
133,4378.461538,4516.410256,4535.897435,4297.948717,4507.692307,4195.897435,4456.410256,4240.512820,4215.897435,4504.615384,4207.179487,4669.230769,4002.051282,4054.358974
134,4383.589743,4520.512820,4538.461538,4300.512820,4510.256410,4198.461538,4456.923076,4237.948717,4210.256410,4506.666666,4210.769230,4673.333333,4004.615384,4055.897435
135,4375.384615,4514.358974,4526.153846,4299.487179,4502.564102,4193.333333,4450.256410,4231.282051,4203.589743,4498.461538,4204.615384,4663.589743,3994.871795,4051.794871
136,4362.564102,4507.179487,4518.974358,4295.897435,4498.974358,4190.769230,4444.102564,4224.615384,4202.051282,4492.820512,4192.820512,4657.435897,3980.000000,4045.128205
137,4364.615384,4506.153846,4524.615384,4293.333333,4505.641025,4194.871794,4451.282051,4224.102564,4203.589743,4491.282051,4189.743589,4659.487179,3980.512821,4043.589743
138,4369.743589,4509.230769,4525.128205,4290.256410,4506.666666,4193.846153,4454.358974,4224.615384,4198.461538,4487.692307,4195.897435,4657.948717,3986.666667,4044.102564
139,4364.102564,4510.256410,4517.948717,4290.256410,4500.512820,4188.205128,4447.179487,4220.512820,4193.333333,4490.256410,4195.384615,4656.410256,3987.692308,4046.153846
140,4364.102564,4509.743589,4522.564102,4294.358974,4501.025641,4189.230769,4444.615384,4224.615384,4203.589743,4498.974358,4190.256410,4660.512820,3996.410257,4052.820512
141,4374.358974,4511.282051,4533.333333,4298.461538,4507.692307,4194.358974,4451.282051,4233.333333,4211.794871,4503.076923,4201.025641,4665.128205,4002.564102,4059.487179
142,4376.923076,4513.333333,4531.282051,4302.051282,4506.666666,4195.384615,4455.897435,4230.256410,4206.666666,4503.589743,4216.923076,4666.666666,3997.435898,4060.512820
143,4369.743589,4513.846153,4523.589743,4299.487179,4506.153846,4197.435897,4453.846153,4225.128205,4205.641025,4501.025641,4209.230769,4665.128205,3994.358975,4055.897435
144,4368.205128,4515.384615,4523.589743,4294.358974,4508.717948,4200.000000,4449.743589,4227.179487,4211.794871,4496.923076,4191.794871,4666.153846,3995.897436,4051.282051
145,4369.743589,4514.871794,4523.076923,4293.333333,4505.128205,4196.410256,4445.641025,4228.717948,4210.256410,4498.461538,4193.846153,4670.256410,3997.948718,4051.282051
146,4373.846153,4513.333333,4524.102564,4296.923076,4503.076923,4192.820512,4447.179487,4230.769230,4209.743589,4499.487179,4210.769230,4674.358974,4005.128205,4057.435897
147,4382.564102,4517.948717,4534.358974,4303.589743,4510.256410,4194.871794,4451.794871,4237.435897,4218.974358,4502.564102,4223.589743,4682.051282,4009.743589,4066.666666
148,4388.717948,4525.128205,4541.538461,4309.743589,4510.769230,4198.974358,4456.410256,4246.666666,4231.282051,4517.435897,4226.666666,4689.230769,4009.230769,4071.282051
149,4386.153846,4529.743589,4538.461538,4311.794871,4507.179487,4198.461538,4460.512820,4252.307692,4237.435897,4528.717948,4224.102564,4687.179487,4012.820512,4067.692307
150,4383.076923,4528.717948,4539.487179,4308.717948,4510.769230,4197.435897,4460.512820,4248.717948,4237.948717,4523.076923,4225.128205,4681.538461,4012.820512,4064.102564
151,4384.102564,4525.641025,4540.000000,4305.128205,4512.820512,4203.076923,4461.025641,4237.435897,4233.333333,4514.358974,4222.564102,4678.974358,4009.230769,4066.153846
152,4382.051282,4522.564102,4532.307692,4305.128205,4509.230769,4203.589743,4455.897435,4228.717948,4220.512820,4510.769230,4208.205128,4675.384615,4012.820512,4061.538461
153,4374.358974,4517.948717,4525.128205,4301.538461,4506.153846,4196.410256,4443.076923,4225.128205,4215.897435,4508.717948,4202.564102,4670.769230,4013.846153,4050.256410
154,4375.897435,4517.948717,4524.615384,4299.487179,4508.717948,4197.948717,4441.025641,4227.179487,4228.205128,4514.871794,4212.820512,4670.256410,4012.820512,4053.333333
155,4382.051282,4523.076923,4527.692307,4304.102564,4517.435897,4204.102564,4451.794871,4231.282051,4230.256410,4515.384615,4220.000000,4673.846153,4014.358974,4063.076923
156,4380.000000,4530.256410,4535.897435,4306.153846,4518.461538,4204.102564,4457.948717,4235.897435,4222.051282,4511.282051,4218.974358,4677.948717,4013.846153,4065.128205
157,4377.948717,4529.743589,4537.948717,4303.589743,4512.820512,4201.538461,4450.769230,4235.384615,4220.000000,4511.794871,4212.820512,4675.384615,4011.794871,4062.564102
158,4372.820512,4517.948717,4525.641025,4298.461538,4511.282051,4196.410256,4441.538461,4223.076923,4213.333333,4501.025641,4198.974358,4663.589743,4004.102564,4056.410256
159,4363.076923,4507.692307,4515.897435,4290.256410,4511.282051,4191.794871,4442.564102,4214.358974,4202.564102,4484.102564,4190.769230,4655.897435,3996.923077,4049.743589
160,4363.589743,4509.743589,4519.487179,4286.153846,4505.128205,4193.846153,4445.641025,4220.512820,4204.102564,4482.564102,4193.333333,4658.461538,3996.923077,4050.256410
161,4372.820512,4520.000000,4523.076923,4290.769230,4502.051282,4194.358974,4442.051282,4224.102564,4212.820512,4491.282051,4197.435897,4664.615384,4000.512820,4048.205128
162,4376.923076,4527.179487,4524.102564,4295.897435,4510.769230,4192.820512,4443.589743,4222.051282,4223.076923,4495.897435,4205.641025,4669.230769,4004.615384,4050.769230
163,4382.051282,4530.256410,4532.307692,4302.051282,4518.461538,4197.435897,4454.871794,4231.282051,4231.282051,4503.589743,4216.923076,4672.820512,4012.307692,4068.205128
164,4386.153846,4529.230769,4537.435897,4307.179487,4515.897435,4204.615384,4463.076923,4241.538461,4229.743589,4512.820512,4224.615384,4675.897435,4017.435897,4073.846153
165,4375.897435,4523.076923,4528.205128,4301.538461,4514.871794,4201.538461,4459.487179,4234.358974,4216.923076,4509.230769,4218.461538,4669.743589,4009.743589,4060.512820
166,4367.692307,4516.410256,4524.615384,4294.358974,4518.461538,4199.487179,4456.410256,4228.717948,4214.871794,4498.974358,4204.615384,4663.076923,4002.051282,4055.897435
167,4377.435897,4512.307692,4532.307692,4294.871794,4517.948717,4203.076923,4458.461538,4233.846153,4223.076923,4497.435897,4207.179487,4668.717948,3999.487180,4061.025641
168,4384.615384,4511.794871,4531.794871,4295.384615,4514.358974,4201.538461,4459.487179,4231.794871,4220.512820,4503.076923,4214.871794,4671.282051,3997.948718,4062.051282
169,4374.871794,4511.794871,4522.564102,4288.205128,4511.794871,4195.897435,4456.410256,4222.051282,4215.897435,4500.000000,4203.076923,4662.051282,3997.948718,4058.974358
170,4366.666666,4505.641025,4521.025641,4284.615384,4506.666666,4195.384615,4453.846153,4221.538461,4221.025641,4491.794871,4186.666666,4660.000000,3994.358975,4057.948717
171,4376.923076,4502.051282,4528.205128,4289.230769,4505.641025,4196.923076,4458.974358,4226.666666,4222.564102,4493.333333,4194.358974,4668.717948,3986.666667,4062.564102
172,4385.641025,4508.205128,4527.692307,4289.743589,4509.230769,4194.358974,4462.051282,4227.179487,4212.307692,4498.461538,4211.794871,4667.692307,3989.230770,4068.717948
173,4381.025641,4511.282051,4524.102564,4287.179487,4505.641025,4194.871794,4458.461538,4226.153846,4206.153846,4492.820512,4212.820512,4661.025641,3994.358975,4068.205128
174,4380.000000,4508.717948,4525.641025,4292.307692,4504.102564,4198.461538,4457.948717,4226.153846,4210.769230,4489.230769,4206.666666,4663.076923,3991.794872,4066.153846
175,4387.179487,4511.794871,4527.692307,4294.358974,4512.307692,4198.461538,4461.538461,4227.179487,4219.487179,4501.538461,4203.589743,4666.153846,3996.923077,4065.128205
176,4387.179487,4514.358974,4530.256410,4292.820512,4514.871794,4197.948717,4459.487179,4228.717948,4227.692307,4510.256410,4201.025641,4664.102564,4005.128205,4067.179487
177,4385.128205,4512.307692,4531.282051,4298.461538,4512.307692,4201.025641,4454.871794,4230.769230,4226.666666,4505.128205,4201.025641,4665.641025,3998.974359,4071.794871
178,4390.256410,4514.871794,4532.820512,4300.512820,4512.820512,4201.538461,4455.384615,4228.717948,4218.461538,4497.948717,4207.692307,4670.769230,3994.358975,4072.307692
179,4389.230769,4517.435897,4533.846153,4296.923076,4511.282051,4196.923076,4454.358974,4225.128205,4214.358974,4500.000000,4209.743589,4670.256410,4000.000000,4066.153846
180,4380.000000,4507.692307,4529.743589,4293.333333,4505.641025,4194.358974,4451.794871,4220.000000,4211.794871,4497.435897,4200.000000,4661.538461,3994.871795,4061.025641
181,4376.923076,4502.564102,4522.051282,4285.128205,4500.000000,4192.307692,4450.256410,4216.410256,4204.102564,4486.666666,4191.282051,4653.846153,3985.128206,4062.051282
182,4375.897435,4507.179487,4521.025641,4278.974358,4498.974358,4189.230769,4447.179487,4218.974358,4204.102564,4487.179487,4189.743589,4654.871794,3982.564103,4055.384615
183,4370.256410,4506.153846,4522.564102,4280.512820,4504.102564,4190.769230,4444.615384,4218.461538,4210.769230,4489.230769,4192.307692,4655.897435,3980.512821,4046.153846
184,4371.282051,4502.564102,4518.974358,4286.153846,4506.153846,4192.820512,4443.589743,4214.358974,4207.692307,4483.589743,4196.923076,4654.871794,3982.051283,4051.794871
185,4377.948717,4508.717948,4521.025641,4292.307692,4503.076923,4189.230769,4448.205128,4218.974358,4203.076923,4486.153846,4198.974358,4655.384615,3987.179488,4060.512820
186,4378.974358,4511.794871,4527.179487,4292.820512,4500.512820,4185.641025,4449.230769,4225.641025,4210.769230,4495.897435,4195.384615,4659.487179,3986.666667,4057.948717
187,4382.051282,4512.307692,4530.256410,4292.820512,4505.128205,4191.282051,4449.230769,4221.538461,4217.948717,4494.871794,4201.538461,4663.589743,3988.717949,4054.871794
188,4388.205128,4517.948717,4536.410256,4300.000000,4512.820512,4200.000000,4457.435897,4221.538461,4220.000000,4495.384615,4212.820512,4669.230769,4002.564102,4061.025641
189,4389.230769,4521.025641,4540.000000,4302.051282,4515.384615,4202.051282,4466.666666,4232.820512,4223.076923,4502.564102,4209.230769,4675.384615,4007.692307,4066.666666
190,4387.692307,4519.487179,4540.512820,4296.923076,4511.794871,4201.538461,4463.076923,4234.358974,4222.564102,4500.512820,4204.615384,4672.307692,3997.435898,4062.564102
191,4387.179487,4518.974358,4541.025641,4300.000000,4511.282051,4199.487179,4455.897435,4227.179487,4218.461538,4500.000000,4204.615384,4666.153846,3992.820513,4055.384615
192,4386.666666,4516.410256,4541.538461,4303.076923,4511.282051,4194.871794,4456.923076,4227.179487,4221.538461,4504.102564,4202.051282,4667.692307,3997.435898,4060.000000
193,4385.128205,4514.358974,4539.487179,4295.897435,4507.179487,4189.743589,4460.512820,4231.282051,4221.538461,4501.538461,4205.641025,4672.307692,4002.564102,4065.128205
194,4380.512820,4511.794871,4538.461538,4288.717948,4503.589743,4188.717948,4454.358974,4225.641025,4214.871794,4496.410256,4208.717948,4666.666666,3995.384616,4054.871794
195,4373.333333,4507.692307,4532.820512,4287.179487,4500.000000,4188.717948,4447.692307,4223.076923,4217.948717,4497.948717,4201.025641,4658.461538,3981.025642,4047.692307
196,4373.846153,4504.615384,4525.128205,4288.205128,4499.487179,4187.179487,4450.769230,4227.179487,4223.589743,4496.410256,4192.820512,4656.923076,3979.487180,4050.256410
197,4374.871794,4507.692307,4523.076923,4289.230769,4506.666666,4187.692307,4453.846153,4225.641025,4212.820512,4492.820512,4190.256410,4656.923076,3985.641026,4046.153846
198,4370.256410,4512.820512,4527.179487,4290.256410,4508.205128,4191.794871,4452.307692,4223.076923,4204.102564,4496.923076,4192.820512,4656.410256,3983.076924,4043.589743
199,4371.794871,4514.358974,4531.282051,4290.769230,4503.589743,4190.769230,4448.717948,4221.538461,4210.256410,4496.923076,4196.923076,4658.974358,3982.564103,4051.794871
200,4384.102564,4516.923076,4537.435897,4295.384615,4506.666666,4190.769230,4451.282051,4224.615384,4219.487179,4496.923076,4193.846153,4666.666666,3994.358975,4062.564102
201,4389.743589,4519.487179,4542.564102,4296.923076,4508.717948,4196.410256,4458.461538,4231.282051,4223.589743,4501.025641,4191.794871,4671.282051,3997.948718,4065.641025
202,4380.000000,4513.846153,4539.487179,4286.666666,4503.589743,4193.333333,4457.435897,4228.205128,4221.025641,4495.897435,4200.000000,4662.564102,3988.717949,4056.923076
203,4372.820512,4505.128205,4532.307692,4279.487179,4498.461538,4186.153846,4451.282051,4220.000000,4220.512820,4488.717948,4200.000000,4652.307692,3981.538462,4045.128205
204,4377.435897,4508.205128,4533.333333,4287.692307,4500.512820,4187.179487,4453.846153,4224.102564,4223.076923,4495.384615,4194.871794,4656.923076,3983.076924,4044.615384
205,4384.102564,4516.923076,4539.487179,4298.974358,4507.692307,4194.358974,4458.974358,4231.282051,4223.589743,4500.512820,4201.025641,4668.205128,3992.820513,4054.358974
206,4386.153846,4521.025641,4541.538461,4297.435897,4508.205128,4198.461538,4454.871794,4227.179487,4220.512820,4498.461538,4205.641025,4670.256410,4002.564102,4060.000000
207,4390.256410,4519.487179,4546.666666,4295.384615,4506.153846,4196.410256,4453.846153,4228.717948,4222.564102,4503.076923,4206.153846,4670.769230,4004.102564,4059.487179
208,4392.820512,4517.435897,4552.820512,4298.974358,4506.666666,4194.358974,4458.461538,4234.358974,4226.153846,4506.666666,4206.666666,4674.871794,4000.000000,4061.025641
209,4388.717948,4514.871794,4546.666666,4296.923076,4507.692307,4196.410256,4458.461538,4232.820512,4229.743589,4498.461538,4200.000000,4673.846153,3998.974359,4063.589743
210,4385.128205,4512.820512,4536.410256,4289.230769,4507.692307,4195.384615,4452.307692,4228.205128,4230.769230,4495.897435,4192.307692,4665.641025,3997.948718,4058.974358
211,4382.051282,4514.358974,4535.384615,4286.153846,4506.153846,4191.794871,4449.743589,4224.615384,4224.102564,4501.025641,4193.846153,4660.000000,3990.769231,4053.846153
212,4383.076923,4517.435897,4538.461538,4289.230769,4507.179487,4196.923076,4453.333333,4229.743589,4227.179487,4503.076923,4202.564102,4665.641025,3987.179488,4056.410256
213,4388.205128,4519.487179,4538.461538,4292.820512,4510.769230,4204.102564,4454.871794,4236.410256,4237.435897,4503.589743,4212.820512,4670.256410,3996.923077,4061.538461
214,4389.230769,4518.461538,4537.948717,4293.846153,4508.205128,4199.487179,4450.256410,4233.333333,4233.846153,4503.589743,4215.897435,4667.179487,4001.025641,4060.512820
215,4384.615384,4515.897435,4535.384615,4291.282051,4504.615384,4190.769230,4447.179487,4231.282051,4223.076923,4506.153846,4207.179487,4663.076923,3990.769231,4054.871794
216,4381.025641,4514.871794,4533.846153,4288.205128,4507.692307,4191.794871,4449.743589,4234.358974,4223.076923,4506.666666,4200.000000,4662.051282,3983.076924,4051.794871
217,4381.025641,4514.358974,4532.307692,4287.692307,4504.615384,4195.384615,4451.794871,4231.794871,4232.307692,4501.538461,4196.923076,4662.051282,3982.564103,4049.743589
218,4380.000000,4515.384615,4527.179487,4289.743589,4496.410256,4192.820512,4447.692307,4224.615384,4227.692307,4493.846153,4184.615384,4656.410256,3985.641026,4045.641025
219,4375.384615,4514.358974,4518.461538,4287.179487,4500.000000,4188.717948,4440.512820,4218.461538,4210.769230,4488.205128,4179.487179,4647.179487,3984.102565,4041.538461
220,4373.846153,4514.358974,4519.487179,4285.641025,4506.153846,4190.256410,4441.025641,4217.435897,4210.769230,4490.256410,4196.923076,4648.205128,3976.923077,4042.051282
221,4387.179487,4524.615384,4534.871794,4292.820512,4510.769230,4197.435897,4450.769230,4224.615384,4222.051282,4497.435897,4208.717948,4660.000000,3982.564103,4051.282051
222,4396.923076,4533.333333,4543.076923,4301.025641,4514.871794,4200.000000,4452.820512,4225.128205,4215.897435,4499.487179,4201.538461,4662.564102,3995.384616,4058.974358
223,4390.769230,4526.666666,4533.333333,4300.512820,4511.794871,4194.871794,4446.666666,4217.948717,4208.717948,4495.897435,4198.461538,4656.923076,3995.897436,4058.974358
224,4388.717948,4520.000000,4530.769230,4296.410256,4505.128205,4191.794871,4446.666666,4220.512820,4215.897435,4491.282051,4205.128205,4658.461538,3994.871795,4058.974358
225,4396.410256,4527.179487,4538.974358,4295.897435,4505.641025,4191.794871,4450.769230,4223.589743,4219.487179,4489.743589,4202.564102,4659.487179,3998.461539,4057.948717
226,4400.000000,4532.820512,4535.384615,4293.846153,4506.666666,4190.769230,4446.153846,4221.025641,4222.564102,4496.410256,4195.897435,4657.435897,3991.282052,4052.820512
227,4393.846153,4527.179487,4528.205128,4291.282051,4503.589743,4189.743589,4442.051282,4222.051282,4228.205128,4503.076923,4196.410256,4661.538461,3984.102565,4053.846153
228,4391.282051,4523.076923,4533.333333,4293.846153,4505.641025,4190.769230,4446.666666,4221.538461,4225.128205,4499.487179,4204.102564,4666.153846,3992.307693,4060.000000
229,4394.871794,4523.589743,4539.487179,4297.948717,4506.666666,4191.794871,4450.256410,4221.538461,4217.948717,4495.384615,4208.205128,4663.076923,4001.025641,4064.102564
230,4398.974358,4525.128205,4537.435897,4297.435897,4502.564102,4192.307692,4449.743589,4225.641025,4219.487179,4501.025641,4206.153846,4665.128205,3999.487180,4065.128205
231,4399.487179,4529.230769,4538.974358,4295.384615,4508.205128,4192.307692,4453.333333,4230.769230,4225.128205,4505.641025,4205.641025,4670.769230,3996.923077,4063.076923
232,4400.000000,4532.307692,4543.589743,4300.000000,4517.948717,4196.410256,4461.538461,4237.435897,4227.179487,4503.589743,4212.820512,4672.307692,3997.948718,4062.051282
233,4399.487179,4528.205128,4540.512820,4302.564102,4516.410256,4204.615384,4463.589743,4242.051282,4233.333333,4507.179487,4222.051282,4671.282051,4003.076923,4061.538461
234,4395.384615,4522.051282,4536.923076,4295.897435,4516.923076,4203.589743,4460.000000,4238.461538,4240.512820,4520.000000,4220.512820,4667.692307,4005.641025,4058.461538
235,4392.307692,4526.666666,4535.897435,4291.794871,4520.000000,4200.000000,4455.897435,4235.384615,4238.461538,4522.564102,4209.743589,4661.538461,4003.589743,4057.435897
236,4390.769230,4528.717948,4532.820512,4294.358974,4514.358974,4203.589743,4451.282051,4234.871794,4232.820512,4510.769230,4205.641025,4655.897435,4005.641025,4060.512820
237,4389.743589,4520.000000,4529.743589,4292.307692,4509.743589,4198.974358,4447.179487,4229.230769,4230.256410,4503.076923,4209.743589,4657.948717,4002.051282,4055.384615
238,4390.769230,4516.923076,4533.333333,4286.666666,4510.256410,4190.769230,4449.230769,4229.743589,4225.641025,4503.589743,4210.769230,4663.589743,3991.794872,4050.769230
239,4393.333333,4527.179487,4538.974358,4290.256410,4513.333333,4192.820512,4455.384615,4239.487179,4223.076923,4505.128205,4211.794871,4666.666666,3994.871795,4052.307692
240,4391.794871,4531.794871,4538.461538,4290.256410,4513.846153,4197.948717,4455.384615,4236.410256,4225.641025,4500.512820,4213.333333,4666.666666,4004.102564,4051.794871
241,4389.743589,4526.153846,4534.871794,4287.179487,4516.410256,4198.461538,4447.692307,4226.153846,4227.692307,4502.051282,4208.205128,4663.076923,4003.076923,4050.769230
242,4395.384615,4529.230769,4535.897435,4294.358974,4516.923076,4201.025641,4443.076923,4227.692307,4235.384615,4515.897435,4208.205128,4662.564102,4004.102564,4056.410256
243,4402.564102,4538.461538,4538.974358,4304.615384,4514.871794,4205.128205,4445.641025,4234.358974,4242.564102,4518.974358,4214.871794,4664.102564,4011.794871,4062.051282
244,4401.538461,4536.923076,4540.512820,4304.102564,4515.897435,4204.102564,4446.153846,4229.743589,4236.923076,4505.128205,4213.333333,4663.589743,4006.153846,4060.512820
245,4393.846153,4526.153846,4538.974358,4295.384615,4513.846153,4196.410256,4442.051282,4226.666666,4230.769230,4498.461538,4206.153846,4659.487179,3995.384616,4058.461538
246,4393.846153,4524.102564,4537.435897,4293.333333,4509.230769,4192.307692,4444.615384,4234.871794,4235.897435,4506.666666,4210.769230,4661.025641,4000.512820,4060.512820
247,4400.512820,4532.307692,4538.461538,4297.435897,4509.743589,4197.948717,4449.230769,4235.897435,4234.358974,4509.743589,4217.948717,4666.666666,4007.692307,4062.051282
248,4402.564102,4533.333333,4539.487179,4301.538461,4512.307692,4197.948717,4449.743589,4223.589743,4224.615384,4500.000000,4215.897435,4663.589743,4003.076923,4061.538461
249,4394.358974,4527.179487,4531.282051,4296.410256,4512.307692,4192.820512,4445.641025,4220.512820,4223.589743,4489.230769,4203.076923,4652.820512,3994.871795,4054.358974
250,4387.692307,4526.666666,4522.564102,4290.256410,4513.333333,4194.871794,4444.615384,4225.128205,4226.666666,4491.282051,4195.897435,4646.666666,3990.769231,4048.205128
251,4390.256410,4528.717948,4528.717948,4294.358974,4515.897435,4200.000000,4447.692307,4224.615384,4228.205128,4498.974358,4205.641025,4648.205128,3989.743590,4051.794871
252,4388.717948,4523.076923,4531.794871,4295.897435,4509.743589,4197.948717,4443.589743,4221.538461,4228.717948,4495.897435,4197.948717,4646.666666,3980.512821,4047.179487
253,4380.512820,4515.897435,4523.589743,4287.179487,4506.153846,4192.307692,4440.000000,4221.538461,4226.666666,4487.179487,4172.307692,4643.076923,3973.846154,4034.358974
254,4377.435897,4513.846153,4519.487179,4278.974358,4509.743589,4191.794871,4442.564102,4217.948717,4217.948717,4482.051282,4175.897435,4642.051282,3974.871795,4036.410256
255,4377.435897,4513.333333,4523.589743,4280.512820,4506.153846,4190.769230,4441.025641,4213.333333,4209.230769,4479.487179,4198.461538,4643.076923,3971.282052,4043.076923
256,4384.615384,4519.487179,4530.256410,4289.743589,4504.102564,4190.256410,4442.051282,4216.923076,4213.846153,4488.717948,4203.076923,4649.743589,3976.923077,4045.128205
257,4396.923076,4532.307692,4538.461538,4301.025641,4511.282051,4195.384615,4452.820512,4227.692307,4228.717948,4505.641025,4204.615384,4660.512820,4000.000000,4057.435897
258,4396.410256,4534.358974,4540.000000,4298.461538,4513.333333,4197.435897,4451.794871,4228.717948,4232.307692,4507.692307,4212.307692,4662.051282,4006.666666,4063.589743
259,4386.153846,4524.615384,4530.769230,4282.564102,4508.205128,4193.846153,4438.461538,4220.512820,4224.102564,4498.461538,4205.641025,4653.846153,3990.769231,4051.794871
