,AF3,F7,F3,FC5,T7,P7,O1,O2,P8,T8,FC6,F4,F8,AF4
0,4383.076923,4526.666666,4523.076923,4262.564102,4505.128205,4193.333333,4445.641025,4228.717948,4246.153846,4493.846153,4210.256410,4647.179487,3997.948718,4041.538461
1,4376.410256,4527.692307,4520.512820,4264.615384,4509.743589,4188.717948,4443.076923,4220.512820,4237.435897,4488.205128,4211.794871,4640.000000,3993.846154,4033.333333
2,4368.205128,4514.358974,4508.205128,4254.358974,4504.615384,4182.051282,4435.384615,4213.333333,4226.153846,4483.076923,4204.102564,4631.282051,3986.666667,4026.666666
3,4372.307692,4514.358974,4506.153846,4252.307692,4505.641025,4183.589743,4434.871794,4219.487179,4232.820512,4483.589743,4204.615384,4632.820512,3989.230770,4033.333333
4,4383.589743,4532.307692,4517.435897,4262.564102,4515.897435,4192.820512,4441.538461,4227.179487,4244.102564,4488.205128,4213.333333,4641.538461,3998.461539,4040.512820
5,4387.692307,4536.410256,4524.615384,4267.179487,4522.051282,4201.025641,4447.692307,4227.692307,4242.051282,4492.820512,4219.487179,4647.179487,4005.641025,4041.538461
6,4385.641025,4528.717948,4522.564102,4262.564102,4525.128205,4202.564102,4448.717948,4226.666666,4237.435897,4494.871794,4218.461538,4645.128205,4005.641025,4040.512820
7,4386.666666,4533.846153,4522.564102,4262.051282,4521.538461,4197.435897,4447.692307,4229.230769,4243.589743,4496.410256,4215.897435,4640.000000,4003.589743,4040.512820
8,4388.205128,4544.102564,4525.128205,4267.179487,4510.256410,4199.487179,4445.128205,4229.743589,4244.102564,4499.487179,4215.384615,4640.512820,4002.051282,4041.538461
9,4382.564102,4538.974358,4523.589743,4265.128205,4510.256410,4200.000000,4444.102564,4224.102564,4232.820512,4492.820512,4209.743589,4640.000000,3991.794872,4036.410256
10,4375.384615,4534.358974,4519.487179,4260.512820,4517.948717,4190.256410,4441.538461,4217.948717,4227.179487,4479.487179,4205.641025,4632.307692,3982.564103,4027.179487
11,4380.000000,4538.461538,4521.025641,4266.666666,4516.410256,4189.230769,4442.564102,4220.512820,4233.333333,4476.410256,4208.717948,4634.358974,3991.282052,4028.717948
12,4388.205128,4538.461538,4525.128205,4274.871794,4516.410256,4201.538461,4455.384615,4228.205128,4237.948717,4486.666666,4215.384615,4644.102564,4000.000000,4038.974358
13,4388.205128,4540.512820,4524.615384,4271.282051,4526.666666,4205.641025,4458.974358,4227.179487,4238.461538,4493.846153,4217.948717,4644.102564,3996.923077,4042.051282
14,4385.128205,4546.153846,4522.564102,4270.256410,4526.666666,4199.487179,4447.692307,4222.051282,4236.410256,4489.743589,4214.871794,4642.051282,3998.461539,4038.974358
15,4388.205128,4548.717948,4524.102564,4276.923076,4520.512820,4200.512820,4444.102564,4225.128205,4239.487179,4492.820512,4217.435897,4649.743589,4008.717948,4043.076923
16,4390.256410,4542.051282,4525.641025,4271.794871,4524.102564,4204.102564,4447.692307,4224.615384,4244.615384,4498.974358,4223.589743,4653.333333,4009.230769,4047.692307
17,4384.615384,4537.948717,4522.564102,4261.025641,4518.461538,4196.923076,4443.589743,4215.897435,4240.512820,4489.743589,4216.923076,4647.179487,3998.461539,4040.000000
18,4379.487179,4539.487179,4520.512820,4262.564102,4513.333333,4196.410256,4442.564102,4216.410256,4234.871794,4482.051282,4210.769230,4644.615384,3998.461539,4034.871794
19,4380.000000,4536.410256,4520.512820,4264.102564,4515.384615,4198.974358,4445.128205,4217.948717,4230.256410,4483.076923,4212.820512,4642.564102,4000.000000,4032.307692
20,4382.564102,4529.230769,4517.948717,4259.487179,4510.769230,4190.769230,4437.948717,4214.871794,4230.256410,4488.717948,4210.769230,4638.974358,3992.820513,4026.153846
21,4380.512820,4532.307692,4518.461538,4261.025641,4514.358974,4188.717948,4434.871794,4216.410256,4233.333333,4501.538461,4200.512820,4641.538461,3995.897436,4028.717948
22,4376.923076,4534.871794,4520.512820,4260.000000,4521.538461,4194.871794,4440.512820,4215.384615,4230.769230,4506.153846,4197.435897,4644.102564,3996.923077,4031.282051
23,4381.538461,4528.205128,4520.000000,4250.256410,4513.333333,4191.794871,4444.102564,4214.358974,4228.205128,4495.384615,4202.051282,4642.051282,3984.615385,4023.589743
24,4381.538461,4525.641025,4520.000000,4246.153846,4507.179487,4190.769230,4443.589743,4217.948717,4230.256410,4502.564102,4202.051282,4643.589743,3981.025642,4023.076923
25,4380.512820,4530.769230,4523.076923,4254.358974,4515.897435,4196.923076,4444.102564,4220.000000,4234.358974,4522.051282,4202.051282,4651.794871,3995.384616,4032.820512
26,4384.615384,4529.230769,4524.615384,4257.435897,4522.564102,4190.769230,4443.589743,4217.435897,4233.846153,4518.461538,4203.589743,4654.358974,4000.000000,4036.410256
27,4381.538461,4521.025641,4521.538461,4248.717948,4516.923076,4181.538461,4440.512820,4212.820512,4228.205128,4503.589743,4196.923076,4647.692307,3992.307693,4031.282051
28,4375.384615,4520.512820,4522.564102,4246.153846,4505.128205,4186.666666,4442.051282,4214.358974,4224.615384,4505.128205,4188.205128,4642.051282,3990.769231,4026.666666
29,4374.871794,4525.641025,4519.487179,4252.307692,4503.589743,4190.769230,4444.615384,4215.897435,4228.717948,4510.256410,4191.282051,4640.512820,3992.307693,4024.102564
30,4369.230769,4517.435897,4511.794871,4246.666666,4515.384615,4186.153846,4443.076923,4207.179487,4226.153846,4507.692307,4194.871794,4634.871794,3987.179488,4019.487179
31,4362.051282,4508.205128,4507.692307,4234.871794,4513.846153,4182.051282,4439.487179,4197.435897,4216.410256,4508.717948,4190.769230,4628.717948,3981.025642,4017.435897
32,4366.666666,4515.384615,4510.256410,4241.025641,4502.051282,4182.564102,4440.000000,4203.076923,4222.564102,4519.487179,4193.333333,4634.358974,3986.666667,4023.076923
33,4368.717948,4521.538461,4517.948717,4253.333333,4506.153846,4187.692307,4445.128205,4214.871794,4235.897435,4533.333333,4202.564102,4643.076923,3997.435898,4029.230769
34,4369.743589,4517.435897,4518.461538,4251.282051,4509.743589,4187.692307,4446.666666,4217.948717,4237.435897,4542.051282,4205.128205,4645.641025,4000.000000,4027.179487
35,4374.358974,4515.384615,4513.846153,4244.102564,4506.153846,4182.051282,4436.923076,4212.820512,4231.282051,4544.615384,4201.538461,4643.076923,3997.948718,4025.128205
36,4369.743589,4512.820512,4514.358974,4246.153846,4505.128205,4178.974358,4429.230769,4207.692307,4230.256410,4549.743589,4197.435897,4641.538461,3998.461539,4026.666666
37,4369.230769,4514.358974,4524.102564,4251.794871,4506.153846,4184.615384,4437.948717,4212.307692,4236.410256,4568.717948,4203.076923,4648.717948,4003.589743,4035.384615
38,4380.512820,4522.051282,4530.769230,4250.769230,4509.743589,4188.205128,4445.128205,4221.025641,4240.512820,4585.641025,4214.358974,4656.923076,4008.717948,4043.589743
39,4387.179487,4523.076923,4532.307692,4250.769230,4509.743589,4185.128205,4442.051282,4226.153846,4242.051282,4588.205128,4218.974358,4658.974358,4011.282051,4043.589743
40,4387.692307,4521.025641,4536.410256,4258.974358,4504.102564,4185.128205,4443.589743,4230.256410,4245.641025,4589.230769,4221.025641,4661.538461,4013.333333,4044.102564
41,4388.717948,4523.589743,4538.974358,4266.153846,4503.076923,4188.717948,4448.205128,4234.358974,4246.153846,4594.871794,4222.564102,4665.641025,4013.846153,4047.692307
42,4385.641025,4522.051282,4533.846153,4262.051282,4506.666666,4187.692307,4445.641025,4232.820512,4242.051282,4594.871794,4217.948717,4663.589743,4008.717948,4044.615384
43,4382.051282,4518.461538,4529.743589,4251.794871,4506.153846,4183.589743,4442.564102,4225.128205,4240.000000,4590.256410,4210.769230,4656.923076,4003.076923,4040.512820
44,4381.025641,4514.358974,4530.769230,4245.641025,4506.153846,4186.666666,4444.615384,4225.641025,4245.128205,4594.358974,4211.794871,4655.897435,4006.666666,4037.948717
45,4378.461538,4512.820512,4531.282051,4250.769230,4506.666666,4189.743589,4444.615384,4226.153846,4242.564102,4595.897435,4210.256410,4657.948717,4009.230769,4035.384615
46,4381.538461,4527.692307,4531.794871,4263.589743,4507.179487,4187.692307,4442.564102,4217.948717,4232.307692,4591.794871,4204.615384,4659.487179,4008.205128,4037.948717
47,4392.307692,4541.538461,4537.948717,4267.692307,4520.000000,4193.333333,4444.615384,4218.461538,4236.410256,4596.923076,4214.358974,4661.025641,4010.256410,4045.641025
48,4394.871794,4537.435897,4540.000000,4263.589743,4523.076923,4197.435897,4446.153846,4228.717948,4246.666666,4606.153846,4228.205128,4664.615384,4015.897435,4050.256410
49,4391.794871,4535.384615,4535.897435,4266.153846,4511.794871,4193.333333,4444.615384,4228.717948,4247.692307,4605.641025,4228.717948,4665.641025,4020.000000,4051.794871
50,4392.307692,4539.487179,4536.923076,4268.717948,4510.256410,4195.384615,4444.615384,4225.641025,4244.615384,4602.051282,4227.179487,4664.102564,4018.974358,4050.769230
51,4388.717948,4532.820512,4535.384615,4261.025641,4513.846153,4198.461538,4447.692307,4234.358974,4245.641025,4607.692307,4227.692307,4663.589743,4015.384615,4047.179487
52,4380.000000,4523.076923,4524.102564,4256.410256,4513.846153,4191.282051,4445.128205,4233.846153,4242.564102,4604.102564,4217.948717,4658.974358,4015.897435,4044.102564
53,4376.410256,4523.076923,4520.000000,4258.461538,4514.871794,4183.589743,4441.025641,4220.000000,4237.948717,4595.897435,4213.333333,4653.333333,4017.948717,4043.589743
54,4379.487179,4524.615384,4525.641025,4262.051282,4510.769230,4191.282051,4447.179487,4220.000000,4242.051282,4601.025641,4222.564102,4654.358974,4013.333333,4040.000000
55,4378.974358,4524.615384,4527.179487,4265.128205,4501.538461,4197.948717,4453.846153,4230.769230,4247.692307,4604.102564,4218.974358,4656.923076,4008.205128,4037.948717
56,4369.230769,4520.512820,4520.512820,4258.974358,4502.051282,4191.794871,4448.717948,4228.717948,4242.564102,4591.282051,4204.615384,4650.769230,4002.564102,4035.384615
57,4361.025641,4511.794871,4517.948717,4247.692307,4506.153846,4184.102564,4442.051282,4217.435897,4233.846153,4583.589743,4203.076923,4644.102564,3993.333334,4032.307692
58,4365.641025,4514.871794,4521.025641,4246.153846,4505.128205,4185.641025,4444.615384,4217.435897,4236.923076,4595.897435,4215.384615,4646.666666,3992.307693,4031.794871
59,4372.307692,4523.589743,4521.538461,4251.794871,4505.641025,4190.769230,4446.666666,4219.487179,4239.487179,4601.538461,4219.487179,4649.230769,4000.000000,4029.743589
60,4372.307692,4522.051282,4521.025641,4256.923076,4504.102564,4193.846153,4449.230769,4217.948717,4236.410256,4596.410256,4213.333333,4648.205128,4005.641025,4029.743589
61,4375.897435,4521.538461,4528.205128,4264.615384,4506.153846,4198.974358,4456.410256,4226.666666,4241.538461,4601.538461,4215.897435,4653.846153,4010.256410,4039.487179
62,4381.025641,4526.153846,4537.948717,4267.179487,4509.743589,4201.538461,4455.897435,4233.846153,4246.666666,4605.128205,4222.051282,4663.589743,4011.282051,4049.230769
63,4381.538461,4522.051282,4540.000000,4265.641025,4508.205128,4197.435897,4447.692307,4227.692307,4239.487179,4595.384615,4218.461538,4666.666666,4007.179487,4050.256410
64,4380.000000,4517.435897,4535.384615,4265.128205,4506.153846,4194.358974,4445.641025,4221.538461,4234.871794,4587.692307,4216.410256,4663.076923,4008.717948,4044.102564
65,4372.820512,4519.487179,4528.717948,4254.871794,4509.230769,4192.307692,4446.153846,4223.076923,4240.512820,4588.205128,4217.435897,4656.410256,4009.743589,4036.923076
66,4363.589743,4515.384615,4520.512820,4246.153846,4507.179487,4188.717948,4441.025641,4221.025641,4235.384615,4582.564102,4204.102564,4648.205128,3998.974359,4029.230769
67,4362.051282,4510.769230,4517.435897,4249.743589,4495.384615,4182.564102,4440.512820,4215.897435,4225.641025,4577.948717,4197.435897,4645.128205,3991.282052,4027.692307
68,4362.051282,4512.307692,4522.051282,4250.769230,4488.717948,4181.025641,4442.051282,4213.846153,4226.153846,4578.974358,4207.179487,4646.666666,3995.384616,4028.717948
69,4360.000000,4510.256410,4517.948717,4244.102564,4490.769230,4184.615384,4436.923076,4212.820512,4229.230769,4572.820512,4204.102564,4642.564102,3995.384616,4025.128205
70,4360.000000,4509.743589,4507.692307,4248.717948,4494.871794,4184.615384,4430.769230,4212.820512,4227.179487,4574.358974,4199.487179,4639.487179,3994.358975,4022.051282
71,4361.538461,4518.974358,4510.769230,4255.384615,4498.974358,4182.564102,4429.230769,4214.358974,4230.256410,4587.179487,4208.717948,4643.589743,4000.000000,4024.102564
72,4370.256410,4528.205128,4523.076923,4256.410256,4505.641025,4187.179487,4436.410256,4216.410256,4236.410256,4589.230769,4214.358974,4649.230769,4004.102564,4031.282051
73,4375.897435,4524.615384,4525.641025,4258.974358,4509.230769,4192.820512,4443.076923,4215.897435,4234.871794,4584.102564,4212.820512,4649.743589,4004.102564,4034.358974
74,4369.230769,4514.358974,4521.025641,4256.410256,4504.102564,4190.256410,4437.435897,4214.871794,4236.410256,4586.153846,4208.717948,4650.256410,4007.179487,4031.282051
75,4362.564102,4510.769230,4520.512820,4252.307692,4498.974358,4183.589743,4426.153846,4212.307692,4237.435897,4583.589743,4203.076923,4649.230769,4008.205128,4025.128205
76,4361.538461,4512.820512,4520.512820,4256.410256,4504.102564,4184.102564,4425.641025,4206.153846,4230.769230,4572.820512,4202.564102,4641.025641,4000.512820,4020.512820
77,4365.128205,4518.461538,4520.000000,4261.538461,4508.717948,4185.128205,4431.282051,4201.538461,4228.717948,4570.256410,4209.743589,4639.487179,3993.333334,4021.538461
78,4369.743589,4526.153846,4521.538461,4262.564102,4503.076923,4184.615384,4429.743589,4200.512820,4229.230769,4569.230769,4207.179487,4648.205128,3995.897436,4023.589743
79,4371.794871,4530.256410,4522.051282,4268.717948,4501.025641,4186.153846,4426.153846,4201.025641,4223.589743,4567.692307,4198.461538,4647.692307,4000.512820,4028.205128
80,4370.769230,4526.153846,4521.025641,4276.923076,4504.102564,4185.641025,4427.692307,4198.974358,4217.948717,4570.256410,4202.564102,4639.487179,4001.538461,4031.282051
81,4370.769230,4523.076923,4520.000000,4277.435897,4505.128205,4183.589743,4426.666666,4196.923076,4220.000000,4571.794871,4211.794871,4640.512820,3997.948718,4027.179487
82,4369.743589,4523.589743,4520.512820,4283.076923,4505.641025,4183.589743,4422.051282,4195.384615,4221.025641,4562.564102,4204.615384,4643.076923,3994.358975,4023.589743
83,4367.692307,4524.102564,4521.025641,4293.333333,4502.564102,4183.589743,4423.076923,4196.923076,4221.538461,4554.871794,4198.461538,4642.564102,4000.000000,4030.256410
84,4371.794871,4527.692307,4523.589743,4295.897435,4505.128205,4186.666666,4430.256410,4200.000000,4224.102564,4566.153846,4216.410256,4647.179487,4010.256410,4038.974358
85,4377.948717,4526.153846,4524.615384,4292.307692,4514.358974,4187.179487,4430.256410,4201.538461,4224.102564,4573.846153,4225.641025,4651.794871,4014.871794,4040.000000
86,4378.461538,4520.000000,4524.615384,4296.410256,4504.102564,4182.564102,4427.179487,4204.102564,4226.666666,4568.717948,4215.384615,4654.358974,4015.384615,4041.025641
87,4380.512820,4525.128205,4528.205128,4302.051282,4493.846153,4185.128205,4428.717948,4206.666666,4236.923076,4573.333333,4218.461538,4658.461538,4013.846153,4044.102564
88,4374.871794,4529.743589,4522.564102,4300.000000,4504.102564,4186.666666,4426.153846,4203.076923,4232.820512,4570.769230,4221.538461,4654.358974,4004.102564,4035.897435
89,4360.512820,4518.974358,4510.256410,4293.846153,4502.564102,4176.923076,4424.102564,4197.435897,4217.948717,4550.256410,4206.153846,4641.025641,3995.384616,4022.564102
90,4361.025641,4515.384615,4513.333333,4292.307692,4490.256410,4175.384615,4426.153846,4201.538461,4222.564102,4553.333333,4201.538461,4639.487179,3996.923077,4024.102564
91,4376.923076,4528.205128,4523.589743,4299.487179,4497.948717,4183.589743,4426.666666,4210.256410,4232.307692,4569.230769,4214.871794,4651.794871,4002.564102,4032.307692
92,4382.564102,4538.974358,4525.641025,4310.256410,4510.769230,4189.230769,4434.358974,4214.871794,4232.307692,4569.230769,4220.000000,4659.487179,4009.743589,4039.487179
93,4378.974358,4537.435897,4525.128205,4314.871794,4507.692307,4193.846153,4442.564102,4219.487179,4238.974358,4574.871794,4218.974358,4656.410256,4009.743589,4043.589743
94,4377.948717,4528.205128,4523.589743,4307.692307,4504.102564,4192.307692,4435.384615,4219.487179,4238.974358,4573.846153,4214.871794,4650.256410,4004.102564,4036.923076
95,4373.846153,4522.564102,4521.025641,4298.974358,4509.230769,4186.153846,4426.153846,4207.179487,4221.025641,4548.717948,4204.615384,4647.179487,3995.384616,4027.179487
96,4364.102564,4519.487179,4521.025641,4294.358974,4509.743589,4183.076923,4427.179487,4201.025641,4216.410256,4538.974358,4203.589743,4645.128205,3982.051283,4022.564102
97,4365.128205,4519.487179,4522.564102,4295.384615,4500.000000,4187.179487,4432.820512,4211.794871,4233.333333,4555.384615,4215.897435,4646.666666,3986.666667,4025.128205
98,4376.410256,4527.179487,4524.102564,4303.076923,4496.923076,4192.307692,4435.384615,4220.000000,4236.410256,4561.538461,4219.487179,4648.717948,4007.179487,4034.871794
99,4378.461538,4529.230769,4523.589743,4302.564102,4506.153846,4189.230769,4430.256410,4212.307692,4229.230769,4550.769230,4212.307692,4647.179487,4009.230769,4038.974358
100,4374.358974,4526.153846,4520.512820,4302.051282,4509.230769,4187.692307,4427.692307,4209.743589,4233.333333,4553.846153,4213.846153,4649.743589,4000.512820,4033.846153
101,4381.538461,4534.871794,4525.128205,4310.769230,4505.641025,4196.923076,4439.487179,4215.384615,4238.461538,4564.102564,4225.641025,4656.923076,4008.205128,4038.461538
102,4385.128205,4538.461538,4529.230769,4309.230769,4508.205128,4198.461538,4441.025641,4209.743589,4226.153846,4551.794871,4225.128205,4655.384615,4009.743589,4040.512820
103,4376.410256,4529.743589,4522.051282,4295.384615,4506.153846,4184.615384,4428.717948,4197.948717,4217.435897,4536.410256,4216.923076,4646.666666,3994.871795,4026.666666
104,4369.230769,4527.179487,4514.871794,4293.333333,4502.564102,4182.051282,4425.128205,4197.948717,4226.153846,4547.179487,4216.923076,4646.666666,3992.820513,4024.615384
105,4365.128205,4520.512820,4508.717948,4297.435897,4508.205128,4185.128205,4424.615384,4199.487179,4224.102564,4548.717948,4211.282051,4645.128205,4001.025641,4030.769230
106,4364.615384,4511.282051,4508.717948,4292.820512,4505.128205,4180.512820,4421.025641,4198.461538,4215.384615,4531.282051,4202.051282,4641.025641,4003.589743,4028.717948
107,4377.435897,4521.538461,4521.538461,4294.358974,4494.358974,4182.564102,4425.641025,4212.307692,4229.230769,4545.641025,4213.846153,4650.256410,4003.589743,4032.307692
108,4386.153846,4530.256410,4526.153846,4300.000000,4492.307692,4188.717948,4431.282051,4218.974358,4243.076923,4564.102564,4227.692307,4656.923076,4001.025641,4038.461538
109,4375.384615,4521.538461,4512.307692,4296.410256,4492.820512,4183.076923,4422.564102,4203.076923,4231.794871,4541.538461,4211.282051,4643.589743,3989.743590,4027.179487
110,4363.076923,4518.461538,4504.615384,4286.153846,4492.307692,4177.435897,4414.871794,4194.358974,4217.435897,4522.051282,4195.384615,4631.282051,3981.538462,4018.974358
111,4366.153846,4522.564102,4510.256410,4284.102564,4501.538461,4182.564102,4421.025641,4201.538461,4216.410256,4531.282051,4209.743589,4635.384615,3986.153847,4026.666666
112,4368.205128,4523.589743,4509.230769,4291.794871,4503.589743,4186.153846,4429.230769,4203.589743,4216.410256,4529.743589,4219.487179,4635.897435,3987.179488,4024.615384
113,4364.615384,4523.076923,4505.641025,4295.897435,4497.948717,4184.102564,4426.666666,4201.538461,4216.923076,4523.076923,4203.589743,4629.743589,3984.615385,4017.435897
114,4366.153846,4521.538461,4508.205128,4292.307692,4505.641025,4182.564102,4423.076923,4202.051282,4220.000000,4531.282051,4196.923076,4634.358974,3992.307693,4024.615384
115,4371.282051,4521.538461,4508.717948,4291.794871,4506.666666,4184.102564,4426.666666,4201.538461,4224.615384,4531.282051,4213.846153,4640.000000,3999.487180,4032.820512
116,4374.871794,4522.564102,4507.692307,4294.358974,4497.435897,4192.307692,4429.743589,4208.205128,4231.794871,4528.205128,4220.000000,4636.410256,3994.871795,4028.205128
117,4374.871794,4523.589743,4507.692307,4287.692307,4494.871794,4194.871794,4428.205128,4215.897435,4236.923076,4534.871794,4212.820512,4635.384615,3991.794872,4023.076923
118,4373.846153,4525.128205,4507.179487,4285.128205,4498.461538,4188.205128,4427.692307,4216.410256,4235.897435,4536.410256,4215.897435,4642.051282,4000.512820,4027.179487
119,4371.794871,4524.102564,4508.205128,4293.333333,4503.076923,4187.692307,4429.230769,4215.384615,4232.820512,4531.282051,4218.974358,4642.564102,4006.153846,4032.820512
120,4366.153846,4514.871794,4503.076923,4294.871794,4500.000000,4186.666666,4421.025641,4207.179487,4226.666666,4528.205128,4209.230769,4633.846153,3997.948718,4028.205128
121,4361.538461,4511.282051,4494.871794,4288.205128,4492.307692,4178.974358,4409.743589,4197.435897,4221.025641,4521.538461,4201.538461,4631.794871,3988.717949,4020.512820
122,4369.230769,4520.000000,4498.974358,4289.230769,4500.512820,4178.974358,4416.410256,4203.589743,4226.666666,4517.435897,4213.333333,4638.974358,3993.846154,4022.564102
123,4378.461538,4526.666666,4508.205128,4292.820512,4514.358974,4188.717948,4429.230769,4215.897435,4234.358974,4522.564102,4221.025641,4645.641025,3997.948718,4026.666666
124,4372.820512,4523.589743,4506.666666,4288.717948,4507.692307,4194.358974,4430.769230,4216.923076,4233.333333,4529.230769,4206.153846,4643.076923,3991.282052,4027.179487
125,4368.205128,4520.000000,4505.641025,4282.051282,4501.538461,4192.307692,4429.743589,4212.820512,4234.871794,4528.717948,4197.435897,4641.538461,3989.230770,4027.692307
126,4368.717948,4521.538461,4504.615384,4281.538461,4506.666666,4187.179487,4429.743589,4211.794871,4235.384615,4518.974358,4208.205128,4644.615384,3992.307693,4025.128205
127,4370.256410,4521.025641,4504.615384,4286.153846,4505.128205,4182.564102,4427.179487,4213.333333,4229.743589,4514.358974,4215.897435,4646.666666,3991.794872,4025.641025
128,4379.487179,4523.589743,4514.358974,4296.923076,4504.102564,4187.692307,4429.743589,4217.435897,4233.846153,4522.051282,4220.000000,4650.256410,3997.948718,4032.820512
129,4381.025641,4532.307692,4516.923076,4301.538461,4506.666666,4194.871794,4432.307692,4216.923076,4240.000000,4522.564102,4217.948717,4650.769230,3999.487180,4031.282051
130,4375.384615,4534.358974,4508.205128,4297.948717,4509.743589,4193.333333,4429.230769,4213.846153,4234.358974,4513.333333,4207.179487,4647.692307,3989.743590,4026.153846
131,4373.846153,4526.666666,4506.666666,4292.307692,4509.230769,4187.692307,4428.205128,4212.820512,4229.743589,4508.717948,4207.692307,4644.615384,3990.256411,4028.205128
132,4371.282051,4521.025641,4506.666666,4289.743589,4506.153846,4185.128205,4427.179487,4210.769230,4228.205128,4511.794871,4218.461538,4642.051282,3994.358975,4025.128205
133,4372.820512,4524.615384,4504.102564,4294.871794,4509.743589,4189.230769,4429.230769,4213.846153,4231.282051,4524.102564,4219.487179,4643.589743,3995.897436,4024.615384
134,4380.512820,4529.230769,4506.153846,4295.897435,4512.820512,4195.897435,4434.358974,4215.384615,4238.461538,4526.666666,4213.333333,4646.153846,4000.512820,4028.717948
135,4380.512820,4527.692307,4508.717948,4294.358974,4505.128205,4198.461538,4434.358974,4213.333333,4237.435897,4512.820512,4213.333333,4645.128205,3999.487180,4025.128205
136,4374.358974,4523.589743,4507.692307,4295.897435,4505.641025,4200.000000,4432.820512,4216.923076,4237.435897,4512.307692,4220.000000,4644.615384,3990.769231,4022.051282
137,4371.282051,4521.538461,4505.641025,4287.179487,4515.384615,4195.384615,4429.743589,4216.923076,4240.512820,4517.435897,4217.435897,4642.564102,3988.717949,4026.153846
138,4370.769230,4520.512820,4504.102564,4277.948717,4512.307692,4188.205128,4429.230769,4209.230769,4235.384615,4508.205128,4203.076923,4638.461538,3990.769231,4026.153846
139,4374.358974,4523.589743,4506.153846,4288.717948,4504.102564,4193.333333,4438.974358,4210.769230,4233.846153,4510.256410,4202.564102,4640.000000,3992.820513,4023.589743
140,4376.923076,4526.666666,4508.717948,4296.923076,4506.666666,4200.512820,4444.615384,4220.000000,4240.000000,4518.461538,4216.410256,4638.974358,3997.948718,4025.641025
141,4373.333333,4524.102564,4506.153846,4286.666666,4513.333333,4193.846153,4438.974358,4216.410256,4240.512820,4509.230769,4217.435897,4630.769230,3996.410257,4023.076923
142,4374.871794,4527.692307,4504.615384,4286.153846,4515.897435,4191.794871,4436.923076,4211.282051,4236.923076,4511.282051,4212.307692,4635.384615,3994.871795,4023.589743
143,4383.076923,4535.897435,4507.692307,4297.948717,4517.435897,4202.564102,4443.589743,4218.461538,4240.000000,4530.256410,4218.974358,4645.641025,4004.615384,4031.282051
144,4384.102564,4531.794871,4510.769230,4293.333333,4520.512820,4204.615384,4444.102564,4222.564102,4243.589743,4527.692307,4228.205128,4642.051282,4009.743589,4033.846153
145,4377.948717,4520.512820,4508.717948,4281.025641,4518.974358,4195.384615,4435.384615,4214.871794,4240.000000,4515.384615,4221.538461,4633.846153,4002.051282,4027.179487
146,4374.358974,4516.923076,4504.102564,4278.974358,4510.769230,4190.769230,4430.769230,4210.769230,4233.333333,4520.000000,4208.205128,4631.794871,3997.948718,4023.076923
147,4383.589743,4520.000000,4507.692307,4280.000000,4502.051282,4195.384615,4438.461538,4222.564102,4239.487179,4530.256410,4211.282051,4639.487179,4007.179487,4032.820512
148,4391.794871,4523.589743,4518.461538,4281.025641,4510.256410,4202.051282,4444.615384,4231.794871,4253.846153,4537.948717,4222.564102,4647.692307,4014.871794,4040.000000
149,4389.230769,4525.128205,4521.538461,4285.128205,4524.102564,4200.000000,4439.487179,4228.205128,4250.256410,4540.000000,4220.000000,4645.641025,4011.794871,4035.897435
150,4388.205128,4521.538461,4518.974358,4292.820512,4517.948717,4196.923076,4438.974358,4225.128205,4243.076923,4544.102564,4215.384615,4643.076923,4007.179487,4033.846153
151,4393.846153,4522.564102,4522.564102,4297.948717,4506.153846,4202.051282,4444.615384,4229.743589,4248.717948,4553.846153,4218.974358,4649.743589,4012.307692,4038.974358
152,4395.897435,4528.717948,4526.153846,4292.820512,4509.743589,4203.076923,4446.153846,4233.846153,4251.282051,4559.487179,4221.025641,4652.307692,4017.948717,4041.025641
153,4388.717948,4526.666666,4521.538461,4281.025641,4513.333333,4193.846153,4439.487179,4225.128205,4243.076923,4556.410256,4216.410256,4647.692307,4010.256410,4040.512820
154,4382.564102,4519.487179,4518.461538,4276.923076,4506.153846,4188.717948,4431.794871,4214.871794,4232.820512,4547.692307,4209.230769,4645.128205,4000.512820,4037.948717
155,4385.128205,4517.435897,4520.512820,4286.666666,4502.051282,4193.333333,4435.897435,4217.435897,4229.230769,4545.128205,4204.615384,4644.615384,4003.589743,4032.820512
156,4391.282051,4522.051282,4522.564102,4289.230769,4506.666666,4198.974358,4443.589743,4225.128205,4235.384615,4554.358974,4206.666666,4648.205128,4011.282051,4035.897435
157,4385.128205,4523.589743,4522.564102,4281.025641,4512.307692,4200.512820,4443.589743,4225.641025,4241.025641,4555.897435,4209.743589,4650.769230,4011.794871,4042.051282
158,4374.871794,4515.384615,4518.461538,4274.358974,4513.333333,4196.923076,4442.564102,4225.641025,4237.435897,4549.743589,4207.692307,4647.179487,4006.153846,4037.948717
159,4380.000000,4511.282051,4516.923076,4268.717948,4508.205128,4194.358974,4443.589743,4231.282051,4236.410256,4556.923076,4208.717948,4646.153846,4006.153846,4035.897435
160,4389.743589,4518.974358,4521.025641,4270.256410,4504.615384,4196.410256,4443.076923,4232.307692,4244.102564,4565.128205,4212.820512,4649.230769,4014.871794,4044.102564
161,4391.282051,4524.615384,4524.615384,4280.512820,4507.692307,4201.025641,4444.102564,4233.333333,4249.230769,4563.076923,4218.974358,4650.256410,4025.641025,4049.230769
162,4389.743589,4524.615384,4524.102564,4287.179487,4507.692307,4204.102564,4445.641025,4236.410256,4248.205128,4568.717948,4225.128205,4650.256410,4024.102564,4048.205128
163,4387.179487,4517.435897,4523.076923,4280.512820,4506.666666,4196.410256,4443.589743,4234.358974,4246.666666,4569.743589,4221.025641,4647.692307,4015.897435,4043.589743
164,4381.538461,4510.769230,4521.538461,4276.923076,4505.128205,4187.179487,4441.538461,4231.794871,4247.179487,4560.512820,4213.333333,4642.051282,4017.948717,4038.974358
165,4381.538461,4516.410256,4520.000000,4279.487179,4505.641025,4190.769230,4442.051282,4232.820512,4247.179487,4561.025641,4212.820512,4640.000000,4021.538461,4040.000000
166,4386.666666,4519.487179,4519.487179,4273.333333,4509.743589,4192.820512,4441.025641,4226.153846,4238.974358,4562.564102,4216.410256,4640.512820,4013.333333,4041.025641
167,4388.205128,4515.897435,4521.538461,4270.256410,4507.692307,4186.666666,4434.871794,4220.000000,4234.871794,4556.410256,4218.461538,4642.564102,4009.743589,4039.487179
168,4391.794871,4526.153846,4530.256410,4285.128205,4502.564102,4192.307692,4436.410256,4229.230769,4247.179487,4562.051282,4225.128205,4651.794871,4025.641025,4050.256410
169,4403.589743,4536.923076,4538.974358,4303.076923,4504.615384,4205.641025,4445.641025,4241.538461,4258.974358,4577.948717,4229.743589,4664.102564,4038.461538,4066.153846
170,4402.051282,4527.692307,4532.307692,4294.871794,4510.769230,4198.461538,4445.128205,4234.358974,4249.743589,4564.102564,4217.948717,4656.410256,4027.179487,4061.025641
171,4384.615384,4516.410256,4518.974358,4277.948717,4506.153846,4188.717948,4438.461538,4218.461538,4233.333333,4535.897435,4213.333333,4638.974358,4005.641025,4041.025641
172,4384.615384,4523.589743,4526.153846,4284.102564,4502.564102,4198.461538,4448.717948,4224.102564,4236.410256,4550.256410,4226.666666,4645.641025,4004.615384,4040.000000
173,4400.512820,4534.358974,4541.538461,4294.871794,4517.435897,4209.230769,4458.461538,4237.435897,4251.282051,4579.487179,4234.871794,4662.051282,4024.615384,4057.948717
174,4403.076923,4528.717948,4537.948717,4293.333333,4526.153846,4202.564102,4445.641025,4235.897435,4252.820512,4572.307692,4234.358974,4660.000000,4036.410256,4066.153846
175,4395.897435,4517.948717,4533.846153,4292.307692,4512.820512,4194.358974,4434.871794,4232.307692,4246.153846,4558.461538,4233.333333,4657.435897,4031.794871,4060.512820
176,4396.923076,4523.589743,4536.410256,4293.333333,4504.102564,4196.923076,4441.025641,4235.897435,4248.717948,4567.692307,4223.076923,4661.025641,4024.615384,4056.410256
177,4396.410256,4529.743589,4527.692307,4289.230769,4508.205128,4197.948717,4440.512820,4234.871794,4250.769230,4565.128205,4217.435897,4653.846153,4021.025641,4055.384615
178,4392.307692,4522.051282,4522.051282,4288.717948,4507.179487,4199.487179,4438.461538,4233.333333,4247.179487,4551.794871,4228.205128,4649.230769,4019.487179,4056.923076
179,4391.282051,4521.538461,4531.282051,4289.230769,4507.179487,4205.641025,4453.846153,4236.923076,4248.717948,4552.820512,4228.717948,4654.358974,4016.410256,4056.410256
180,4386.666666,4524.615384,4528.717948,4286.666666,4509.230769,4203.076923,4457.948717,4233.333333,4247.179487,4554.871794,4214.358974,4650.256410,4005.128205,4048.205128
181,4379.487179,4517.435897,4522.564102,4285.641025,4506.153846,4199.487179,4446.153846,4231.282051,4244.615384,4552.307692,4214.871794,4645.641025,4000.512820,4045.128205
182,4383.076923,4513.333333,4527.692307,4283.589743,4512.820512,4203.589743,4448.205128,4233.846153,4246.666666,4545.641025,4224.102564,4650.256410,4006.666666,4050.256410
183,4388.205128,4517.948717,4528.717948,4285.128205,4520.000000,4202.564102,4456.410256,4231.794871,4244.615384,4535.384615,4219.487179,4649.743589,4005.641025,4051.794871
184,4386.153846,4523.589743,4529.230769,4294.871794,4510.256410,4201.025641,4457.435897,4230.256410,4241.025641,4542.051282,4213.333333,4646.666666,4007.179487,4051.794871
185,4388.205128,4524.102564,4532.307692,4295.897435,4506.153846,4209.743589,4457.435897,4232.307692,4245.128205,4558.461538,4220.512820,4650.256410,4017.435897,4055.384615
186,4393.333333,4523.589743,4533.333333,4291.794871,4517.435897,4212.820512,4457.948717,4232.820512,4248.205128,4557.435897,4228.717948,4653.846153,4016.410256,4055.384615
187,4395.897435,4524.615384,4534.358974,4296.923076,4525.641025,4211.282051,4455.384615,4232.820512,4247.179487,4542.051282,4226.666666,4654.358974,4006.666666,4053.846153
188,4392.307692,4525.128205,4531.282051,4297.435897,4519.487179,4212.307692,4454.358974,4233.333333,4246.666666,4536.923076,4223.076923,4652.820512,4007.179487,4052.307692
189,4387.692307,4521.025641,4522.051282,4288.717948,4506.666666,4207.692307,4450.256410,4229.230769,4238.974358,4541.025641,4219.487179,4648.717948,4010.256410,4046.666666
190,4382.051282,4514.358974,4518.974358,4282.051282,4507.692307,4200.000000,4444.102564,4225.641025,4236.410256,4541.538461,4211.794871,4641.538461,4003.589743,4042.051282
191,4378.974358,4512.820512,4522.564102,4278.461538,4518.974358,4201.538461,4445.128205,4227.692307,4243.589743,4538.461538,4210.769230,4640.512820,4001.025641,4042.051282
192,4381.025641,4516.923076,4521.538461,4278.974358,4513.846153,4205.641025,4446.666666,4223.589743,4245.128205,4538.461538,4217.948717,4644.615384,4006.153846,4044.102564
193,4383.589743,4521.025641,4522.051282,4283.076923,4501.025641,4201.025641,4442.564102,4213.846153,4237.435897,4541.025641,4217.435897,4644.615384,4003.076923,4043.076923
194,4385.128205,4523.589743,4523.076923,4286.666666,4504.615384,4200.000000,4442.051282,4215.897435,4234.871794,4536.923076,4210.769230,4644.615384,4001.538461,4044.102564
195,4386.666666,4527.179487,4523.076923,4284.102564,4513.846153,4208.717948,4448.717948,4228.717948,4242.564102,4531.282051,4209.230769,4646.666666,4008.717948,4049.743589
196,4388.717948,4525.128205,4523.076923,4280.000000,4508.717948,4208.717948,4451.282051,4227.692307,4246.153846,4527.179487,4213.846153,4644.102564,4005.128205,4049.743589
197,4386.666666,4521.025641,4521.538461,4281.025641,4504.615384,4205.128205,4446.153846,4220.512820,4240.512820,4521.538461,4218.461538,4642.051282,3998.974359,4044.102564
198,4386.666666,4525.128205,4521.538461,4281.025641,4516.410256,4211.282051,4445.128205,4226.153846,4238.974358,4523.589743,4215.384615,4645.641025,4005.641025,4046.666666
199,4393.846153,4528.717948,4527.692307,4280.000000,4525.641025,4210.769230,4448.205128,4226.666666,4245.641025,4534.871794,4215.384615,4652.307692,4014.871794,4055.384615
200,4398.974358,4529.230769,4534.358974,4287.692307,4515.384615,4205.128205,4445.641025,4224.102564,4251.282051,4542.051282,4226.666666,4657.435897,4021.025641,4057.948717
201,4399.487179,4533.846153,4531.794871,4295.384615,4504.615384,4212.820512,4445.128205,4231.282051,4251.282051,4540.000000,4234.358974,4656.923076,4025.641025,4059.487179
202,4393.846153,4532.307692,4524.615384,4289.743589,4508.205128,4212.820512,4447.692307,4230.769230,4248.205128,4532.820512,4229.743589,4649.743589,4017.435897,4057.948717
203,4382.564102,4523.076923,4518.461538,4277.948717,4510.256410,4198.974358,4443.076923,4216.923076,4236.410256,4524.102564,4217.435897,4638.461538,4003.076923,4044.615384
204,4374.871794,4515.897435,4512.820512,4267.692307,4502.051282,4200.000000,4440.000000,4214.358974,4229.743589,4521.538461,4203.589743,4632.820512,3999.487180,4034.871794
205,4374.871794,4514.358974,4508.717948,4263.589743,4496.923076,4205.128205,4443.589743,4220.512820,4234.871794,4524.102564,4200.000000,4631.282051,4004.102564,4037.435897
206,4375.384615,4514.358974,4509.743589,4271.282051,4502.051282,4198.974358,4444.102564,4220.000000,4234.871794,4518.461538,4210.769230,4629.743589,4003.589743,4037.435897
207,4380.512820,4521.025641,4515.897435,4280.000000,4508.717948,4200.000000,4442.564102,4220.000000,4232.307692,4516.410256,4214.871794,4633.846153,3999.487180,4037.435897
208,4384.615384,4526.666666,4522.564102,4278.974358,4512.820512,4203.589743,4444.102564,4219.487179,4236.923076,4523.589743,4210.769230,4642.051282,4001.025641,4043.589743
209,4376.923076,4516.923076,4521.538461,4272.307692,4506.153846,4199.487179,4440.512820,4216.923076,4234.871794,4516.923076,4208.205128,4638.974358,4000.512820,4040.512820
210,4380.000000,4514.358974,4518.974358,4273.333333,4496.410256,4202.564102,4443.076923,4221.025641,4231.282051,4510.256410,4211.794871,4637.948717,4002.564102,4039.487179
211,4395.384615,4532.307692,4531.794871,4280.000000,4502.051282,4215.384615,4456.410256,4231.794871,4241.538461,4522.564102,4222.051282,4653.846153,4012.820512,4052.820512
212,4396.923076,4540.512820,4538.974358,4285.641025,4513.846153,4222.564102,4456.410256,4232.307692,4248.205128,4530.769230,4227.179487,4658.974358,4017.435897,4060.000000
213,4390.256410,4526.666666,4531.282051,4285.641025,4511.282051,4216.410256,4445.641025,4223.076923,4240.000000,4521.538461,4222.051282,4652.820512,4008.717948,4054.358974
214,4384.102564,4515.897435,4525.128205,4272.820512,4504.102564,4205.641025,4441.538461,4215.897435,4226.666666,4506.666666,4208.717948,4648.717948,3994.358975,4043.076923
215,4369.230769,4509.230769,4514.871794,4257.948717,4508.205128,4201.025641,4439.487179,4206.666666,4216.410256,4490.769230,4192.307692,4637.435897,3986.153847,4025.641025
216,4362.564102,4500.000000,4505.641025,4257.948717,4508.205128,4199.487179,4437.435897,4204.102564,4214.358974,4490.769230,4186.666666,4630.256410,3992.307693,4020.000000
217,4378.461538,4512.307692,4514.871794,4266.666666,4503.076923,4200.512820,4443.076923,4222.564102,4227.692307,4514.358974,4201.538461,4643.076923,4009.743589,4038.974358
218,4394.871794,4528.717948,4528.717948,4271.282051,4504.615384,4211.282051,4448.717948,4236.923076,4245.128205,4528.205128,4214.871794,4657.948717,4019.487179,4056.410256
219,4393.333333,4523.076923,4525.128205,4276.410256,4510.256410,4216.410256,4444.102564,4232.820512,4246.153846,4515.897435,4215.384615,4656.410256,4013.846153,4056.410256
220,4386.153846,4517.948717,4523.589743,4280.000000,4510.256410,4207.692307,4444.102564,4228.717948,4237.435897,4507.179487,4218.461538,4653.333333,4011.794871,4050.256410
221,4383.589743,4525.128205,4526.666666,4276.923076,4504.102564,4204.102564,4445.128205,4224.102564,4230.769230,4508.205128,4212.307692,4652.307692,4015.384615,4046.153846
222,4376.410256,4516.923076,4514.358974,4270.256410,4502.051282,4204.615384,4436.410256,4207.692307,4222.051282,4498.974358,4188.717948,4637.948717,3998.974359,4037.435897
223,4369.743589,4503.076923,4508.205128,4261.538461,4507.692307,4200.512820,4431.794871,4201.538461,4217.435897,4488.717948,4181.025641,4630.256410,3977.948718,4031.282051
224,4377.948717,4513.333333,4521.025641,4262.051282,4507.179487,4207.692307,4441.538461,4211.282051,4225.641025,4497.948717,4195.384615,4645.128205,3990.256411,4038.461538
225,4389.230769,4526.153846,4527.692307,4272.820512,4502.564102,4217.435897,4448.205128,4220.512820,4235.384615,4511.282051,4202.564102,4659.487179,4013.333333,4051.794871
226,4386.666666,4525.128205,4522.051282,4278.974358,4509.230769,4213.333333,4443.076923,4224.615384,4235.897435,4510.256410,4206.153846,4654.871794,4006.153846,4049.743589
227,4378.974358,4521.025641,4524.615384,4272.307692,4515.897435,4210.256410,4442.564102,4223.589743,4236.923076,4502.564102,4214.358974,4650.256410,3991.282052,4039.487179
228,4376.923076,4514.358974,4523.076923,4269.230769,4509.743589,4210.256410,4444.102564,4219.487179,4235.897435,4502.564102,4210.256410,4649.743589,3994.871795,4040.512820
229,4372.820512,4505.128205,4508.717948,4269.743589,4502.051282,4200.000000,4440.512820,4212.820512,4226.153846,4497.948717,4188.717948,4639.487179,3998.461539,4040.000000
230,4373.333333,4512.820512,4509.743589,4264.615384,4500.512820,4197.948717,4440.512820,4211.282051,4223.076923,4490.769230,4184.615384,4636.923076,3996.410257,4041.025641
231,4385.641025,4525.641025,4524.102564,4268.205128,4507.692307,4210.256410,4443.076923,4222.051282,4236.923076,4501.538461,4206.666666,4650.769230,4001.025641,4051.794871
232,4390.256410,4523.589743,4527.179487,4276.410256,4518.461538,4210.769230,4444.102564,4229.230769,4246.153846,4516.410256,4214.871794,4658.974358,4007.179487,4055.384615
233,4380.512820,4520.000000,4520.512820,4267.692307,4514.871794,4200.000000,4441.538461,4224.615384,4238.461538,4511.282051,4199.487179,4654.871794,4002.051282,4046.666666
234,4380.512820,4525.641025,4524.615384,4264.615384,4503.589743,4203.076923,4442.564102,4226.153846,4236.923076,4501.025641,4201.538461,4656.923076,4003.076923,4051.282051
235,4393.846153,4530.769230,4538.461538,4279.487179,4506.153846,4218.461538,4446.666666,4238.461538,4250.256410,4507.692307,4223.076923,4666.153846,4017.435897,4064.615384
236,4395.897435,4526.153846,4538.461538,4277.435897,4516.923076,4218.461538,4446.153846,4238.974358,4254.358974,4516.923076,4224.102564,4666.666666,4017.435897,4059.487179
237,4385.128205,4520.000000,4526.153846,4266.153846,4516.923076,4210.769230,4444.615384,4232.307692,4251.282051,4517.948717,4213.846153,4662.564102,4005.641025,4046.153846
238,4379.487179,4520.512820,4522.564102,4268.205128,4509.743589,4214.358974,4446.153846,4232.820512,4251.794871,4509.743589,4210.769230,4658.974358,4003.589743,4045.128205
239,4379.487179,4522.564102,4524.102564,4268.205128,4505.128205,4214.871794,4444.615384,4230.256410,4247.692307,4502.564102,4203.076923,4655.384615,4006.666666,4050.256410
240,4381.538461,4522.051282,4520.512820,4265.128205,4508.717948,4206.666666,4441.538461,4222.564102,4238.461538,4503.076923,4200.512820,4656.410256,4006.666666,4051.794871
241,4380.512820,4523.076923,4519.487179,4265.641025,4512.307692,4201.025641,4441.538461,4216.410256,4236.410256,4498.974358,4204.615384,4657.948717,4003.076923,4050.256410
242,4377.948717,4522.051282,4521.538461,4263.076923,4507.179487,4200.000000,4442.051282,4214.871794,4237.435897,4488.717948,4200.512820,4656.410256,3995.897436,4046.153846
243,4382.051282,4522.051282,4521.538461,4263.589743,4504.102564,4203.589743,4443.076923,4222.564102,4238.461538,4489.743589,4198.974358,4660.512820,3995.384616,4041.538461
244,4388.205128,4526.666666,4523.589743,4270.256410,4507.692307,4213.846153,4445.641025,4235.384615,4248.205128,4505.128205,4211.282051,4665.641025,4000.512820,4044.615384
245,4381.538461,4518.974358,4525.128205,4268.717948,4510.256410,4215.897435,4444.102564,4233.846153,4251.282051,4504.102564,4215.384615,4658.461538,3992.820513,4048.205128
246,4372.820512,4509.743589,4515.897435,4261.025641,4506.153846,4204.102564,4442.564102,4225.641025,4238.461538,4482.564102,4201.538461,4648.205128,3983.589744,4040.512820
247,4375.384615,4512.820512,4511.794871,4260.512820,4501.538461,4198.461538,4442.051282,4226.666666,4235.897435,4478.461538,4194.871794,4647.179487,3989.743590,4033.846153
248,4377.435897,4514.871794,4518.974358,4263.076923,4502.564102,4201.538461,4434.871794,4224.102564,4243.076923,4493.333333,4199.487179,4649.230769,3995.384616,4037.435897
249,4377.948717,4515.384615,4516.923076,4255.384615,4508.717948,4201.025641,4428.205128,4216.410256,4238.461538,4495.384615,4201.538461,4647.692307,3992.307693,4039.487179
250,4376.410256,4515.897435,4507.179487,4246.153846,4503.076923,4195.897435,4427.179487,4214.358974,4226.153846,4482.564102,4198.974358,4643.589743,3988.717949,4034.871794
251,4376.923076,4515.384615,4513.333333,4254.871794,4491.282051,4194.871794,4428.717948,4212.820512,4226.666666,4481.538461,4200.512820,4642.051282,3990.769231,4037.435897
252,4385.128205,4520.512820,4525.641025,4267.179487,4498.461538,4198.461538,4429.230769,4214.358974,4236.410256,4487.692307,4202.564102,4647.692307,3996.923077,4046.153846
253,4389.230769,4522.051282,4523.589743,4264.615384,4505.128205,4199.487179,4428.205128,4219.487179,4242.051282,4489.743589,4203.076923,4650.256410,4002.564102,4048.205128
254,4381.538461,4512.820512,4518.974358,4261.538461,4500.512820,4200.000000,4428.717948,4221.538461,4244.102564,4493.333333,4213.333333,4648.717948,4003.589743,4043.589743
255,4374.871794,4508.717948,4522.051282,4260.512820,4496.410256,4196.923076,4430.256410,4217.948717,4241.025641,4490.256410,4213.333333,4649.743589,3996.923077,4042.564102
256,4373.846153,4508.205128,4517.948717,4252.307692,4493.333333,4187.179487,4427.179487,4210.769230,4234.358974,4478.974358,4192.820512,4646.666666,3984.102565,4039.487179
257,4373.333333,4501.538461,4512.307692,4252.820512,4493.846153,4187.179487,4423.589743,4205.641025,4228.205128,4478.974358,4187.692307,4643.589743,3979.487180,4035.384615
258,4379.487179,4509.743589,4519.487179,4264.102564,4504.615384,4200.512820,4427.179487,4213.846153,4233.333333,4488.205128,4204.102564,4652.820512,3991.282052,4042.564102
259,4390.256410,4524.102564,4525.641025,4267.179487,4508.205128,4203.076923,4428.717948,4222.051282,4241.025641,4486.153846,4209.743589,4655.384615,4000.512820,4050.256410
