,AF3,F7,F3,FC5,T7,P7,O1,O2,P8,T8,FC6,F4,F8,AF4
0,4392.820512,4537.948717,4550.256410,4267.692307,4498.974358,4200.000000,4454.358974,4235.897435,4242.051282,4486.153846,4199.487179,4661.538461,3996.410257,4053.846153
1,4377.435897,4532.307692,4542.051282,4267.179487,4499.487179,4205.128205,4445.128205,4235.384615,4241.025641,4493.333333,4196.410256,4659.487179,3993.333334,4043.076923
2,4371.794871,4526.153846,4534.358974,4254.358974,4490.769230,4200.512820,4438.461538,4229.230769,4229.230769,4493.333333,4181.025641,4650.256410,3982.564103,4031.794871
3,4382.051282,4533.846153,4542.051282,4256.923076,4490.256410,4197.435897,4444.102564,4222.051282,4226.153846,4487.179487,4182.564102,4650.769230,3987.179488,4043.076923
4,4382.564102,4533.846153,4547.179487,4267.692307,4495.897435,4202.564102,4444.102564,4221.025641,4229.743589,4484.615384,4191.282051,4653.333333,3991.282052,4051.282051
5,4380.000000,4532.820512,4542.051282,4261.538461,4495.384615,4200.512820,4437.948717,4226.153846,4231.282051,4486.666666,4181.538461,4653.846153,3986.153847,4047.692307
6,4389.230769,4543.076923,4544.615384,4259.487179,4497.435897,4200.000000,4444.615384,4230.769230,4243.589743,4497.435897,4187.179487,4658.974358,3995.384616,4052.820512
7,4390.256410,4545.128205,4547.692307,4265.128205,4506.153846,4210.256410,4453.846153,4233.333333,4255.384615,4502.564102,4203.589743,4660.512820,4010.769230,4055.897435
8,4377.948717,4536.923076,4540.000000,4256.410256,4505.128205,4212.307692,4449.230769,4228.717948,4240.000000,4494.358974,4190.256410,4652.307692,4002.564102,4043.589743
9,4371.794871,4531.794871,4531.794871,4251.282051,4495.897435,4201.538461,4441.025641,4217.435897,4223.076923,4488.205128,4174.871794,4645.641025,3986.666667,4034.871794
10,4373.846153,4533.333333,4535.384615,4260.512820,4496.410256,4203.589743,4443.076923,4216.410256,4228.205128,4490.256410,4192.307692,4648.205128,3993.846154,4041.538461
11,4372.307692,4537.948717,4539.487179,4264.102564,4501.538461,4210.769230,4443.589743,4228.205128,4238.974358,4494.358974,4202.051282,4651.282051,4005.128205,4048.205128
12,4373.846153,4539.487179,4534.358974,4262.051282,4496.923076,4204.102564,4438.974358,4232.820512,4239.487179,4495.384615,4187.179487,4648.205128,3994.871795,4048.205128
13,4376.923076,4534.871794,4529.230769,4258.461538,4491.794871,4196.923076,4438.461538,4223.589743,4230.256410,4488.205128,4176.410256,4642.564102,3981.538462,4044.615384
14,4369.743589,4526.153846,4528.717948,4251.794871,4493.333333,4199.487179,4438.974358,4215.384615,4222.564102,4482.564102,4174.871794,4640.000000,3983.589744,4037.948717
15,4364.615384,4520.000000,4533.846153,4253.333333,4489.743589,4200.000000,4438.461538,4219.487179,4225.641025,4485.641025,4182.051282,4644.615384,3990.256411,4038.461538
16,4371.282051,4525.641025,4540.000000,4262.051282,4488.717948,4193.846153,4438.461538,4223.076923,4234.358974,4482.051282,4190.256410,4650.256410,3989.230770,4047.692307
17,4370.769230,4527.692307,4537.435897,4262.051282,4488.717948,4188.717948,4437.948717,4218.974358,4235.384615,4479.487179,4177.948717,4649.743589,3983.589744,4048.205128
18,4360.000000,4522.051282,4530.256410,4251.794871,4484.615384,4188.205128,4434.358974,4216.923076,4226.153846,4486.153846,4165.128205,4644.102564,3976.410257,4036.923076
19,4357.948717,4517.948717,4530.769230,4244.615384,4485.641025,4190.256410,4432.307692,4217.435897,4219.487179,4480.000000,4171.282051,4641.025641,3978.461539,4034.871794
20,4367.179487,4524.615384,4537.948717,4255.897435,4490.769230,4193.846153,4438.461538,4218.461538,4225.128205,4475.897435,4180.512820,4647.692307,3987.692308,4050.769230
21,4375.897435,4532.820512,4540.512820,4268.205128,4492.307692,4200.512820,4446.153846,4220.512820,4233.333333,4488.717948,4188.205128,4656.923076,3989.743590,4059.487179
22,4373.846153,4533.333333,4538.974358,4266.666666,4493.333333,4201.538461,4444.615384,4223.589743,4238.461538,4494.871794,4189.743589,4657.948717,3990.769231,4052.820512
23,4371.282051,4533.846153,4539.487179,4263.589743,4497.948717,4198.461538,4440.512820,4221.538461,4240.000000,4489.743589,4184.102564,4654.871794,3994.871795,4048.205128
24,4373.333333,4537.948717,4537.435897,4260.000000,4498.461538,4199.487179,4442.051282,4216.410256,4234.358974,4486.153846,4180.512820,4653.846153,3990.256411,4044.102564
25,4374.358974,4540.512820,4536.923076,4254.871794,4493.333333,4201.025641,4443.589743,4216.410256,4232.820512,4490.256410,4187.692307,4653.846153,3992.820513,4045.128205
26,4370.769230,4534.358974,4537.435897,4258.461538,4490.769230,4197.435897,4442.564102,4218.974358,4235.897435,4498.461538,4187.179487,4652.820512,4003.076923,4053.846153
27,4370.256410,4528.717948,4537.948717,4262.564102,4491.282051,4193.846153,4443.589743,4224.615384,4237.948717,4495.897435,4181.025641,4650.256410,3999.487180,4055.897435
28,4372.820512,4532.307692,4542.051282,4264.615384,4490.256410,4196.410256,4446.153846,4232.307692,4244.102564,4495.897435,4188.717948,4652.820512,3993.333334,4055.384615
29,4371.282051,4537.435897,4541.025641,4269.230769,4491.794871,4201.025641,4446.666666,4234.871794,4246.666666,4506.153846,4196.410256,4658.974358,3996.923077,4055.897435
30,4364.102564,4536.923076,4537.435897,4266.666666,4494.358974,4201.025641,4444.615384,4231.794871,4237.948717,4501.538461,4189.743589,4656.923076,3998.461539,4050.256410
31,4362.051282,4534.358974,4537.948717,4257.948717,4491.282051,4201.538461,4443.076923,4227.179487,4231.282051,4485.641025,4181.538461,4648.205128,3990.769231,4044.615384
32,4371.794871,4537.435897,4540.512820,4265.641025,4495.897435,4204.615384,4444.102564,4223.589743,4233.846153,4491.794871,4183.076923,4649.743589,3990.256411,4052.820512
33,4377.948717,4541.025641,4541.025641,4275.897435,4502.051282,4201.538461,4444.615384,4223.076923,4236.923076,4502.051282,4189.743589,4658.974358,4001.025641,4058.461538
34,4371.282051,4535.384615,4542.051282,4271.282051,4494.358974,4198.461538,4443.076923,4226.666666,4238.974358,4496.923076,4193.333333,4660.512820,4006.153846,4052.307692
35,4366.153846,4530.256410,4541.025641,4265.128205,4493.333333,4204.615384,4446.153846,4229.230769,4240.512820,4500.512820,4192.820512,4659.487179,4001.025641,4051.282051
36,4367.179487,4528.717948,4538.461538,4257.948717,4500.512820,4203.076923,4443.076923,4224.102564,4238.461538,4504.102564,4182.051282,4658.461538,3994.358975,4054.871794
37,4366.666666,4526.153846,4537.948717,4251.282051,4493.846153,4193.846153,4431.794871,4215.897435,4232.820512,4499.487179,4177.435897,4654.871794,3992.307693,4051.794871
38,4369.230769,4531.794871,4538.461538,4252.820512,4487.179487,4196.410256,4430.256410,4216.923076,4229.743589,4494.871794,4188.717948,4656.923076,3995.897436,4049.230769
39,4370.769230,4538.974358,4540.512820,4260.000000,4493.846153,4201.538461,4436.410256,4222.051282,4232.820512,4493.333333,4194.358974,4658.974358,3999.487180,4052.307692
40,4367.179487,4537.948717,4536.410256,4263.589743,4493.846153,4200.000000,4440.512820,4220.512820,4235.897435,4499.487179,4187.179487,4654.358974,3994.358975,4049.230769
41,4362.564102,4532.307692,4529.230769,4257.948717,4486.153846,4195.384615,4436.923076,4216.410256,4232.307692,4499.487179,4182.051282,4649.743589,3989.230770,4043.589743
42,4358.974358,4528.205128,4532.307692,4253.333333,4487.692307,4188.205128,4429.230769,4215.897435,4223.589743,4484.615384,4176.923076,4649.230769,3990.769231,4041.025641
43,4361.538461,4527.692307,4535.384615,4258.974358,4490.769230,4189.230769,4429.230769,4214.871794,4217.948717,4477.948717,4169.230769,4649.743589,3987.179488,4039.487179
44,4370.769230,4532.820512,4532.820512,4265.128205,4488.717948,4194.871794,4434.358974,4217.948717,4226.666666,4490.769230,4177.948717,4650.769230,3983.589744,4044.615384
45,4373.333333,4535.897435,4533.333333,4261.538461,4490.769230,4195.384615,4435.897435,4226.153846,4238.461538,4496.923076,4192.307692,4653.846153,3988.717949,4048.717948
46,4370.256410,4533.333333,4538.461538,4261.538461,4499.487179,4201.538461,4440.000000,4234.871794,4243.589743,4496.410256,4195.897435,4660.512820,3995.897436,4048.205128
47,4375.897435,4537.948717,4544.102564,4265.128205,4506.666666,4210.256410,4450.256410,4237.435897,4248.205128,4502.564102,4199.487179,4668.205128,4002.564102,4057.948717
48,4385.128205,4541.025641,4546.666666,4268.717948,4506.666666,4204.615384,4449.230769,4234.871794,4251.282051,4503.589743,4202.564102,4665.128205,4007.692307,4065.641025
49,4387.692307,4541.538461,4544.102564,4274.871794,4502.564102,4199.487179,4443.076923,4233.846153,4247.692307,4506.666666,4202.051282,4662.051282,4014.358974,4060.512820
50,4384.102564,4542.564102,4538.974358,4274.358974,4495.384615,4202.051282,4444.102564,4234.358974,4245.641025,4510.256410,4203.076923,4664.615384,4009.743589,4050.769230
51,4381.025641,4537.435897,4539.487179,4264.102564,4490.769230,4198.974358,4442.051282,4231.282051,4246.153846,4502.051282,4202.564102,4664.615384,3995.897436,4044.102564
52,4380.000000,4533.333333,4537.948717,4255.384615,4492.820512,4197.948717,4431.794871,4221.538461,4236.410256,4490.256410,4194.358974,4658.974358,3992.307693,4044.102564
53,4381.025641,4535.384615,4535.384615,4255.384615,4492.820512,4199.487179,4428.205128,4212.307692,4223.076923,4486.153846,4181.538461,4654.358974,3998.974359,4049.743589
54,4391.794871,4541.538461,4536.923076,4267.692307,4488.717948,4197.948717,4438.974358,4220.000000,4227.692307,4493.333333,4179.487179,4660.512820,4000.000000,4052.307692
55,4397.435897,4544.615384,4537.435897,4275.897435,4492.307692,4198.974358,4447.179487,4232.820512,4237.435897,4498.461538,4190.256410,4665.128205,3992.820513,4048.205128
56,4389.230769,4538.974358,4536.410256,4263.589743,4496.410256,4198.974358,4442.051282,4226.666666,4232.307692,4488.205128,4193.846153,4661.538461,3989.230770,4041.025641
57,4387.692307,4535.897435,4536.923076,4258.974358,4492.820512,4199.487179,4441.025641,4217.435897,4225.641025,4484.102564,4190.256410,4663.076923,3994.871795,4042.564102
58,4397.948717,4540.000000,4538.974358,4268.717948,4494.358974,4201.538461,4446.666666,4223.076923,4228.717948,4493.333333,4191.282051,4664.102564,4003.076923,4051.794871
59,4396.923076,4538.974358,4536.923076,4256.410256,4499.487179,4201.025641,4444.102564,4221.538461,4228.205128,4488.717948,4188.717948,4656.410256,3998.461539,4049.230769
60,4391.282051,4533.846153,4536.923076,4248.717948,4496.410256,4198.974358,4435.897435,4217.948717,4228.717948,4482.051282,4188.205128,4656.923076,3992.820513,4043.076923
61,4403.076923,4543.076923,4538.461538,4269.230769,4492.820512,4201.025641,4438.974358,4229.230769,4240.512820,4497.948717,4193.846153,4663.076923,4002.051282,4051.282051
62,4413.333333,4550.769230,4538.974358,4278.461538,4492.307692,4201.025641,4445.641025,4236.410256,4242.564102,4504.102564,4190.256410,4662.051282,4008.717948,4058.461538
63,4409.743589,4546.666666,4538.461538,4264.102564,4493.846153,4201.538461,4446.153846,4231.282051,4237.435897,4491.794871,4189.230769,4660.000000,4007.692307,4052.820512
64,4408.205128,4545.128205,4537.948717,4262.564102,4498.461538,4205.641025,4448.205128,4232.820512,4242.051282,4493.846153,4201.538461,4663.076923,4006.153846,4047.692307
65,4409.743589,4545.128205,4539.487179,4267.692307,4498.974358,4206.666666,4449.230769,4233.333333,4243.589743,4500.512820,4202.051282,4664.615384,4002.564102,4051.282051
66,4403.076923,4538.974358,4534.871794,4260.000000,4490.256410,4202.051282,4444.615384,4220.000000,4233.846153,4493.333333,4185.128205,4657.948717,3993.846154,4047.179487
67,4390.769230,4533.333333,4527.692307,4255.897435,4486.666666,4192.307692,4439.487179,4211.794871,4227.692307,4483.076923,4179.487179,4647.692307,3988.205129,4034.358974
68,4394.871794,4537.948717,4531.282051,4263.076923,4488.717948,4189.230769,4442.051282,4222.051282,4232.307692,4484.615384,4187.692307,4652.820512,3994.358975,4039.487179
69,4409.230769,4545.641025,4541.538461,4270.769230,4491.794871,4197.948717,4449.743589,4234.871794,4239.487179,4499.487179,4196.410256,4671.282051,4008.205128,4056.923076
70,4407.692307,4544.615384,4544.102564,4270.769230,4494.871794,4205.128205,4452.307692,4236.923076,4246.153846,4510.256410,4201.025641,4676.410256,4016.410256,4062.564102
71,4396.410256,4535.897435,4541.538461,4264.615384,4494.358974,4201.538461,4447.179487,4236.923076,4249.230769,4498.974358,4199.487179,4670.769230,4010.769230,4058.974358
72,4397.435897,4536.923076,4542.564102,4262.051282,4493.333333,4200.000000,4444.102564,4234.871794,4246.666666,4490.256410,4200.512820,4667.692307,4004.615384,4054.871794
73,4400.000000,4543.076923,4540.512820,4262.564102,4492.820512,4200.000000,4444.102564,4224.102564,4238.974358,4494.871794,4203.076923,4665.128205,4005.128205,4049.230769
74,4388.717948,4537.435897,4529.743589,4262.564102,4489.743589,4195.897435,4439.487179,4213.846153,4226.666666,4491.282051,4198.461538,4655.384615,4002.051282,4046.153846
75,4382.051282,4534.358974,4529.230769,4263.589743,4489.743589,4197.435897,4439.487179,4217.948717,4220.512820,4486.153846,4189.230769,4648.717948,3992.820513,4045.641025
76,4383.589743,4538.461538,4533.333333,4266.153846,4492.307692,4201.025641,4442.051282,4220.512820,4224.102564,4492.307692,4188.205128,4649.743589,3990.769231,4037.948717
77,4377.948717,4539.487179,4528.205128,4263.589743,4492.307692,4199.487179,4440.512820,4214.871794,4227.692307,4487.692307,4186.153846,4651.794871,3998.461539,4030.769230
78,4378.461538,4539.487179,4529.230769,4259.487179,4492.307692,4198.974358,4442.564102,4221.025641,4232.307692,4477.948717,4176.410256,4653.846153,4000.000000,4038.974358
79,4389.230769,4538.974358,4538.974358,4259.487179,4491.282051,4198.974358,4445.128205,4233.333333,4233.846153,4486.666666,4177.435897,4657.435897,3997.948718,4054.358974
80,4393.846153,4538.974358,4542.051282,4266.153846,4489.743589,4198.461538,4445.128205,4232.307692,4229.743589,4490.769230,4191.282051,4662.564102,4001.025641,4057.435897
81,4385.128205,4541.538461,4540.512820,4268.205128,4493.846153,4202.051282,4445.128205,4230.769230,4229.230769,4483.076923,4194.358974,4663.589743,3996.923077,4048.205128
82,4373.333333,4532.307692,4540.000000,4262.564102,4491.794871,4197.948717,4442.051282,4227.692307,4226.153846,4478.461538,4182.564102,4656.923076,3982.051283,4040.512820
83,4372.307692,4522.564102,4540.512820,4262.564102,4487.692307,4192.820512,4443.076923,4226.153846,4221.025641,4478.461538,4176.410256,4654.871794,3981.025642,4042.564102
84,4376.410256,4532.820512,4545.128205,4265.128205,4499.487179,4203.589743,4449.743589,4229.743589,4224.615384,4480.512820,4183.076923,4661.538461,3992.307693,4046.666666
85,4372.307692,4536.410256,4544.102564,4261.025641,4504.102564,4208.717948,4444.615384,4222.564102,4224.615384,4474.871794,4185.641025,4658.461538,3991.794872,4042.564102
86,4370.769230,4531.282051,4537.435897,4264.102564,4490.769230,4197.948717,4435.384615,4216.923076,4222.051282,4478.461538,4186.666666,4653.846153,3990.769231,4041.538461
87,4377.948717,4540.512820,4541.025641,4273.333333,4485.128205,4195.384615,4440.512820,4227.692307,4236.410256,4493.333333,4194.358974,4661.025641,4002.564102,4054.871794
88,4379.487179,4546.666666,4547.692307,4271.282051,4497.948717,4204.102564,4445.641025,4234.358974,4246.153846,4499.487179,4199.487179,4665.128205,4012.307692,4063.589743
89,4375.897435,4539.487179,4545.641025,4267.692307,4506.153846,4208.205128,4444.615384,4232.820512,4234.871794,4496.923076,4201.025641,4662.564102,4012.820512,4062.051282
90,4366.666666,4531.282051,4538.461538,4258.461538,4498.974358,4203.076923,4440.512820,4231.282051,4228.205128,4493.333333,4195.897435,4654.871794,4005.128205,4054.358974
91,4352.307692,4525.641025,4530.769230,4246.153846,4488.717948,4195.384615,4432.307692,4221.025641,4231.282051,4486.666666,4182.564102,4642.051282,3994.871795,4046.666666
92,4357.948717,4529.743589,4534.871794,4258.974358,4489.230769,4194.871794,4431.282051,4218.461538,4234.358974,4490.256410,4182.564102,4644.102564,4004.102564,4052.820512
93,4379.487179,4541.538461,4543.076923,4282.564102,4495.384615,4203.589743,4445.128205,4234.871794,4240.000000,4509.743589,4203.076923,4663.589743,4024.102564,4064.102564
94,4378.461538,4542.051282,4542.051282,4281.538461,4493.846153,4204.615384,4447.179487,4233.846153,4238.974358,4511.794871,4214.358974,4667.692307,4018.461538,4058.974358
95,4363.589743,4532.307692,4536.410256,4266.153846,4490.256410,4198.461538,4431.794871,4216.410256,4230.769230,4496.923076,4199.487179,4652.307692,4002.051282,4050.256410
96,4363.589743,4529.230769,4534.871794,4264.615384,4492.820512,4198.974358,4425.641025,4212.307692,4229.230769,4492.307692,4189.743589,4645.128205,4004.102564,4052.820512
97,4370.769230,4535.897435,4538.461538,4272.820512,4495.384615,4202.564102,4433.333333,4218.461538,4238.461538,4494.871794,4198.974358,4652.307692,4011.282051,4053.333333
98,4370.769230,4537.948717,4540.512820,4274.871794,4491.282051,4197.435897,4435.384615,4222.051282,4242.564102,4493.333333,4201.025641,4654.871794,4005.128205,4046.666666
99,4366.666666,4527.179487,4538.461538,4267.179487,4486.153846,4190.769230,4433.333333,4217.948717,4233.333333,4486.666666,4193.333333,4650.769230,3997.948718,4047.692307
100,4367.179487,4519.487179,4538.461538,4260.512820,4487.179487,4193.333333,4436.923076,4214.358974,4226.153846,4487.692307,4197.948717,4653.846153,4001.025641,4056.923076
101,4372.307692,4527.179487,4543.589743,4264.615384,4490.256410,4197.435897,4442.564102,4224.102564,4232.820512,4490.769230,4207.692307,4662.564102,4010.256410,4061.025641
102,4373.333333,4533.333333,4544.102564,4265.128205,4491.282051,4200.000000,4443.589743,4233.846153,4242.051282,4490.256410,4207.692307,4664.102564,4013.846153,4058.461538
103,4368.205128,4527.179487,4538.974358,4255.384615,4491.282051,4198.974358,4435.384615,4223.076923,4237.435897,4489.743589,4203.589743,4655.384615,4006.153846,4054.358974
104,4364.615384,4525.128205,4535.897435,4250.256410,4489.743589,4193.846153,4425.641025,4209.230769,4227.179487,4484.615384,4193.846153,4646.666666,3993.846154,4048.205128
105,4366.153846,4529.230769,4537.435897,4258.461538,4487.179487,4192.820512,4430.256410,4211.794871,4221.025641,4478.974358,4189.743589,4646.153846,3990.256411,4043.589743
106,4371.794871,4530.256410,4537.948717,4267.179487,4490.256410,4201.025641,4441.538461,4220.000000,4223.589743,4484.102564,4198.974358,4651.282051,3998.974359,4048.205128
107,4377.948717,4532.307692,4538.974358,4266.153846,4499.487179,4205.641025,4443.076923,4227.179487,4235.384615,4499.487179,4208.205128,4657.948717,4005.641025,4053.846153
108,4384.615384,4541.025641,4547.179487,4267.179487,4503.076923,4205.641025,4446.666666,4238.974358,4250.769230,4509.230769,4215.384615,4662.564102,4006.666666,4058.461538
109,4380.000000,4541.025641,4544.615384,4264.102564,4503.589743,4211.794871,4451.282051,4239.487179,4254.358974,4502.564102,4204.102564,4654.358974,4006.666666,4055.897435
110,4366.666666,4532.307692,4530.769230,4254.358974,4502.051282,4210.769230,4443.076923,4229.743589,4242.564102,4491.794871,4181.025641,4642.564102,4001.538461,4043.076923
111,4369.743589,4535.384615,4531.282051,4258.461538,4496.410256,4203.589743,4440.512820,4229.230769,4241.025641,4491.282051,4186.153846,4645.128205,4002.564102,4043.076923
112,4381.025641,4541.538461,4542.564102,4273.846153,4499.487179,4209.230769,4453.333333,4234.358974,4250.256410,4498.461538,4206.153846,4652.820512,4010.256410,4058.461538
113,4376.410256,4540.000000,4541.538461,4275.384615,4503.589743,4214.871794,4455.897435,4235.384615,4249.743589,4501.538461,4200.512820,4655.897435,4014.871794,4059.487179
114,4369.743589,4541.025641,4537.948717,4266.666666,4501.025641,4208.205128,4446.153846,4229.743589,4241.538461,4500.512820,4195.897435,4656.410256,4010.769230,4047.179487
115,4371.282051,4536.410256,4540.000000,4263.076923,4500.000000,4202.051282,4442.051282,4219.487179,4233.846153,4490.769230,4200.000000,4651.282051,3995.384616,4045.128205
116,4367.179487,4527.692307,4537.948717,4256.923076,4496.923076,4203.589743,4443.589743,4212.820512,4224.102564,4477.948717,4190.256410,4646.153846,3985.641026,4047.692307
117,4365.128205,4531.282051,4536.410256,4255.384615,4495.897435,4206.153846,4444.615384,4214.358974,4227.179487,4484.102564,4188.717948,4652.307692,3995.384616,4050.256410
118,4374.358974,4540.000000,4543.589743,4267.692307,4501.538461,4208.205128,4445.128205,4220.000000,4243.076923,4500.512820,4200.512820,4663.589743,4006.153846,4058.461538
119,4380.000000,4537.435897,4550.256410,4274.871794,4497.948717,4206.153846,4445.128205,4223.589743,4243.589743,4500.000000,4197.435897,4666.666666,3999.487180,4058.461538
120,4377.435897,4536.923076,4546.666666,4267.179487,4487.179487,4200.512820,4441.538461,4222.564102,4233.333333,4491.794871,4193.846153,4663.076923,3995.384616,4051.794871
121,4376.410256,4537.948717,4541.025641,4256.410256,4493.333333,4202.564102,4442.564102,4218.974358,4234.358974,4491.794871,4202.564102,4662.564102,4005.128205,4054.358974
122,4373.846153,4526.666666,4535.384615,4250.256410,4494.871794,4201.538461,4443.589743,4220.000000,4241.025641,4488.717948,4204.615384,4661.538461,4006.153846,4056.923076
123,4366.666666,4518.974358,4527.179487,4246.153846,4487.692307,4195.897435,4437.435897,4220.512820,4237.435897,4482.564102,4190.769230,4651.282051,3989.230770,4046.153846
124,4362.564102,4523.076923,4524.102564,4246.153846,4489.743589,4196.923076,4432.307692,4216.410256,4231.794871,4486.153846,4183.076923,4643.076923,3978.974359,4035.897435
125,4368.717948,4524.615384,4526.666666,4252.820512,4492.820512,4199.487179,4437.948717,4216.410256,4233.846153,4490.256410,4192.307692,4649.743589,3990.256411,4041.025641
126,4376.923076,4523.076923,4532.307692,4257.948717,4491.282051,4200.512820,4443.589743,4218.974358,4238.461538,4491.794871,4192.307692,4655.384615,4002.051282,4051.794871
127,4377.948717,4528.205128,4530.256410,4252.820512,4490.769230,4199.487179,4440.512820,4216.410256,4234.871794,4488.717948,4181.538461,4647.179487,3994.871795,4052.820512
128,4380.512820,4534.871794,4528.717948,4247.179487,4492.307692,4200.512820,4441.538461,4214.871794,4227.692307,4486.153846,4189.743589,4645.128205,3986.666667,4046.666666
129,4386.153846,4530.769230,4529.743589,4252.307692,4493.333333,4202.051282,4444.102564,4213.846153,4231.794871,4490.256410,4199.487179,4650.256410,3986.153847,4043.076923
130,4382.564102,4521.025641,4527.179487,4255.384615,4492.820512,4202.051282,4442.051282,4212.307692,4232.820512,4490.769230,4184.615384,4646.153846,3988.717949,4038.974358
131,4378.461538,4518.974358,4528.717948,4258.461538,4492.307692,4202.564102,4442.051282,4215.384615,4230.256410,4491.282051,4178.461538,4644.102564,3996.410257,4040.000000
132,4386.153846,4528.717948,4536.410256,4265.641025,4491.282051,4200.512820,4444.615384,4217.948717,4239.487179,4494.358974,4200.512820,4653.333333,3997.435898,4050.256410
133,4394.358974,4534.358974,4539.487179,4267.179487,4491.282051,4197.435897,4442.564102,4217.435897,4248.205128,4490.256410,4205.128205,4659.487179,3990.256411,4050.256410
134,4396.923076,4529.743589,4537.435897,4265.641025,4490.769230,4197.948717,4440.512820,4220.512820,4243.076923,4489.743589,4191.794871,4660.000000,3995.897436,4046.666666
135,4400.000000,4530.256410,4539.487179,4264.615384,4489.743589,4200.512820,4443.076923,4214.871794,4232.820512,4494.358974,4191.282051,4657.435897,4002.564102,4052.307692
136,4398.974358,4531.794871,4535.897435,4264.615384,4489.230769,4195.384615,4437.948717,4195.384615,4223.589743,4485.641025,4192.820512,4651.282051,3992.820513,4055.384615
137,4397.435897,4528.717948,4531.794871,4264.102564,4491.794871,4194.871794,4434.871794,4193.846153,4225.128205,4482.051282,4191.282051,4651.794871,3986.153847,4050.769230
138,4400.512820,4529.743589,4537.948717,4260.000000,4493.846153,4200.512820,4441.025641,4213.333333,4242.051282,4496.923076,4193.846153,4657.948717,3993.333334,4049.743589
139,4401.538461,4530.769230,4539.487179,4258.974358,4490.256410,4194.871794,4442.051282,4214.871794,4245.128205,4498.974358,4194.871794,4656.410256,3996.410257,4053.333333
140,4400.000000,4523.076923,4529.743589,4263.589743,4488.205128,4189.230769,4436.923076,4198.974358,4226.666666,4489.230769,4194.358974,4651.794871,3990.769231,4050.256410
141,4399.487179,4520.512820,4524.102564,4261.538461,4490.256410,4196.410256,4440.000000,4201.025641,4225.128205,4487.179487,4195.897435,4652.820512,3985.641026,4046.153846
142,4400.000000,4524.615384,4527.692307,4254.871794,4491.794871,4202.051282,4444.615384,4216.410256,4238.974358,4485.641025,4189.743589,4655.897435,3989.743590,4046.666666
143,4400.000000,4521.025641,4527.179487,4253.846153,4491.794871,4200.000000,4441.538461,4216.923076,4235.384615,4483.076923,4180.512820,4654.358974,3993.846154,4044.102564
144,4400.000000,4518.974358,4521.025641,4253.846153,4489.743589,4195.897435,4440.512820,4204.615384,4223.076923,4481.025641,4181.538461,4646.666666,3987.692308,4042.051282
145,4401.538461,4523.076923,4522.564102,4259.487179,4488.717948,4193.333333,4444.615384,4201.538461,4226.666666,4480.000000,4189.230769,4643.589743,3991.282052,4044.615384
146,4399.487179,4524.615384,4526.153846,4261.538461,4490.256410,4196.923076,4444.615384,4204.615384,4233.846153,4482.051282,4194.358974,4646.153846,3995.897436,4045.128205
147,4395.897435,4522.051282,4522.051282,4250.256410,4490.769230,4202.051282,4442.051282,4203.589743,4226.666666,4482.564102,4190.769230,4646.666666,3983.076924,4036.923076
148,4396.923076,4520.512820,4521.025641,4243.076923,4490.256410,4197.948717,4440.512820,4200.000000,4221.025641,4476.410256,4184.102564,4641.025641,3980.512821,4035.897435
149,4398.974358,4518.974358,4522.564102,4246.666666,4488.717948,4196.410256,4440.512820,4202.564102,4224.102564,4472.307692,4177.435897,4633.333333,3987.179488,4037.948717
150,4397.948717,4518.974358,4520.512820,4253.846153,4492.307692,4201.025641,4442.051282,4209.743589,4225.641025,4476.410256,4173.846153,4635.384615,3981.538462,4032.820512
151,4406.153846,4530.256410,4524.102564,4264.102564,4497.948717,4202.564102,4445.128205,4215.897435,4229.230769,4487.692307,4185.641025,4650.769230,3980.512821,4035.897435
152,4415.384615,4533.846153,4531.282051,4264.615384,4494.358974,4200.512820,4445.128205,4216.923076,4235.384615,4493.846153,4197.435897,4656.923076,3990.769231,4044.615384
153,4412.820512,4522.564102,4527.179487,4253.846153,4487.692307,4197.435897,4443.589743,4215.384615,4233.333333,4483.076923,4191.282051,4649.230769,3992.820513,4048.717948
154,4410.256410,4520.000000,4526.153846,4257.435897,4490.256410,4198.461538,4442.564102,4216.923076,4231.794871,4476.410256,4187.692307,4650.769230,3993.846154,4050.769230
155,4412.307692,4527.179487,4530.769230,4263.076923,4493.333333,4200.000000,4438.461538,4216.923076,4234.358974,4481.538461,4189.230769,4651.794871,3993.846154,4048.205128
156,4410.256410,4523.076923,4531.282051,4258.974358,4488.717948,4198.974358,4436.410256,4212.820512,4229.230769,4477.435897,4181.025641,4644.615384,3986.153847,4041.025641
157,4411.282051,4519.487179,4532.307692,4261.538461,4489.743589,4200.000000,4441.025641,4212.820512,4229.230769,4475.897435,4182.051282,4648.717948,3989.230770,4044.615384
158,4417.435897,4530.256410,4538.461538,4265.128205,4492.307692,4199.487179,4443.076923,4216.923076,4235.384615,4482.564102,4196.410256,4656.923076,3993.846154,4055.384615
159,4417.948717,4532.307692,4537.948717,4263.076923,4489.230769,4197.435897,4438.461538,4214.358974,4233.333333,4480.000000,4197.948717,4656.923076,3986.666667,4053.846153
160,4420.512820,4527.179487,4535.384615,4264.615384,4490.256410,4198.974358,4441.538461,4214.358974,4231.282051,4480.000000,4190.256410,4657.435897,3984.102565,4048.205128
161,4426.666666,4531.282051,4538.974358,4265.128205,4492.307692,4202.051282,4447.179487,4218.461538,4233.846153,4486.153846,4184.102564,4656.923076,3987.692308,4049.743589
162,4417.948717,4533.333333,4537.435897,4261.538461,4489.743589,4196.923076,4435.384615,4208.205128,4225.128205,4476.923076,4182.051282,4649.743589,3987.179488,4049.230769
163,4405.641025,4523.589743,4529.743589,4263.589743,4487.692307,4192.307692,4424.615384,4199.487179,4219.487179,4468.205128,4189.743589,4647.692307,3986.153847,4045.641025
164,4412.307692,4519.487179,4528.717948,4258.974358,4488.205128,4193.846153,4435.384615,4211.282051,4235.384615,4484.615384,4197.948717,4654.358974,3990.769231,4049.743589
165,4425.128205,4528.205128,4536.923076,4258.974358,4489.230769,4200.000000,4447.179487,4223.076923,4252.820512,4500.000000,4206.666666,4661.538461,4001.025641,4060.000000
166,4427.692307,4536.923076,4541.538461,4271.282051,4497.435897,4206.153846,4443.589743,4218.974358,4249.743589,4493.846153,4213.333333,4663.076923,4009.743589,4067.179487
167,4426.666666,4538.461538,4537.435897,4272.820512,4502.564102,4204.615384,4442.564102,4217.435897,4238.461538,4485.128205,4205.128205,4660.000000,4008.205128,4064.615384
168,4422.051282,4536.410256,4535.897435,4269.230769,4502.051282,4206.666666,4445.128205,4218.461538,4240.000000,4485.128205,4190.256410,4656.923076,4002.051282,4054.358974
169,4417.948717,4535.897435,4538.461538,4275.384615,4506.153846,4215.384615,4443.076923,4217.435897,4246.153846,4490.256410,4191.282051,4656.410256,4002.051282,4049.743589
170,4427.179487,4538.461538,4540.512820,4279.487179,4508.205128,4216.410256,4445.128205,4224.615384,4248.717948,4495.897435,4213.846153,4662.051282,4006.153846,4062.564102
171,4433.333333,4540.000000,4536.923076,4280.000000,4507.179487,4209.743589,4448.205128,4225.641025,4244.615384,4494.871794,4221.538461,4665.641025,4005.128205,4069.230769
172,4421.538461,4536.410256,4532.307692,4276.410256,4505.641025,4210.769230,4441.538461,4217.435897,4236.410256,4484.615384,4201.025641,4657.435897,4001.538461,4056.410256
173,4410.256410,4526.666666,4530.256410,4265.128205,4497.435897,4209.743589,4432.307692,4215.897435,4232.307692,4482.051282,4188.205128,4648.717948,4000.512820,4044.615384
174,4408.205128,4521.025641,4524.615384,4258.974358,4487.179487,4196.923076,4428.717948,4213.846153,4227.179487,4483.076923,4192.307692,4645.641025,3987.692308,4041.025641
175,4406.153846,4521.025641,4517.948717,4258.461538,4489.743589,4193.846153,4427.692307,4207.692307,4221.025641,4477.948717,4188.717948,4643.589743,3974.871795,4043.076923
176,4407.692307,4527.179487,4523.076923,4253.333333,4494.358974,4200.512820,4430.256410,4212.307692,4230.769230,4483.076923,4192.820512,4648.717948,3988.717949,4050.256410
177,4413.846153,4533.846153,4535.384615,4262.051282,4490.256410,4200.512820,4436.923076,4227.692307,4245.641025,4491.282051,4205.641025,4658.974358,4010.769230,4055.384615
178,4420.512820,4533.846153,4538.461538,4279.487179,4494.871794,4202.564102,4443.076923,4231.282051,4244.615384,4486.666666,4195.384615,4662.051282,4009.230769,4053.846153
179,4421.025641,4533.333333,4536.410256,4276.923076,4505.128205,4210.769230,4443.589743,4222.564102,4237.948717,4483.076923,4190.256410,4660.512820,3994.871795,4052.307692
180,4416.410256,4536.923076,4535.897435,4266.666666,4500.000000,4209.743589,4436.410256,4218.974358,4238.461538,4489.230769,4204.615384,4658.461538,3989.230770,4050.256410
181,4410.256410,4531.794871,4528.717948,4264.615384,4490.769230,4200.000000,4429.743589,4216.410256,4232.307692,4483.589743,4196.410256,4649.230769,3989.743590,4043.076923
182,4409.230769,4520.512820,4523.076923,4262.051282,4490.256410,4198.974358,4426.666666,4210.256410,4222.051282,4469.230769,4173.846153,4643.589743,3991.282052,4042.051282
183,4411.282051,4525.641025,4528.717948,4265.641025,4491.794871,4201.538461,4430.769230,4210.769230,4225.128205,4472.820512,4173.846153,4650.769230,3993.846154,4049.743589
184,4413.333333,4538.974358,4536.923076,4271.794871,4491.282051,4199.487179,4435.897435,4218.461538,4232.307692,4485.641025,4189.743589,4658.461538,3991.282052,4053.846153
185,4414.871794,4537.435897,4536.923076,4268.205128,4491.282051,4200.000000,4433.333333,4219.487179,4227.692307,4483.076923,4200.512820,4658.461538,3987.692308,4053.333333
186,4415.897435,4525.641025,4534.871794,4264.615384,4494.871794,4204.102564,4433.333333,4216.410256,4222.051282,4475.384615,4201.025641,4656.410256,3991.794872,4054.358974
187,4417.435897,4523.076923,4539.487179,4267.692307,4500.000000,4205.641025,4440.000000,4220.000000,4230.256410,4478.974358,4197.435897,4657.435897,3998.974359,4054.871794
188,4413.333333,4524.615384,4535.384615,4265.641025,4496.410256,4203.589743,4436.410256,4224.102564,4235.897435,4484.102564,4196.410256,4656.923076,3994.358975,4049.230769
189,4409.743589,4523.589743,4525.641025,4261.538461,4488.205128,4198.974358,4428.205128,4226.666666,4232.307692,4480.000000,4205.128205,4653.846153,3987.179488,4048.717948
190,4418.974358,4528.717948,4531.794871,4266.153846,4488.717948,4198.974358,4431.794871,4228.717948,4234.871794,4480.512820,4215.384615,4657.948717,3998.461539,4056.923076
191,4424.615384,4536.410256,4538.461538,4268.205128,4491.282051,4200.512820,4436.410256,4231.282051,4236.923076,4490.256410,4207.179487,4664.102564,4015.897435,4061.538461
192,4416.923076,4534.871794,4530.256410,4264.102564,4490.769230,4199.487179,4435.384615,4233.333333,4232.307692,4497.948717,4194.358974,4661.538461,4013.846153,4061.025641
193,4411.282051,4527.692307,4526.153846,4260.512820,4492.820512,4202.051282,4437.948717,4231.794871,4232.307692,4494.358974,4200.512820,4656.410256,3997.948718,4057.948717
194,4412.820512,4524.102564,4529.743589,4261.025641,4493.333333,4205.128205,4437.948717,4229.230769,4237.948717,4484.615384,4207.179487,4655.384615,3994.871795,4050.769230
195,4412.820512,4521.538461,4528.205128,4265.128205,4490.256410,4197.948717,4431.282051,4229.230769,4238.974358,4484.615384,4200.512820,4655.384615,4001.538461,4048.205128
196,4417.435897,4526.666666,4532.307692,4266.666666,4487.692307,4191.794871,4429.743589,4230.769230,4237.948717,4494.358974,4200.512820,4655.384615,4008.205128,4059.487179
197,4427.179487,4538.974358,4540.512820,4265.128205,4492.307692,4198.461538,4437.948717,4232.820512,4242.564102,4497.435897,4209.743589,4660.000000,4014.871794,4068.717948
198,4432.820512,4546.666666,4540.000000,4267.692307,4503.076923,4206.666666,4446.153846,4242.051282,4251.794871,4502.051282,4217.435897,4667.179487,4014.871794,4065.641025
199,4429.743589,4546.153846,4538.974358,4277.435897,4509.230769,4213.333333,4446.153846,4237.948717,4253.333333,4505.128205,4221.025641,4665.641025,4004.102564,4060.000000
200,4417.435897,4540.000000,4537.435897,4274.871794,4502.564102,4211.282051,4438.461538,4196.923076,4242.564102,4494.358974,4209.743589,4653.333333,3996.410257,4054.358974
201,4414.358974,4543.076923,4535.897435,4272.820512,4494.871794,4205.128205,4437.948717,4157.435897,4238.461538,4487.692307,4198.974358,4649.743589,4008.205128,4058.974358
202,4425.641025,4550.769230,4541.025641,4276.923076,4499.487179,4207.692307,4444.102564,4148.717948,4247.179487,4498.461538,4208.205128,4661.025641,4020.512820,4069.230769
203,4429.230769,4547.692307,4539.487179,4262.051282,4500.512820,4209.230769,4440.512820,4139.487179,4244.102564,4497.948717,4212.307692,4663.589743,4013.333333,4066.153846
204,4425.641025,4543.589743,4537.435897,4250.769230,4495.384615,4205.128205,4433.846153,4129.230769,4235.897435,4489.230769,4207.179487,4661.025641,4009.743589,4063.076923
205,4428.717948,4548.717948,4541.025641,4264.102564,4496.410256,4203.076923,4438.974358,4143.589743,4244.102564,4495.897435,4211.794871,4667.692307,4020.000000,4069.743589
206,4429.230769,4546.153846,4541.538461,4271.282051,4505.128205,4207.692307,4441.025641,4157.948717,4249.230769,4500.000000,4218.461538,4669.230769,4017.435897,4066.153846
207,4417.435897,4535.384615,4537.435897,4262.564102,4503.589743,4209.230769,4432.307692,4157.948717,4237.435897,4484.615384,4215.897435,4661.538461,4005.641025,4057.435897
208,4411.282051,4538.461538,4536.410256,4263.589743,4492.820512,4204.615384,4432.820512,4169.743589,4230.256410,4483.589743,4213.333333,4660.512820,4007.692307,4058.974358
209,4418.974358,4550.256410,4538.461538,4262.564102,4494.871794,4205.128205,4442.051282,4192.307692,4238.974358,4504.615384,4212.307692,4664.102564,4016.410256,4059.487179
210,4422.564102,4549.743589,4540.512820,4257.435897,4500.512820,4207.692307,4444.615384,4202.051282,4248.205128,4510.256410,4211.794871,4664.615384,4015.897435,4057.948717
211,4414.358974,4541.538461,4539.487179,4263.589743,4500.512820,4208.717948,4440.512820,4198.974358,4241.538461,4494.358974,4213.846153,4660.000000,4010.769230,4061.538461
212,4409.230769,4542.051282,4535.897435,4265.128205,4500.000000,4206.153846,4437.435897,4197.435897,4229.743589,4488.205128,4215.384615,4653.333333,4011.282051,4062.051282
213,4414.358974,4552.307692,4537.435897,4260.512820,4497.948717,4204.102564,4439.487179,4205.641025,4232.307692,4492.307692,4211.794871,4656.923076,4018.461538,4059.487179
214,4417.435897,4553.846153,4541.025641,4258.974358,4496.410256,4207.179487,4442.051282,4213.333333,4243.076923,4492.820512,4209.230769,4664.615384,4018.974358,4063.589743
215,4415.384615,4551.282051,4541.538461,4261.538461,4497.435897,4209.743589,4440.512820,4214.358974,4242.564102,4495.897435,4209.230769,4664.102564,4016.923076,4068.717948
216,4414.358974,4554.358974,4541.538461,4265.641025,4496.923076,4208.717948,4442.564102,4215.384615,4237.948717,4497.435897,4210.256410,4663.076923,4016.410256,4065.641025
217,4411.282051,4551.794871,4537.435897,4268.205128,4497.948717,4207.692307,4440.000000,4212.820512,4232.820512,4487.179487,4210.769230,4661.538461,4006.666666,4057.948717
218,4410.769230,4546.666666,4533.846153,4268.205128,4501.025641,4207.179487,4427.692307,4204.615384,4228.717948,4486.153846,4211.282051,4653.333333,4000.000000,4057.435897
219,4414.358974,4550.256410,4534.871794,4266.666666,4498.461538,4203.076923,4428.205128,4206.666666,4231.794871,4492.820512,4208.717948,4650.769230,4008.205128,4062.564102
220,4414.871794,4555.897435,4533.846153,4261.538461,4496.923076,4204.615384,4440.000000,4217.435897,4241.538461,4491.282051,4198.461538,4656.923076,4010.769230,4060.000000
221,4412.307692,4554.871794,4534.871794,4257.948717,4500.512820,4209.743589,4441.538461,4219.487179,4248.717948,4494.358974,4200.512820,4659.487179,4007.692307,4056.410256
222,4412.307692,4550.256410,4534.871794,4263.589743,4495.384615,4202.051282,4437.435897,4216.923076,4242.051282,4496.410256,4210.769230,4657.435897,4009.230769,4063.076923
223,4414.871794,4547.179487,4530.256410,4262.564102,4491.794871,4198.974358,4434.871794,4216.410256,4231.282051,4481.025641,4209.743589,4653.333333,4007.692307,4062.051282
224,4414.358974,4543.076923,4527.179487,4251.794871,4492.820512,4202.564102,4430.769230,4215.384615,4226.666666,4471.794871,4200.512820,4649.230769,3999.487180,4048.717948
225,4412.820512,4537.435897,4531.794871,4243.589743,4491.282051,4199.487179,4433.333333,4220.000000,4234.358974,4485.641025,4194.871794,4652.307692,3999.487180,4048.717948
226,4413.333333,4537.948717,4536.923076,4247.179487,4492.307692,4199.487179,4442.051282,4230.256410,4247.692307,4496.410256,4204.615384,4658.461538,4006.666666,4061.538461
227,4414.358974,4545.128205,4537.948717,4258.974358,4492.820512,4204.102564,4443.076923,4233.846153,4246.153846,4490.769230,4217.948717,4660.000000,4007.179487,4065.128205
228,4413.333333,4544.102564,4537.948717,4266.153846,4492.820512,4204.615384,4440.000000,4228.717948,4235.384615,4487.692307,4215.897435,4662.564102,3999.487180,4058.461538
229,4411.282051,4538.974358,4537.948717,4266.153846,4493.333333,4200.512820,4442.564102,4227.692307,4232.307692,4491.794871,4204.102564,4665.641025,3998.461539,4054.871794
230,4413.846153,4549.743589,4540.512820,4267.179487,4492.307692,4200.000000,4443.589743,4227.179487,4234.871794,4489.743589,4199.487179,4663.076923,4007.692307,4058.461538
231,4417.948717,4557.948717,4540.512820,4261.538461,4492.820512,4203.589743,4437.435897,4227.692307,4233.846153,4481.538461,4200.512820,4659.487179,4007.179487,4060.000000
232,4411.794871,4543.076923,4536.923076,4251.282051,4491.282051,4201.025641,4433.333333,4221.538461,4235.897435,4476.923076,4196.923076,4656.410256,3993.333334,4053.333333
233,4410.256410,4537.948717,4534.871794,4256.923076,4490.256410,4199.487179,4438.461538,4196.923076,4241.025641,4485.128205,4203.076923,4657.948717,3992.307693,4052.307692
234,4425.641025,4553.846153,4540.512820,4267.692307,4494.358974,4204.102564,4447.179487,4176.923076,4248.205128,4503.076923,4216.410256,4666.666666,4008.205128,4064.102564
235,4431.282051,4560.512820,4542.051282,4266.153846,4497.948717,4205.641025,4446.666666,4165.128205,4246.666666,4505.641025,4218.974358,4667.179487,4015.897435,4069.230769
236,4417.948717,4549.743589,4530.769230,4261.025641,4494.358974,4200.512820,4438.974358,4145.128205,4235.897435,4490.769230,4203.076923,4656.923076,4005.641025,4062.051282
237,4411.794871,4540.000000,4523.076923,4250.256410,4491.794871,4200.000000,4434.871794,4116.410256,4234.358974,4487.692307,4192.307692,4651.794871,3996.410257,4052.307692
238,4412.820512,4537.435897,4523.076923,4244.102564,4490.769230,4200.512820,4431.794871,4091.794871,4232.307692,4485.641025,4197.435897,4649.230769,3994.358975,4047.179487
239,4411.794871,4538.974358,4522.051282,4256.923076,4492.307692,4202.051282,4433.333333,4075.897435,4225.641025,4476.410256,4205.128205,4646.666666,3998.974359,4054.358974
240,4418.974358,4548.205128,4523.589743,4267.692307,4500.512820,4207.692307,4441.538461,4066.153846,4232.307692,4487.179487,4210.769230,4653.333333,4009.230769,4062.564102
241,4425.641025,4552.307692,4531.282051,4263.589743,4501.538461,4206.153846,4446.153846,4055.384615,4242.051282,4501.025641,4206.666666,4660.000000,4008.205128,4055.384615
242,4423.589743,4549.230769,4533.846153,4265.128205,4498.974358,4207.179487,4443.076923,4036.923076,4238.974358,4494.871794,4197.948717,4657.948717,3997.948718,4052.820512
243,4421.025641,4550.769230,4536.410256,4266.153846,4503.076923,4215.384615,4441.025641,4022.564102,4234.358974,4490.769230,4205.128205,4658.974358,3999.487180,4065.641025
244,4417.435897,4547.179487,4537.948717,4251.794871,4500.512820,4209.743589,4435.897435,4008.717948,4229.230769,4484.102564,4212.307692,4658.974358,4002.051282,4066.666666
245,4412.820512,4536.923076,4528.205128,4246.666666,4488.717948,4195.897435,4427.179487,3992.820513,4223.589743,4474.871794,4201.538461,4654.871794,3991.282052,4054.358974
246,4413.846153,4534.871794,4527.692307,4258.974358,4488.717948,4196.923076,4429.743589,3989.743590,4230.256410,4483.076923,4194.358974,4657.948717,3987.179488,4052.820512
247,4416.923076,4543.076923,4536.923076,4267.179487,4494.871794,4202.564102,4437.435897,3989.743590,4237.948717,4487.692307,4204.102564,4662.564102,3996.410257,4056.923076
248,4413.846153,4544.615384,4531.794871,4261.025641,4491.282051,4199.487179,4434.871794,3980.512821,4232.307692,4483.589743,4201.538461,4655.384615,4000.000000,4056.923076
249,4413.846153,4541.025641,4527.179487,4254.358974,4490.256410,4200.512820,4429.230769,3969.230770,4227.692307,4488.205128,4187.692307,4650.769230,3996.410257,4057.435897
250,4416.410256,4540.000000,4532.307692,4254.871794,4492.820512,4203.589743,4429.743589,3962.564103,4231.794871,4485.128205,4191.282051,4656.410256,3991.794872,4058.461538
251,4413.333333,4538.461538,4531.282051,4255.384615,4491.282051,4198.974358,4427.692307,3951.794872,4226.666666,4469.230769,4204.615384,4654.358974,3984.102565,4055.384615
252,4408.717948,4542.051282,4525.641025,4257.435897,4490.256410,4197.435897,4425.128205,3940.000000,4218.461538,4473.333333,4206.153846,4649.743589,3984.615385,4049.743589
253,4408.205128,4547.179487,4528.205128,4258.974358,4495.897435,4206.666666,4432.820512,3940.512821,4222.564102,4485.641025,4195.897435,4652.307692,3992.820513,4049.743589
254,4409.743589,4545.128205,4531.794871,4260.000000,4498.461538,4209.743589,4437.948717,3942.564103,4226.153846,4480.000000,4193.333333,4653.846153,3993.333334,4056.923076
255,4415.897435,4547.692307,4535.384615,4257.948717,4491.794871,4201.538461,4429.743589,3934.358975,4226.153846,4477.435897,4204.102564,4653.333333,3991.282052,4064.102564
