,AF3,F7,F3,FC5,T7,P7,O1,O2,P8,T8,FC6,F4,F8,AF4
0,4405.128205,4556.410256,4512.820512,4272.820512,4467.179487,4184.615384,4429.743589,4189.230769,4207.179487,4492.307692,4231.282051,4633.846153,3981.538462,4028.205128
1,4415.384615,4568.205128,4525.128205,4278.461538,4466.153846,4185.641025,4440.000000,4209.230769,4227.692307,4515.897435,4250.256410,4646.666666,3995.897436,4036.923076
2,4421.025641,4572.820512,4531.794871,4280.000000,4474.871794,4185.128205,4446.666666,4217.435897,4242.564102,4533.846153,4266.153846,4657.435897,4013.846153,4045.128205
3,4420.000000,4571.282051,4529.230769,4282.051282,4475.897435,4188.205128,4444.102564,4215.384615,4234.871794,4522.051282,4264.102564,4651.282051,4011.282051,4045.641025
4,4420.512820,4570.769230,4525.641025,4280.512820,4473.846153,4193.846153,4438.461538,4212.820512,4229.743589,4520.000000,4256.410256,4645.641025,4004.102564,4042.564102
5,4417.948717,4570.769230,4521.538461,4277.948717,4476.410256,4191.282051,4430.769230,4205.128205,4226.666666,4527.179487,4254.358974,4645.128205,4006.153846,4040.512820
6,4418.974358,4573.846153,4522.051282,4281.025641,4475.384615,4185.641025,4430.256410,4203.076923,4226.153846,4522.564102,4255.897435,4644.615384,4007.179487,4041.025641
7,4423.076923,4574.358974,4524.102564,4283.076923,4473.333333,4185.641025,4432.820512,4205.128205,4226.153846,4515.384615,4253.846153,4644.615384,4005.128205,4041.025641
8,4416.923076,4569.230769,4518.974358,4279.487179,4473.846153,4186.666666,4428.717948,4202.564102,4224.615384,4517.435897,4253.846153,4643.589743,4002.051282,4037.435897
9,4410.256410,4568.717948,4519.487179,4277.435897,4473.333333,4188.717948,4432.307692,4205.641025,4231.794871,4519.487179,4258.974358,4641.538461,3998.974359,4033.846153
10,4414.358974,4572.820512,4526.153846,4279.487179,4474.358974,4189.743589,4437.948717,4208.205128,4235.384615,4515.384615,4257.435897,4644.615384,3995.384616,4033.846153
11,4416.923076,4572.307692,4522.051282,4278.461538,4473.333333,4185.641025,4432.820512,4200.512820,4218.461538,4517.435897,4249.743589,4646.666666,3995.384616,4031.794871
12,4410.256410,4566.666666,4515.384615,4271.794871,4466.666666,4180.512820,4426.153846,4195.897435,4210.256410,4517.948717,4246.666666,4641.538461,3999.487180,4024.615384
13,4411.282051,4567.692307,4521.538461,4271.794871,4467.179487,4183.589743,4425.641025,4202.051282,4224.102564,4510.256410,4247.692307,4643.076923,4001.025641,4026.666666
14,4423.076923,4577.948717,4533.333333,4282.564102,4474.358974,4190.769230,4432.820512,4208.717948,4232.820512,4515.897435,4256.923076,4656.923076,4007.179487,4042.051282
15,4427.692307,4581.025641,4537.435897,4288.717948,4475.897435,4193.846153,4441.025641,4209.743589,4233.846153,4524.615384,4265.641025,4664.102564,4009.230769,4049.230769
16,4415.384615,4570.769230,4530.256410,4281.025641,4477.435897,4187.692307,4436.923076,4202.051282,4235.384615,4515.384615,4258.974358,4655.384615,3997.948718,4038.974358
17,4407.692307,4563.589743,4524.102564,4273.846153,4472.307692,4183.076923,4426.666666,4198.461538,4229.743589,4511.282051,4252.307692,4647.692307,3995.384616,4030.769230
18,4413.846153,4569.230769,4526.666666,4277.948717,4464.102564,4184.615384,4427.692307,4201.538461,4222.564102,4525.641025,4258.974358,4652.307692,4004.615384,4034.358974
19,4415.384615,4570.256410,4528.717948,4278.974358,4468.717948,4184.102564,4429.230769,4199.487179,4224.102564,4527.179487,4266.153846,4655.897435,4009.230769,4041.538461
20,4411.282051,4559.487179,4522.564102,4270.769230,4472.820512,4183.589743,4425.128205,4198.461538,4229.743589,4512.307692,4258.461538,4652.307692,4006.153846,4041.025641
21,4410.256410,4553.333333,4517.435897,4264.615384,4467.179487,4185.128205,4425.641025,4199.487179,4231.282051,4512.307692,4246.666666,4648.205128,3997.435898,4034.358974
22,4410.769230,4557.435897,4522.564102,4264.102564,4468.205128,4183.076923,4427.692307,4199.487179,4231.794871,4519.487179,4251.794871,4649.743589,3992.820513,4039.487179
23,4410.256410,4559.487179,4525.641025,4267.692307,4470.256410,4184.102564,4429.743589,4201.538461,4229.743589,4509.230769,4257.948717,4647.692307,3994.358975,4047.692307
24,4406.153846,4554.871794,4518.461538,4265.128205,4462.051282,4182.564102,4428.205128,4199.487179,4225.128205,4498.461538,4247.692307,4642.051282,3990.769231,4044.615384
25,4400.512820,4551.794871,4513.846153,4262.051282,4456.923076,4175.384615,4418.974358,4194.358974,4219.487179,4508.205128,4241.025641,4642.564102,3987.692308,4041.025641
26,4400.512820,4554.358974,4516.923076,4268.205128,4463.076923,4175.897435,4419.487179,4195.897435,4218.974358,4514.871794,4247.179487,4646.666666,3990.256411,4045.641025
27,4407.179487,4561.025641,4522.564102,4270.769230,4472.307692,4184.615384,4426.153846,4201.025641,4223.589743,4506.153846,4247.692307,4648.717948,3987.692308,4053.846153
28,4411.794871,4565.641025,4526.153846,4264.102564,4475.897435,4186.153846,4427.179487,4201.025641,4229.743589,4506.666666,4245.128205,4650.256410,3988.717949,4059.487179
29,4411.794871,4570.256410,4527.692307,4271.282051,4471.282051,4185.641025,4432.307692,4205.128205,4236.923076,4516.410256,4254.358974,4654.871794,3995.897436,4062.051282
30,4415.384615,4571.794871,4533.846153,4283.589743,4473.846153,4189.743589,4445.128205,4218.974358,4238.974358,4515.897435,4263.076923,4661.025641,3996.410257,4068.717948
31,4418.461538,4563.589743,4538.461538,4275.897435,4480.000000,4189.743589,4447.692307,4222.564102,4236.410256,4507.692307,4258.974358,4661.538461,3993.846154,4071.794871
32,4408.717948,4555.384615,4532.820512,4262.564102,4474.358974,4185.128205,4436.923076,4206.153846,4229.743589,4503.589743,4247.692307,4653.333333,3990.256411,4060.512820
33,4398.974358,4555.384615,4524.615384,4263.589743,4468.205128,4184.615384,4430.256410,4196.410256,4224.615384,4505.128205,4236.923076,4643.076923,3980.000000,4051.282051
34,4401.538461,4554.358974,4526.666666,4266.666666,4474.358974,4187.179487,4431.794871,4201.025641,4222.051282,4507.692307,4237.435897,4640.512820,3974.871795,4058.974358
35,4401.025641,4549.230769,4525.128205,4262.051282,4471.794871,4184.615384,4433.846153,4196.410256,4210.769230,4501.025641,4242.564102,4641.025641,3976.410257,4060.000000
36,4397.435897,4551.794871,4521.538461,4263.589743,4461.538461,4182.564102,4432.307692,4190.769230,4206.153846,4494.358974,4238.974358,4641.538461,3977.435898,4051.794871
37,4397.435897,4554.358974,4525.641025,4266.666666,4466.153846,4184.615384,4432.820512,4198.461538,4217.435897,4496.923076,4229.230769,4643.589743,3981.025642,4048.717948
38,4393.333333,4544.102564,4523.076923,4253.333333,4469.743589,4181.025641,4431.282051,4193.846153,4213.846153,4490.256410,4226.666666,4635.897435,3976.923077,4047.179487
39,4388.717948,4538.974358,4513.333333,4246.666666,4464.615384,4177.948717,4427.179487,4183.076923,4201.025641,4485.128205,4236.410256,4627.179487,3968.717949,4046.666666
40,4392.820512,4549.230769,4516.923076,4264.615384,4463.589743,4182.051282,4430.769230,4193.333333,4214.358974,4497.435897,4245.641025,4636.410256,3974.871795,4049.230769
41,4404.102564,4559.487179,4527.179487,4278.461538,4467.692307,4186.153846,4438.974358,4204.615384,4229.743589,4504.102564,4248.205128,4650.769230,3989.230770,4054.358974
42,4412.820512,4564.102564,4532.820512,4277.435897,4470.769230,4187.179487,4443.076923,4202.564102,4227.692307,4499.487179,4250.256410,4654.358974,3992.307693,4060.512820
43,4407.692307,4564.102564,4533.846153,4274.871794,4472.820512,4188.205128,4440.000000,4200.000000,4230.769230,4506.666666,4255.897435,4651.282051,3985.641026,4062.564102
44,4392.307692,4556.410256,4525.128205,4267.692307,4475.384615,4187.692307,4431.282051,4196.410256,4226.666666,4511.282051,4250.256410,4642.051282,3981.538462,4054.358974
45,4392.307692,4551.282051,4518.974358,4262.051282,4472.307692,4184.102564,4427.179487,4192.820512,4214.358974,4502.051282,4241.025641,4635.384615,3981.025642,4047.179487
46,4406.666666,4556.410256,4527.179487,4266.153846,4467.179487,4183.589743,4431.282051,4200.512820,4218.974358,4497.948717,4245.641025,4641.538461,3983.589744,4053.333333
47,4405.128205,4557.435897,4527.692307,4267.179487,4464.102564,4183.076923,4429.230769,4200.512820,4223.076923,4493.846153,4240.512820,4643.076923,3982.564103,4053.846153
48,4395.384615,4552.820512,4518.461538,4258.974358,4464.102564,4176.923076,4423.076923,4185.641025,4212.307692,4488.717948,4224.615384,4631.282051,3975.384616,4042.564102
49,4395.897435,4553.333333,4516.410256,4257.435897,4465.128205,4177.948717,4425.641025,4187.179487,4210.769230,4491.282051,4224.102564,4627.692307,3970.256411,4040.512820
50,4395.384615,4550.769230,4516.410256,4260.000000,4465.128205,4179.487179,4427.179487,4194.358974,4212.307692,4491.794871,4229.743589,4631.794871,3969.743590,4040.000000
51,4391.282051,4545.641025,4512.307692,4263.589743,4465.128205,4175.897435,4425.641025,4193.333333,4209.743589,4489.230769,4231.794871,4631.282051,3973.333334,4037.948717
52,4394.358974,4547.692307,4512.307692,4270.256410,4461.025641,4173.846153,4428.717948,4195.384615,4214.358974,4492.820512,4234.871794,4631.794871,3973.846154,4041.538461
53,4393.333333,4546.153846,4513.333333,4270.256410,4459.487179,4173.333333,4430.769230,4191.794871,4209.230769,4490.256410,4231.794871,4632.820512,3966.153847,4038.974358
54,4384.615384,4539.487179,4510.769230,4261.538461,4458.974358,4170.769230,4427.179487,4178.461538,4193.333333,4478.974358,4225.128205,4628.717948,3962.564103,4031.794871
55,4389.743589,4547.179487,4512.820512,4260.512820,4456.410256,4171.794871,4427.692307,4179.487179,4193.333333,4482.051282,4230.769230,4629.743589,3970.769231,4036.410256
56,4398.974358,4555.897435,4518.461538,4268.205128,4461.025641,4175.384615,4430.769230,4190.256410,4205.128205,4494.871794,4234.871794,4638.974358,3977.435898,4036.923076
57,4392.307692,4545.641025,4518.974358,4269.230769,4466.153846,4176.410256,4428.717948,4189.743589,4207.179487,4495.384615,4229.743589,4637.435897,3969.743590,4028.205128
58,4391.282051,4543.589743,4517.435897,4271.282051,4462.564102,4180.000000,4432.307692,4194.358974,4208.205128,4488.205128,4233.333333,4637.435897,3970.256411,4038.974358
59,4403.589743,4558.461538,4521.025641,4282.051282,4462.564102,4182.564102,4437.435897,4203.076923,4216.923076,4490.256410,4237.435897,4644.615384,3977.435898,4050.769230
60,4404.615384,4555.897435,4524.102564,4280.000000,4469.743589,4180.512820,4433.846153,4203.589743,4218.974358,4498.461538,4233.333333,4643.076923,3974.358975,4040.512820
61,4392.820512,4541.538461,4518.974358,4264.102564,4469.230769,4182.564102,4428.717948,4199.487179,4212.820512,4501.025641,4228.717948,4635.384615,3972.307693,4030.769230
62,4391.282051,4544.615384,4518.461538,4264.102564,4464.102564,4183.589743,4432.307692,4195.384615,4208.717948,4494.358974,4225.128205,4635.384615,3973.846154,4034.358974
63,4401.538461,4555.897435,4526.666666,4278.461538,4472.307692,4183.589743,4441.025641,4196.923076,4213.846153,4487.692307,4225.128205,4638.461538,3972.820513,4042.564102
64,4403.076923,4556.410256,4529.230769,4280.512820,4478.461538,4186.666666,4442.051282,4200.512820,4218.974358,4494.358974,4231.794871,4638.461538,3974.358975,4045.128205
65,4397.948717,4553.333333,4524.102564,4272.820512,4471.794871,4184.615384,4438.974358,4201.025641,4215.384615,4503.076923,4234.871794,4636.410256,3976.923077,4042.051282
66,4395.897435,4549.743589,4518.974358,4267.179487,4470.769230,4183.076923,4432.820512,4196.923076,4210.256410,4491.794871,4229.230769,4632.820512,3972.820513,4034.871794
67,4397.435897,4547.179487,4521.538461,4266.153846,4475.897435,4187.179487,4432.307692,4195.384615,4212.307692,4484.102564,4231.282051,4633.846153,3970.769231,4028.717948
68,4399.487179,4552.820512,4527.692307,4273.846153,4476.923076,4187.692307,4439.487179,4198.974358,4216.410256,4496.923076,4242.051282,4638.461538,3974.358975,4035.384615
69,4396.923076,4556.410256,4529.743589,4279.487179,4476.410256,4186.153846,4443.076923,4200.000000,4215.384615,4503.076923,4241.538461,4638.974358,3974.871795,4044.615384
70,4401.538461,4552.307692,4527.692307,4279.487179,4474.871794,4190.256410,4441.538461,4204.102564,4218.974358,4498.461538,4233.846153,4641.025641,3977.435898,4045.641025
71,4410.769230,4554.871794,4531.794871,4280.512820,4474.871794,4190.769230,4443.076923,4211.794871,4226.153846,4504.615384,4240.512820,4647.692307,3988.205129,4045.641025
72,4406.666666,4557.948717,4531.282051,4274.358974,4481.538461,4192.307692,4444.615384,4211.794871,4227.179487,4511.282051,4252.820512,4648.205128,3994.358975,4049.743589
73,4396.923076,4553.846153,4525.641025,4269.230769,4482.564102,4194.871794,4440.000000,4209.743589,4227.179487,4506.666666,4247.179487,4645.641025,3988.205129,4045.128205
74,4398.461538,4552.820512,4527.179487,4276.923076,4475.897435,4189.230769,4439.487179,4216.410256,4236.410256,4507.692307,4239.487179,4647.692307,3987.179488,4036.410256
75,4405.128205,4554.871794,4532.307692,4279.487179,4482.051282,4190.769230,4444.102564,4220.512820,4241.025641,4518.974358,4253.333333,4651.794871,3997.435898,4045.128205
76,4408.717948,4556.923076,4534.358974,4275.384615,4488.717948,4198.974358,4446.153846,4217.948717,4238.974358,4521.538461,4262.051282,4654.871794,3997.948718,4053.333333
77,4405.128205,4555.897435,4533.333333,4276.410256,4482.051282,4196.923076,4445.128205,4218.461538,4234.871794,4513.846153,4253.846153,4653.846153,3982.051283,4042.564102
78,4402.051282,4553.846153,4530.256410,4276.923076,4483.076923,4194.358974,4444.102564,4213.333333,4230.256410,4515.384615,4252.307692,4648.205128,3983.076924,4034.358974
79,4407.179487,4556.410256,4530.256410,4279.487179,4492.307692,4203.076923,4445.641025,4206.153846,4233.846153,4522.564102,4257.948717,4650.256410,4004.102564,4038.974358
80,4409.743589,4558.974358,4538.974358,4282.051282,4491.282051,4203.076923,4446.666666,4207.692307,4235.897435,4513.846153,4251.794871,4656.923076,4005.641025,4042.564102
81,4403.076923,4555.897435,4541.538461,4277.948717,4483.589743,4196.923076,4445.128205,4207.179487,4226.153846,4500.000000,4243.589743,4653.333333,3987.692308,4040.512820
82,4402.051282,4554.358974,4534.871794,4278.974358,4483.589743,4198.461538,4443.076923,4203.076923,4222.564102,4505.641025,4248.717948,4647.179487,3982.051283,4038.461538
83,4406.666666,4555.897435,4534.358974,4279.487179,4485.128205,4198.974358,4443.076923,4201.025641,4230.256410,4516.410256,4249.230769,4651.794871,3989.743590,4033.846153
84,4407.692307,4555.384615,4537.435897,4273.846153,4481.538461,4197.948717,4443.589743,4202.051282,4231.282051,4515.384615,4237.435897,4651.794871,3986.666667,4033.333333
85,4408.717948,4554.871794,4536.410256,4277.948717,4481.538461,4198.974358,4442.564102,4202.051282,4226.666666,4507.692307,4232.307692,4649.230769,3981.538462,4041.025641
86,4409.743589,4554.358974,4534.358974,4284.102564,4487.692307,4199.487179,4442.564102,4200.512820,4227.692307,4503.589743,4242.564102,4652.820512,3979.487180,4042.051282
87,4413.333333,4556.410256,4534.358974,4281.538461,4490.256410,4199.487179,4438.974358,4203.076923,4227.692307,4509.230769,4254.358974,4657.948717,3982.564103,4040.512820
88,4409.743589,4554.871794,4529.743589,4277.948717,4487.692307,4199.487179,4431.794871,4202.564102,4217.948717,4507.179487,4246.666666,4654.871794,3988.205129,4033.846153
89,4392.307692,4540.512820,4521.025641,4266.153846,4484.102564,4192.820512,4425.641025,4191.282051,4204.102564,4488.205128,4224.615384,4642.564102,3973.846154,4018.974358
90,4383.589743,4534.871794,4514.871794,4255.384615,4480.512820,4188.717948,4424.615384,4184.102564,4202.564102,4485.128205,4221.025641,4634.871794,3964.615385,4016.923076
91,4392.820512,4549.230769,4520.512820,4268.717948,4485.128205,4196.923076,4433.333333,4195.897435,4216.923076,4509.230769,4243.589743,4643.589743,3981.025642,4027.179487
92,4400.512820,4556.923076,4530.256410,4283.076923,4492.820512,4202.051282,4442.564102,4207.692307,4230.769230,4520.512820,4254.358974,4655.897435,3990.256411,4033.333333
93,4396.923076,4549.743589,4525.128205,4274.871794,4490.256410,4198.461538,4439.487179,4203.589743,4230.769230,4506.666666,4241.025641,4653.846153,3981.538462,4030.769230
94,4395.897435,4548.717948,4515.897435,4270.256410,4489.230769,4200.000000,4433.846153,4198.461538,4222.051282,4502.564102,4239.487179,4647.179487,3984.102565,4028.717948
95,4399.487179,4554.871794,4520.000000,4277.435897,4492.307692,4203.076923,4437.435897,4202.051282,4218.974358,4511.794871,4250.769230,4649.743589,3993.333334,4029.743589
96,4407.692307,4557.435897,4529.743589,4281.025641,4491.794871,4200.512820,4442.564102,4209.230769,4226.153846,4516.923076,4252.307692,4660.000000,3996.923077,4039.487179
97,4415.384615,4554.871794,4533.846153,4280.000000,4492.820512,4201.025641,4444.102564,4217.435897,4238.974358,4524.615384,4254.358974,4667.692307,4005.128205,4048.717948
98,4413.846153,4553.846153,4533.846153,4283.076923,4497.435897,4207.179487,4445.641025,4218.974358,4241.538461,4528.205128,4270.769230,4669.230769,4005.128205,4046.666666
99,4413.333333,4559.487179,4536.923076,4292.820512,4500.512820,4211.282051,4446.666666,4218.461538,4235.384615,4523.589743,4274.358974,4669.230769,4000.512820,4046.666666
100,4417.435897,4562.051282,4536.923076,4290.769230,4497.948717,4207.179487,4443.076923,4215.384615,4233.333333,4522.564102,4243.589743,4663.589743,3998.974359,4043.589743
101,4409.743589,4555.384615,4527.692307,4268.717948,4491.282051,4200.000000,4433.846153,4204.102564,4231.282051,4518.461538,4225.641025,4650.769230,3987.179488,4033.846153
102,4398.461538,4551.282051,4521.538461,4258.974358,4489.743589,4198.974358,4429.743589,4197.435897,4220.000000,4509.230769,4244.615384,4646.153846,3979.487180,4032.820512
103,4405.641025,4557.948717,4528.205128,4275.897435,4492.307692,4201.538461,4438.974358,4205.641025,4215.384615,4508.205128,4257.435897,4652.820512,3990.769231,4038.974358
104,4413.333333,4565.641025,4528.205128,4285.641025,4491.282051,4202.564102,4445.641025,4213.846153,4227.692307,4508.205128,4245.128205,4652.820512,3996.410257,4036.923076
105,4410.769230,4568.717948,4519.487179,4277.435897,4491.794871,4202.051282,4443.076923,4216.410256,4236.923076,4508.205128,4237.948717,4645.641025,3988.717949,4033.846153
106,4406.153846,4566.666666,4519.487179,4274.871794,4496.410256,4202.564102,4438.974358,4214.358974,4228.205128,4516.923076,4244.615384,4643.589743,3989.743590,4035.384615
107,4401.025641,4560.000000,4521.538461,4278.974358,4496.410256,4202.564102,4434.871794,4207.179487,4220.512820,4516.923076,4249.230769,4642.564102,3993.846154,4033.333333
108,4401.025641,4561.538461,4514.358974,4276.923076,4491.794871,4200.000000,4430.769230,4202.051282,4220.512820,4511.794871,4248.717948,4637.435897,3987.692308,4027.179487
109,4406.153846,4567.692307,4507.179487,4271.794871,4489.743589,4199.487179,4428.205128,4199.487179,4215.384615,4513.333333,4245.128205,4634.871794,3983.076924,4024.102564
110,4408.205128,4567.692307,4512.820512,4275.384615,4491.282051,4200.512820,4430.256410,4198.974358,4220.000000,4514.358974,4243.589743,4641.025641,3989.743590,4032.820512
111,4412.820512,4566.153846,4523.589743,4287.692307,4492.820512,4201.538461,4437.948717,4205.128205,4232.820512,4514.358974,4250.769230,4649.230769,3996.923077,4043.589743
112,4418.974358,4571.794871,4527.692307,4289.230769,4494.358974,4202.564102,4444.102564,4208.717948,4227.692307,4514.358974,4261.538461,4655.384615,3996.923077,4043.076923
113,4415.384615,4572.307692,4522.051282,4281.538461,4493.333333,4200.512820,4438.974358,4205.128205,4220.000000,4507.179487,4256.410256,4656.410256,3995.384616,4036.410256
114,4409.230769,4559.487179,4515.384615,4276.410256,4490.256410,4198.461538,4432.820512,4202.564102,4226.153846,4503.076923,4242.564102,4651.282051,3995.384616,4035.897435
115,4407.692307,4554.871794,4515.897435,4278.461538,4489.743589,4198.461538,4432.820512,4203.589743,4225.641025,4509.230769,4253.846153,4649.743589,3995.897436,4041.538461
116,4407.692307,4565.128205,4517.435897,4286.153846,4489.743589,4198.974358,4434.871794,4201.025641,4219.487179,4510.256410,4267.692307,4653.333333,3990.256411,4036.410256
117,4409.743589,4568.205128,4517.948717,4287.692307,4490.256410,4198.974358,4433.846153,4201.025641,4223.589743,4509.743589,4251.282051,4654.358974,3987.692308,4025.128205
118,4409.743589,4563.589743,4518.461538,4280.512820,4492.307692,4200.000000,4430.256410,4202.051282,4220.000000,4509.230769,4233.846153,4649.743589,3990.769231,4030.769230
119,4407.179487,4564.102564,4516.923076,4276.923076,4493.846153,4200.512820,4430.769230,4200.000000,4208.717948,4503.589743,4240.000000,4648.205128,3989.743590,4042.051282
120,4406.153846,4561.538461,4517.435897,4276.923076,4491.794871,4200.000000,4436.923076,4202.051282,4215.897435,4507.692307,4252.307692,4651.794871,3988.205129,4038.974358
121,4406.666666,4554.358974,4523.589743,4274.871794,4488.205128,4198.974358,4441.538461,4209.230769,4228.717948,4510.769230,4254.871794,4653.846153,3991.282052,4033.333333
122,4411.794871,4556.923076,4526.666666,4277.948717,4488.717948,4198.974358,4444.615384,4217.948717,4232.820512,4506.153846,4261.025641,4655.384615,3997.435898,4038.974358
123,4411.794871,4558.461538,4520.512820,4276.410256,4492.820512,4202.051282,4443.589743,4220.000000,4234.358974,4512.820512,4269.230769,4658.461538,3996.923077,4041.025641
124,4402.051282,4552.820512,4513.846153,4266.666666,4492.820512,4200.512820,4436.923076,4215.384615,4231.794871,4521.025641,4257.435897,4656.410256,3989.743590,4034.358974
125,4403.076923,4552.307692,4515.897435,4264.615384,4487.692307,4195.897435,4435.384615,4212.307692,4229.230769,4516.923076,4247.179487,4654.358974,3983.589744,4038.974358
126,4412.820512,4555.384615,4522.564102,4268.205128,4489.743589,4199.487179,4445.128205,4217.435897,4235.384615,4521.538461,4260.512820,4662.051282,3991.794872,4056.923076
127,4408.205128,4555.384615,4521.025641,4266.153846,4493.333333,4204.102564,4441.538461,4213.333333,4233.333333,4520.512820,4265.128205,4662.051282,3999.487180,4057.948717
128,4395.897435,4553.846153,4510.256410,4261.538461,4492.307692,4200.512820,4428.205128,4195.384615,4214.871794,4496.923076,4240.000000,4647.179487,3983.076924,4038.461538
129,4392.307692,4551.794871,4509.743589,4262.051282,4490.769230,4197.435897,4431.282051,4191.282051,4211.794871,4496.923076,4229.230769,4642.564102,3970.256411,4040.000000
130,4403.076923,4553.846153,4523.589743,4265.128205,4490.256410,4201.025641,4443.589743,4207.692307,4230.769230,4522.564102,4251.282051,4657.948717,3985.128206,4065.641025
131,4415.897435,4563.589743,4532.820512,4266.666666,4496.410256,4203.076923,4446.666666,4220.512820,4240.512820,4528.205128,4266.153846,4669.230769,4003.589743,4072.307692
132,4408.717948,4567.179487,4525.128205,4263.076923,4499.487179,4202.051282,4441.538461,4213.333333,4229.743589,4514.871794,4254.358974,4658.974358,3991.794872,4060.512820
133,4393.846153,4558.461538,4517.948717,4261.025641,4493.846153,4201.538461,4438.974358,4203.589743,4218.461538,4510.256410,4237.435897,4648.717948,3976.923077,4057.435897
134,4396.410256,4551.282051,4523.589743,4263.076923,4498.461538,4202.564102,4440.512820,4208.205128,4226.666666,4511.794871,4238.974358,4655.384615,3981.538462,4061.025641
135,4402.051282,4550.769230,4525.641025,4262.051282,4501.538461,4202.051282,4442.564102,4215.897435,4234.358974,4515.384615,4248.205128,4658.974358,3985.641026,4062.051282
136,4402.051282,4559.487179,4522.564102,4262.564102,4495.897435,4202.051282,4444.102564,4217.435897,4229.230769,4524.615384,4255.897435,4656.410256,3996.410257,4070.769230
137,4409.230769,4569.743589,4528.205128,4272.820512,4496.923076,4206.666666,4445.641025,4215.897435,4225.641025,4522.051282,4265.128205,4664.102564,4009.230769,4081.025641
138,4413.333333,4566.666666,4533.333333,4276.410256,4500.512820,4206.153846,4443.076923,4209.743589,4233.333333,4515.384615,4261.538461,4667.692307,4001.538461,4075.897435
139,4405.641025,4558.461538,4527.692307,4266.666666,4495.897435,4201.025641,4437.435897,4203.076923,4236.410256,4522.051282,4254.358974,4656.410256,3992.307693,4070.256410
140,4400.512820,4557.948717,4521.538461,4263.589743,4496.410256,4200.512820,4439.487179,4201.538461,4225.641025,4516.410256,4259.487179,4652.820512,4003.589743,4071.282051
141,4402.564102,4558.461538,4522.051282,4265.128205,4494.871794,4201.025641,4441.025641,4205.128205,4222.051282,4496.410256,4260.000000,4653.333333,4004.102564,4070.256410
142,4401.025641,4554.871794,4519.487179,4260.512820,4487.692307,4197.948717,4434.871794,4208.717948,4225.128205,4501.025641,4246.153846,4649.230769,3987.179488,4066.153846
143,4396.410256,4552.307692,4515.384615,4259.487179,4489.230769,4194.871794,4428.717948,4206.153846,4224.615384,4518.461538,4243.589743,4648.717948,3984.615385,4061.025641
144,4398.974358,4557.948717,4520.000000,4266.153846,4490.256410,4195.897435,4432.820512,4205.641025,4223.076923,4512.820512,4254.871794,4651.794871,3991.282052,4062.051282
145,4403.589743,4567.179487,4526.666666,4263.076923,4490.769230,4198.974358,4437.948717,4208.205128,4220.512820,4504.102564,4255.384615,4649.743589,3993.333334,4067.179487
146,4397.948717,4560.512820,4516.923076,4250.769230,4493.846153,4201.025641,4431.794871,4202.051282,4213.846153,4503.589743,4245.128205,4642.564102,3992.307693,4064.102564
147,4395.384615,4548.205128,4509.743589,4248.205128,4489.230769,4197.948717,4429.743589,4198.974358,4216.410256,4507.692307,4245.128205,4645.128205,3987.179488,4053.333333
148,4409.230769,4560.512820,4524.615384,4257.435897,4486.666666,4194.871794,4441.538461,4213.333333,4232.820512,4517.435897,4251.794871,4658.974358,3989.743590,4061.025641
149,4415.897435,4571.282051,4533.846153,4265.641025,4489.230769,4197.948717,4450.256410,4222.051282,4236.923076,4520.000000,4257.435897,4665.641025,3998.974359,4074.871794
150,4403.589743,4557.948717,4526.153846,4264.615384,4489.743589,4198.974358,4445.128205,4213.333333,4231.794871,4516.410256,4260.512820,4660.512820,3997.435898,4065.128205
151,4393.846153,4549.743589,4524.615384,4262.564102,4488.717948,4198.461538,4442.051282,4210.256410,4232.307692,4514.871794,4254.871794,4656.410256,3989.743590,4051.282051
152,4394.358974,4554.871794,4528.205128,4262.564102,4489.743589,4201.025641,4446.153846,4214.358974,4229.230769,4508.717948,4245.128205,4655.897435,3989.230770,4057.435897
153,4396.410256,4556.410256,4524.102564,4260.000000,4487.692307,4198.974358,4447.179487,4216.923076,4233.333333,4507.179487,4248.717948,4656.923076,3990.769231,4064.615384
154,4397.435897,4554.358974,4517.948717,4260.000000,4486.666666,4194.871794,4441.538461,4211.282051,4236.410256,4511.282051,4252.307692,4656.410256,3988.205129,4054.871794
155,4393.846153,4552.820512,4518.461538,4261.025641,4484.615384,4194.358974,4434.358974,4198.974358,4220.512820,4503.076923,4245.128205,4649.743589,3982.051283,4046.666666
156,4395.384615,4554.871794,4524.615384,4260.512820,4483.076923,4198.461538,4440.000000,4198.974358,4215.897435,4502.564102,4248.205128,4651.794871,3983.076924,4054.871794
157,4403.076923,4556.410256,4527.179487,4263.076923,4489.230769,4203.076923,4446.666666,4213.333333,4232.820512,4518.461538,4259.487179,4662.051282,3997.435898,4064.102564
158,4404.102564,4552.820512,4526.153846,4265.641025,4488.717948,4199.487179,4444.615384,4215.897435,4235.897435,4520.000000,4264.102564,4662.564102,4007.179487,4066.153846
159,4401.025641,4551.794871,4528.205128,4263.589743,4481.538461,4194.871794,4442.051282,4209.230769,4228.717948,4515.384615,4265.128205,4657.948717,3995.384616,4060.512820
160,4402.564102,4554.358974,4530.769230,4264.615384,4486.666666,4197.948717,4444.615384,4214.358974,4235.897435,4518.974358,4258.974358,4661.538461,3983.589744,4053.333333
161,4399.487179,4548.205128,4528.717948,4266.153846,4490.769230,4198.461538,4445.128205,4217.948717,4242.564102,4518.461538,4248.205128,4662.564102,3990.256411,4050.769230
162,4387.179487,4545.128205,4521.025641,4262.564102,4481.025641,4191.794871,4441.025641,4205.641025,4233.333333,4507.692307,4243.589743,4654.358974,3990.256411,4050.256410
163,4384.615384,4547.692307,4516.410256,4260.000000,4474.358974,4187.179487,4433.333333,4194.358974,4216.923076,4494.358974,4240.000000,4647.692307,3973.333334,4046.666666
164,4393.333333,4548.205128,4514.871794,4263.076923,4476.923076,4190.256410,4428.205128,4197.435897,4210.256410,4490.769230,4240.512820,4650.256410,3972.307693,4045.641025
165,4396.410256,4550.256410,4518.974358,4266.666666,4482.051282,4194.358974,4434.871794,4204.102564,4222.051282,4502.564102,4251.794871,4655.897435,3988.717949,4048.717948
166,4395.897435,4552.820512,4525.128205,4266.666666,4488.717948,4200.000000,4442.564102,4207.179487,4234.871794,4511.282051,4262.051282,4660.000000,3998.461539,4054.871794
167,4403.076923,4556.410256,4529.230769,4272.820512,4491.282051,4203.076923,4443.076923,4210.256410,4240.000000,4514.358974,4265.641025,4666.666666,4004.102564,4066.666666
168,4411.282051,4565.128205,4531.794871,4281.025641,4492.820512,4202.051282,4444.102564,4216.923076,4245.128205,4529.743589,4268.717948,4673.846153,4008.717948,4074.358974
169,4409.230769,4571.282051,4532.820512,4274.358974,4495.384615,4207.179487,4447.179487,4220.512820,4251.794871,4544.102564,4269.230769,4672.820512,4007.179487,4068.717948
170,4406.153846,4568.205128,4529.743589,4268.717948,4493.846153,4209.230769,4448.205128,4217.948717,4249.743589,4535.384615,4266.666666,4669.230769,4007.692307,4064.615384
171,4410.769230,4567.692307,4527.692307,4278.461538,4491.794871,4205.641025,4447.179487,4216.923076,4237.435897,4521.538461,4261.538461,4668.205128,4010.769230,4067.692307
172,4414.358974,4578.974358,4536.410256,4285.641025,4494.871794,4206.153846,4447.692307,4219.487179,4236.923076,4525.641025,4263.589743,4669.230769,4009.743589,4072.820512
173,4414.358974,4585.128205,4544.615384,4280.000000,4495.897435,4209.743589,4448.205128,4220.000000,4245.128205,4531.282051,4277.435897,4674.358974,4011.794871,4072.820512
174,4412.307692,4574.871794,4538.974358,4274.871794,4495.384615,4206.666666,4445.128205,4218.974358,4239.487179,4521.538461,4277.948717,4675.897435,4012.307692,4067.179487
175,4410.769230,4564.102564,4530.256410,4274.358974,4494.358974,4199.487179,4443.076923,4215.384615,4231.794871,4511.282051,4264.615384,4669.743589,4010.256410,4066.666666
176,4412.820512,4567.179487,4532.820512,4276.410256,4492.820512,4201.025641,4446.666666,4213.846153,4241.538461,4525.128205,4265.641025,4669.230769,4013.846153,4070.769230
177,4414.871794,4571.282051,4542.051282,4280.512820,4491.794871,4204.615384,4448.717948,4221.538461,4253.333333,4536.923076,4274.358974,4676.410256,4014.358974,4069.230769
178,4412.307692,4564.102564,4543.076923,4278.461538,4492.307692,4202.051282,4449.230769,4227.692307,4247.692307,4527.179487,4272.307692,4673.846153,4010.769230,4064.615384
179,4409.743589,4559.487179,4534.358974,4272.307692,4495.897435,4203.076923,4450.256410,4221.538461,4237.435897,4521.538461,4267.179487,4663.589743,4011.794871,4062.051282
180,4411.282051,4565.128205,4528.717948,4272.307692,4497.435897,4208.717948,4448.205128,4214.871794,4234.358974,4520.512820,4260.512820,4660.512820,4011.282051,4060.000000
181,4411.794871,4570.256410,4530.256410,4277.435897,4494.871794,4208.205128,4443.589743,4213.846153,4228.205128,4510.256410,4256.410256,4662.564102,4005.128205,4059.487179
182,4411.282051,4574.358974,4535.384615,4279.487179,4494.358974,4203.589743,4443.589743,4214.358974,4224.102564,4506.153846,4258.461538,4662.051282,4005.641025,4060.000000
183,4417.948717,4581.025641,4541.025641,4281.025641,4493.333333,4203.076923,4445.128205,4218.461538,4233.333333,4516.923076,4263.076923,4663.589743,4016.410256,4060.512820
184,4421.538461,4580.000000,4538.974358,4283.589743,4491.282051,4202.564102,4443.589743,4223.589743,4243.076923,4524.615384,4266.153846,4668.717948,4023.076923,4064.615384
185,4415.384615,4569.743589,4532.820512,4280.000000,4496.923076,4206.153846,4444.615384,4224.615384,4242.564102,4527.179487,4263.589743,4669.743589,4023.076923,4065.641025
186,4413.846153,4567.179487,4534.871794,4277.435897,4504.102564,4213.333333,4450.769230,4224.102564,4242.051282,4531.794871,4264.102564,4669.230769,4021.538461,4065.128205
187,4416.410256,4571.282051,4535.897435,4278.974358,4498.974358,4209.230769,4450.256410,4226.153846,4245.641025,4526.666666,4268.717948,4669.743589,4014.358974,4062.051282
188,4412.820512,4563.589743,4533.846153,4277.435897,4492.820512,4200.000000,4445.641025,4226.666666,4245.641025,4520.000000,4266.153846,4670.769230,4009.743589,4053.333333
189,4409.743589,4554.358974,4534.358974,4277.435897,4492.820512,4202.051282,4444.615384,4225.128205,4243.589743,4517.948717,4263.076923,4672.307692,4014.871794,4052.820512
190,4411.282051,4557.435897,4529.743589,4278.974358,4489.230769,4202.051282,4437.948717,4216.923076,4233.846153,4508.205128,4260.512820,4668.205128,4012.307692,4058.974358
191,4409.230769,4566.666666,4525.128205,4278.461538,4486.666666,4197.435897,4428.205128,4202.564102,4216.923076,4500.512820,4251.794871,4662.564102,4001.025641,4052.820512
192,4410.256410,4570.256410,4529.230769,4278.461538,4490.769230,4197.948717,4426.153846,4201.025641,4212.820512,4504.615384,4247.692307,4663.076923,4001.538461,4045.128205
193,4413.333333,4569.230769,4531.794871,4278.974358,4490.256410,4200.000000,4428.717948,4209.743589,4225.128205,4508.205128,4255.897435,4664.615384,4012.307692,4052.820512
194,4410.256410,4567.692307,4528.205128,4277.948717,4485.641025,4196.923076,4434.358974,4209.230769,4228.205128,4504.615384,4254.871794,4664.102564,4013.333333,4062.051282
195,4411.282051,4567.179487,4527.692307,4276.410256,4484.615384,4195.897435,4443.076923,4205.128205,4223.076923,4507.692307,4251.282051,4666.153846,4009.230769,4060.512820
196,4414.871794,4566.153846,4531.794871,4279.487179,4488.717948,4200.512820,4446.666666,4210.769230,4228.205128,4513.846153,4259.487179,4669.230769,4008.717948,4053.846153
197,4409.230769,4560.512820,4530.769230,4278.974358,4492.307692,4204.102564,4444.102564,4213.846153,4228.717948,4511.282051,4261.538461,4666.666666,4009.743589,4048.205128
198,4405.641025,4552.307692,4528.205128,4270.256410,4492.820512,4205.641025,4438.974358,4208.205128,4220.512820,4505.128205,4248.717948,4666.153846,4007.692307,4052.820512
199,4411.794871,4552.820512,4527.692307,4270.256410,4490.769230,4205.128205,4434.871794,4205.641025,4222.564102,4505.128205,4241.538461,4666.666666,4006.153846,4057.435897
200,4413.333333,4561.538461,4528.205128,4280.512820,4486.666666,4200.000000,4433.846153,4204.615384,4223.589743,4507.692307,4253.846153,4661.538461,4006.153846,4052.820512
201,4410.769230,4567.692307,4529.230769,4283.076923,4486.153846,4197.435897,4433.333333,4205.641025,4219.487179,4509.230769,4262.051282,4661.025641,4005.128205,4045.641025
202,4415.897435,4572.820512,4533.846153,4284.102564,4489.743589,4201.025641,4430.256410,4212.820512,4223.076923,4512.820512,4257.948717,4667.692307,4013.846153,4052.307692
203,4416.410256,4569.743589,4534.358974,4283.076923,4490.256410,4200.000000,4428.717948,4211.794871,4220.512820,4512.820512,4255.384615,4667.692307,4016.923076,4057.948717
204,4403.589743,4558.461538,4524.102564,4271.794871,4488.717948,4198.974358,4426.666666,4200.512820,4211.794871,4502.564102,4254.871794,4659.487179,4001.538461,4045.641025
205,4401.025641,4555.384615,4521.025641,4270.769230,4489.743589,4202.564102,4427.179487,4202.564102,4223.076923,4500.000000,4252.307692,4660.000000,3997.948718,4038.461538
206,4406.153846,4555.897435,4526.666666,4276.923076,4491.282051,4201.538461,4431.794871,4209.230769,4231.282051,4508.717948,4247.179487,4663.589743,4008.205128,4044.102564
207,4403.589743,4551.282051,4527.179487,4270.769230,4489.230769,4200.512820,4436.923076,4205.641025,4218.461538,4505.128205,4244.615384,4664.615384,4010.256410,4047.692307
208,4405.641025,4549.230769,4528.717948,4275.384615,4488.717948,4202.564102,4437.948717,4206.666666,4216.923076,4503.076923,4247.692307,4668.717948,4006.666666,4049.743589
209,4414.358974,4554.871794,4531.794871,4286.666666,4483.589743,4197.948717,4431.794871,4214.871794,4226.666666,4517.948717,4253.333333,4668.205128,4007.179487,4047.692307
210,4409.230769,4558.461538,4525.641025,4272.307692,4480.512820,4191.794871,4427.179487,4208.205128,4228.205128,4516.410256,4253.333333,4664.615384,4004.615384,4036.923076
211,4400.512820,4556.410256,4516.410256,4262.051282,4486.666666,4194.871794,4428.205128,4197.435897,4223.589743,4503.076923,4247.692307,4664.615384,4000.512820,4035.384615
212,4407.692307,4554.871794,4516.410256,4278.461538,4490.769230,4202.051282,4428.205128,4201.025641,4220.512820,4506.666666,4248.717948,4664.615384,4003.589743,4045.128205
213,4416.410256,4561.538461,4522.051282,4286.153846,4488.205128,4202.564102,4430.769230,4203.589743,4220.000000,4513.333333,4256.923076,4666.153846,4011.282051,4048.205128
214,4414.358974,4566.153846,4526.153846,4278.974358,4487.179487,4198.974358,4440.512820,4200.512820,4223.589743,4507.692307,4260.000000,4670.769230,4010.769230,4048.205128
215,4413.846153,4561.538461,4530.769230,4278.974358,4497.948717,4208.205128,4443.589743,4204.102564,4227.692307,4508.717948,4252.820512,4673.333333,4010.769230,4049.743589
216,4414.871794,4560.000000,4531.794871,4281.538461,4505.128205,4218.974358,4433.333333,4205.128205,4224.102564,4509.743589,4248.205128,4671.794871,4013.846153,4046.153846
217,4407.179487,4556.923076,4522.564102,4276.923076,4494.358974,4209.743589,4425.641025,4200.512820,4219.487179,4501.025641,4248.205128,4665.128205,4010.769230,4040.512820
218,4401.538461,4550.256410,4516.923076,4275.384615,4484.102564,4195.384615,4426.666666,4197.948717,4215.897435,4496.923076,4245.641025,4658.974358,4000.512820,4037.948717
219,4408.205128,4554.358974,4526.153846,4281.538461,4482.564102,4196.923076,4429.743589,4198.974358,4214.871794,4504.615384,4250.769230,4665.128205,4000.512820,4035.897435
220,4415.384615,4564.102564,4533.846153,4287.179487,4481.025641,4202.051282,4431.794871,4202.564102,4217.948717,4511.794871,4263.589743,4673.846153,4007.179487,4036.923076
221,4413.333333,4561.538461,4523.589743,4282.051282,4484.615384,4200.000000,4430.769230,4202.564102,4216.923076,4507.179487,4253.846153,4667.692307,4007.179487,4038.461538
222,4403.076923,4552.307692,4513.333333,4273.333333,4489.743589,4200.000000,4424.615384,4195.384615,4206.153846,4495.384615,4228.717948,4655.897435,4000.000000,4037.948717
223,4395.384615,4550.256410,4515.384615,4274.358974,4485.128205,4200.000000,4418.461538,4192.307692,4199.487179,4488.717948,4230.256410,4651.794871,3993.846154,4035.897435
224,4397.948717,4551.794871,4520.000000,4280.000000,4482.051282,4199.487179,4423.076923,4199.487179,4210.769230,4494.358974,4248.717948,4658.974358,3991.282052,4028.717948
225,4401.025641,4544.615384,4518.461538,4275.897435,4481.025641,4199.487179,4428.205128,4203.076923,4219.487179,4506.666666,4240.512820,4660.512820,3992.820513,4020.512820
226,4395.384615,4535.384615,4512.307692,4266.666666,4477.948717,4197.948717,4423.076923,4196.410256,4208.205128,4509.230769,4228.717948,4651.794871,3995.384616,4022.564102
227,4394.358974,4542.051282,4510.769230,4271.794871,4485.641025,4197.435897,4421.538461,4194.358974,4201.025641,4498.461538,4244.615384,4649.743589,3995.384616,4037.948717
228,4403.076923,4555.897435,4517.948717,4282.051282,4492.307692,4200.000000,4427.692307,4203.589743,4208.717948,4494.871794,4253.846153,4656.410256,3998.974359,4046.666666
229,4410.256410,4562.051282,4526.666666,4281.025641,4489.230769,4205.128205,4433.333333,4214.358974,4224.615384,4512.820512,4246.666666,4662.564102,4002.564102,4042.564102
230,4408.717948,4559.487179,4524.615384,4280.000000,4493.333333,4210.256410,4434.871794,4220.000000,4237.435897,4526.666666,4246.666666,4664.615384,3998.461539,4043.076923
231,4400.000000,4547.692307,4512.820512,4279.487179,4495.897435,4213.333333,4432.307692,4214.871794,4226.153846,4516.923076,4241.538461,4657.435897,3998.974359,4046.153846
232,4391.794871,4536.410256,4506.666666,4267.179487,4490.769230,4208.717948,4428.205128,4199.487179,4204.102564,4497.948717,4228.717948,4644.102564,3996.923077,4041.025641
233,4390.769230,4539.487179,4508.205128,4258.974358,4491.282051,4207.179487,4428.205128,4189.743589,4200.512820,4490.256410,4227.692307,4642.564102,3990.769231,4036.923076
234,4400.000000,4549.743589,4513.846153,4271.282051,4494.358974,4213.333333,4433.846153,4195.384615,4211.794871,4505.128205,4240.000000,4654.358974,3998.461539,4049.230769
235,4407.692307,4553.846153,4521.025641,4279.487179,4493.846153,4213.333333,4440.000000,4209.743589,4226.666666,4522.051282,4250.256410,4663.589743,4008.205128,4063.076923
236,4408.717948,4555.384615,4525.641025,4280.512820,4494.358974,4209.743589,4444.615384,4217.435897,4235.384615,4518.461538,4252.307692,4667.179487,4005.128205,4065.641025
237,4405.641025,4554.871794,4527.179487,4277.948717,4491.282051,4204.615384,4440.512820,4211.794871,4223.589743,4504.615384,4244.615384,4665.128205,3998.974359,4063.076923
238,4401.538461,4547.692307,4528.717948,4270.769230,4484.615384,4200.512820,4430.769230,4201.025641,4208.717948,4500.000000,4241.025641,4658.461538,3994.358975,4057.948717
239,4402.564102,4538.461538,4528.205128,4270.769230,4484.615384,4201.538461,4432.307692,4196.410256,4212.307692,4500.000000,4245.641025,4658.461538,3992.307693,4061.538461
240,4407.179487,4538.974358,4528.717948,4275.897435,4489.230769,4205.128205,4441.538461,4197.948717,4217.948717,4503.076923,4247.179487,4665.641025,3997.435898,4068.717948
241,4408.205128,4548.717948,4531.282051,4277.948717,4496.923076,4209.230769,4444.615384,4205.641025,4218.461538,4510.256410,4247.692307,4667.692307,3998.974359,4064.615384
242,4410.256410,4553.846153,4532.820512,4281.025641,4504.615384,4215.897435,4444.615384,4214.358974,4222.051282,4511.282051,4247.692307,4667.179487,3997.948718,4065.641025
243,4416.410256,4555.897435,4533.333333,4284.615384,4500.000000,4217.948717,4446.666666,4212.307692,4221.025641,4508.205128,4245.641025,4667.692307,4001.025641,4075.897435
244,4414.871794,4554.871794,4532.307692,4277.948717,4490.256410,4214.358974,4446.153846,4203.589743,4213.846153,4506.666666,4246.153846,4667.179487,4000.512820,4069.743589
245,4412.307692,4551.794871,4531.282051,4276.410256,4491.794871,4211.282051,4447.692307,4202.564102,4214.871794,4507.179487,4249.743589,4669.743589,4004.102564,4063.076923
246,4417.435897,4558.461538,4533.333333,4286.666666,4495.897435,4212.307692,4449.743589,4210.769230,4224.615384,4511.282051,4253.333333,4673.846153,4013.333333,4073.333333
247,4416.923076,4566.153846,4532.307692,4285.641025,4493.333333,4212.820512,4445.641025,4211.794871,4228.717948,4508.717948,4248.717948,4670.256410,4008.205128,4074.358974
248,4408.717948,4559.487179,4524.615384,4277.435897,4492.307692,4209.743589,4443.076923,4202.564102,4221.538461,4501.025641,4237.435897,4660.512820,3993.846154,4063.076923
249,4403.589743,4549.743589,4522.564102,4276.410256,4491.282051,4205.128205,4444.615384,4200.512820,4216.410256,4506.153846,4243.076923,4660.000000,3992.820513,4058.461538
250,4401.025641,4551.794871,4526.153846,4271.282051,4491.282051,4206.153846,4444.615384,4206.153846,4217.948717,4516.923076,4252.820512,4665.128205,4002.051282,4054.358974
251,4402.564102,4555.384615,4528.205128,4267.179487,4490.769230,4204.102564,4442.051282,4204.102564,4216.410256,4510.256410,4243.076923,4664.102564,4004.615384,4054.358974
252,4407.692307,4556.410256,4527.179487,4275.897435,4487.692307,4198.974358,4442.564102,4201.538461,4214.358974,4503.076923,4237.435897,4663.589743,4000.000000,4058.974358
253,4405.128205,4552.307692,4521.025641,4281.538461,4487.692307,4202.051282,4444.615384,4203.076923,4209.743589,4505.641025,4244.102564,4664.615384,3993.846154,4057.948717
254,4396.410256,4544.102564,4517.948717,4275.897435,4489.230769,4203.076923,4436.923076,4194.358974,4200.000000,4498.461538,4238.974358,4656.410256,3986.153847,4049.743589
255,4392.820512,4546.666666,4520.000000,4274.871794,4488.205128,4198.974358,4430.769230,4185.641025,4195.897435,4484.615384,4226.666666,4647.692307,3984.615385,4042.564102
256,4395.897435,4554.871794,4520.000000,4276.923076,4487.179487,4201.025641,4437.948717,4192.307692,4202.564102,4486.666666,4230.256410,4652.307692,3989.743590,4045.128205
257,4402.051282,4554.871794,4520.512820,4275.897435,4489.743589,4202.564102,4438.974358,4201.538461,4211.794871,4500.512820,4238.974358,4660.000000,3990.769231,4050.769230
258,4400.512820,4549.230769,4522.051282,4277.948717,4490.769230,4202.564102,4433.846153,4196.923076,4208.717948,4503.076923,4231.282051,4656.410256,3986.666667,4044.615384
259,4396.410256,4546.666666,4524.102564,4277.948717,4489.230769,4202.564102,4439.487179,4190.769230,4205.641025,4497.948717,4223.589743,4653.333333,3988.717949,4042.051282
260,4403.076923,4549.230769,4527.692307,4276.923076,4489.743589,4204.102564,4444.615384,4196.410256,4207.692307,4499.487179,4237.435897,4660.000000,3996.923077,4053.846153
261,4409.743589,4551.282051,4530.256410,4277.948717,4491.282051,4203.589743,4441.538461,4202.564102,4208.205128,4503.589743,4253.333333,4662.564102,4000.000000,4055.384615
262,4406.666666,4552.307692,4526.666666,4276.923076,4490.769230,4201.538461,4442.564102,4200.512820,4209.230769,4507.179487,4247.179487,4657.435897,3997.435898,4048.717948
263,4402.051282,4552.307692,4522.051282,4278.974358,4485.128205,4201.538461,4442.564102,4195.897435,4212.307692,4503.076923,4236.410256,4653.846153,3993.846154,4047.692307
