,AF3,F7,F3,FC5,T7,P7,O1,O2,P8,T8,FC6,F4,F8,AF4
0,4406.666666,6147.483647,4602.564102,4350.769230,4565.641025,4295.897435,4456.923076,4221.025641,4262.051282,4547.692307,4224.615384,4587.179487,4034.358974,4022.051282
1,4404.615384,6147.483647,4602.564102,4338.461538,4568.717948,4296.410256,4457.435897,4220.000000,4253.846153,4535.897435,4214.358974,4585.128205,4031.282051,4021.025641
2,4408.717948,6147.483647,4606.153846,4339.487179,4567.692307,4294.358974,4460.000000,4226.153846,4260.512820,4534.871794,4212.820512,4584.615384,4032.820512,4029.230769
3,4405.128205,6147.483647,4607.179487,4335.897435,4563.589743,4294.358974,4460.000000,4228.205128,4265.641025,4543.589743,4209.743589,4587.179487,4037.435897,4028.717948
4,4395.897435,6147.483647,4602.564102,4327.692307,4561.538461,4293.846153,4460.000000,4224.615384,4254.358974,4541.538461,4208.717948,4586.666666,4026.153846,4017.435897
5,4395.384615,6147.483647,4596.923076,4333.846153,4559.487179,4288.717948,4456.923076,4218.461538,4244.615384,4529.230769,4214.358974,4575.897435,4010.256410,4014.871794
6,4396.923076,6147.483647,4599.487179,4331.282051,4554.871794,4285.641025,4450.769230,4216.410256,4246.666666,4525.128205,4215.384615,4567.179487,4015.897435,4021.538461
7,4399.487179,6147.483647,4606.666666,4324.615384,4553.333333,4286.153846,4452.820512,4220.512820,4248.205128,4529.743589,4212.307692,4576.923076,4026.153846,4026.666666
8,4405.641025,6147.483647,4607.692307,4333.846153,4555.384615,4285.128205,4459.487179,4225.641025,4249.743589,4538.461538,4206.666666,4586.153846,4025.128205,4029.230769
9,4402.564102,6147.483647,4603.589743,4337.435897,4550.769230,4278.974358,4457.435897,4226.153846,4251.282051,4539.487179,4199.487179,4579.487179,4022.051282,4025.128205
10,4392.820512,6147.483647,4598.461538,4331.794871,4542.564102,4276.410256,4454.871794,4222.564102,4246.153846,4528.205128,4201.025641,4570.256410,4013.333333,4013.333333
11,4385.128205,6147.483647,4592.307692,4326.153846,4545.128205,4278.461538,4452.820512,4217.948717,4242.051282,4516.410256,4200.000000,4564.102564,4000.000000,4005.641025
12,4386.153846,6147.483647,4588.205128,4315.897435,4552.307692,4279.487179,4445.641025,4213.333333,4242.051282,4515.897435,4198.461538,4560.000000,4004.615384,4008.717948
13,4392.820512,6147.483647,4591.794871,4317.948717,4552.820512,4281.025641,4441.025641,4211.794871,4240.512820,4524.615384,4202.564102,4563.076923,4021.025641,4015.384615
14,4396.923076,6147.483647,4596.923076,4335.384615,4555.384615,4285.641025,4444.615384,4215.384615,4244.102564,4533.846153,4201.025641,4570.769230,4027.179487,4020.512820
15,4399.487179,6147.483647,4600.000000,4342.051282,4565.128205,4294.358974,4451.794871,4224.102564,4254.871794,4548.205128,4204.615384,4580.512820,4038.974358,4029.230769
16,4404.615384,6147.483647,4601.025641,4338.461538,4574.358974,4305.128205,4460.000000,4227.179487,4256.923076,4556.923076,4218.461538,4584.615384,4048.205128,4034.358974
17,4401.538461,6147.483647,4592.307692,4341.538461,4573.333333,4304.615384,4459.487179,4216.923076,4246.666666,4538.974358,4218.461538,4580.512820,4025.641025,4023.589743
18,4396.923076,6147.483647,4585.128205,4333.846153,4570.256410,4298.974358,4455.897435,4212.820512,4241.025641,4520.000000,4208.205128,4579.487179,4014.358974,4017.435897
19,4401.538461,6147.483647,4588.205128,4324.102564,4569.230769,4297.948717,4459.487179,4220.512820,4245.128205,4524.615384,4202.564102,4586.666666,4029.743589,4024.102564
20,4400.512820,6147.483647,4589.743589,4330.769230,4562.051282,4297.435897,4461.025641,4222.051282,4247.179487,4530.256410,4194.871794,4588.717948,4029.230769,4024.615384
21,4401.025641,6147.483647,4588.717948,4337.435897,4558.461538,4293.333333,4458.461538,4220.512820,4247.179487,4528.717948,4206.666666,4591.282051,4020.000000,4023.076923
22,4407.692307,6147.483647,4596.923076,4338.974358,4565.641025,4293.846153,4461.538461,4228.205128,4252.820512,4537.948717,4231.794871,4599.487179,4029.230769,4028.205128
23,4408.205128,6147.483647,4600.000000,4341.538461,4568.717948,4296.410256,4466.153846,4232.307692,4263.589743,4543.076923,4227.692307,4602.564102,4039.487179,4031.282051
24,4405.641025,6147.483647,4588.205128,4341.025641,4564.615384,4294.871794,4464.615384,4227.692307,4264.102564,4537.948717,4213.333333,4601.538461,4035.384615,4028.717948
25,4405.128205,6147.483647,4586.666666,4337.435897,4566.666666,4294.358974,4461.025641,4225.641025,4251.282051,4534.358974,4213.333333,4600.512820,4027.692307,4027.179487
26,4408.205128,6147.483647,4600.512820,4345.641025,4569.230769,4296.410256,4462.051282,4226.153846,4251.282051,4536.410256,4221.538461,4602.051282,4027.692307,4030.769230
27,4409.743589,6147.483647,4603.076923,4350.769230,4569.230769,4297.435897,4464.102564,4226.666666,4261.025641,4544.102564,4229.230769,4602.051282,4033.333333,4033.846153
28,4403.076923,6147.483647,4590.769230,4334.871794,4568.717948,4295.384615,4464.102564,4227.179487,4258.974358,4546.153846,4226.153846,4597.948717,4032.307692,4027.692307
29,4400.000000,6147.483647,4587.179487,4326.666666,4566.666666,4292.820512,4463.589743,4228.205128,4257.435897,4539.487179,4215.384615,4595.897435,4028.205128,4018.461538
30,4404.102564,6147.483647,4590.256410,4334.871794,4569.743589,4289.230769,4461.025641,4228.205128,4255.384615,4533.846153,4210.769230,4592.820512,4020.000000,4018.974358
31,4399.487179,6147.483647,4584.102564,4333.846153,4571.282051,4282.051282,4455.897435,4221.025641,4236.923076,4527.692307,4200.512820,4583.076923,4004.615384,4020.000000
32,4397.435897,6147.483647,4582.051282,4332.307692,4568.717948,4276.923076,4455.384615,4215.897435,4232.820512,4522.564102,4191.282051,4579.487179,4006.666666,4020.000000
33,4410.769230,6147.483647,4593.333333,4347.692307,4573.846153,4279.487179,4457.435897,4222.051282,4248.717948,4521.025641,4207.692307,4592.820512,4024.615384,4027.179487
34,4415.384615,6147.483647,4597.435897,4350.256410,4582.051282,4280.000000,4458.974358,4230.256410,4248.205128,4529.230769,4228.205128,4600.000000,4025.128205,4034.871794
35,4408.717948,6147.483647,4588.717948,4326.153846,4580.512820,4277.435897,4460.000000,4228.717948,4240.512820,4534.358974,4226.666666,4590.256410,4013.333333,4033.333333
36,4404.615384,6147.483647,4583.076923,4317.948717,4576.923076,4277.435897,4460.000000,4221.538461,4245.641025,4529.230769,4220.000000,4583.589743,4016.410256,4029.743589
37,4405.128205,6147.483647,4585.641025,4334.871794,4582.051282,4280.512820,4461.538461,4222.051282,4247.179487,4529.230769,4214.871794,4587.179487,4021.025641,4031.794871
38,4405.641025,6147.483647,4585.641025,4339.487179,4585.128205,4280.000000,4460.000000,4221.538461,4236.923076,4532.307692,4207.692307,4587.179487,4014.358974,4029.743589
39,4398.461538,6147.483647,4581.025641,4329.230769,4579.487179,4270.769230,4453.846153,4214.358974,4232.307692,4522.051282,4203.589743,4582.051282,4007.179487,4021.538461
40,4395.897435,6147.483647,4578.461538,4322.051282,4573.333333,4263.076923,4453.333333,4217.435897,4244.615384,4523.076923,4210.256410,4580.512820,4009.230769,4020.512820
41,4408.717948,6147.483647,4583.589743,4317.435897,4576.410256,4267.179487,4458.461538,4231.282051,4256.410256,4541.025641,4222.051282,4585.641025,4022.051282,4029.230769
42,4415.384615,6147.483647,4588.717948,4321.025641,4585.128205,4276.410256,4461.538461,4235.384615,4251.794871,4542.051282,4220.000000,4595.384615,4034.358974,4036.410256
43,4410.769230,6147.483647,4589.743589,4332.307692,4587.692307,4279.487179,4463.076923,4231.794871,4244.102564,4534.871794,4212.307692,4601.025641,4032.820512,4036.410256
44,4410.769230,6147.483647,4591.282051,4332.307692,4585.128205,4278.974358,4463.076923,4235.384615,4250.256410,4540.000000,4220.000000,4598.461538,4025.128205,4036.410256
45,4414.358974,6147.483647,4598.461538,4331.282051,4585.641025,4279.487179,4462.564102,4240.512820,4258.461538,4540.512820,4230.769230,4598.461538,4025.128205,4038.461538
46,4415.384615,6147.483647,4601.025641,4337.948717,4586.153846,4280.000000,4463.589743,4240.512820,4262.564102,4538.974358,4233.846153,4605.641025,4032.307692,4040.000000
47,4414.871794,6147.483647,4593.333333,4333.333333,4582.564102,4279.487179,4463.076923,4241.025641,4263.076923,4543.589743,4233.333333,4610.256410,4036.410256,4040.512820
48,4411.794871,6147.483647,4585.128205,4325.641025,4583.076923,4278.974358,4458.974358,4237.435897,4251.794871,4537.948717,4217.435897,4605.641025,4034.871794,4038.974358
49,4405.641025,6147.483647,4581.538461,4329.743589,4585.128205,4280.000000,4458.461538,4227.179487,4238.974358,4523.589743,4202.564102,4598.974358,4025.128205,4034.871794
50,4407.692307,6147.483647,4581.538461,4327.692307,4583.589743,4279.487179,4459.487179,4221.025641,4237.948717,4521.025641,4216.923076,4598.974358,4015.897435,4031.794871
51,4413.333333,6147.483647,4583.589743,4323.076923,4586.153846,4279.487179,4458.974358,4222.564102,4236.410256,4526.153846,4226.153846,4602.564102,4018.461538,4031.794871
52,4415.384615,6147.483647,4585.128205,4329.743589,4585.641025,4281.538461,4455.384615,4226.666666,4235.384615,4530.769230,4218.461538,4602.564102,4027.692307,4036.410256
53,4409.743589,6147.483647,4585.641025,4333.846153,4575.384615,4274.871794,4450.769230,4229.743589,4241.025641,4535.384615,4216.923076,4602.564102,4026.666666,4035.897435
54,4401.025641,6147.483647,4579.487179,4326.153846,4567.179487,4265.641025,4451.282051,4225.641025,4238.461538,4527.692307,4205.641025,4598.974358,4018.974358,4025.641025
55,4400.512820,6147.483647,4576.923076,4321.538461,4570.256410,4270.256410,4455.897435,4225.641025,4232.307692,4516.923076,4197.948717,4592.307692,4017.435897,4020.512820
56,4403.076923,6147.483647,4582.051282,4322.051282,4574.358974,4276.923076,4460.000000,4234.358974,4235.384615,4523.076923,4214.358974,4591.794871,4008.205128,4025.641025
57,4393.333333,6147.483647,4576.923076,4313.846153,4571.282051,4271.794871,4460.000000,4235.897435,4233.846153,4525.128205,4209.743589,4590.769230,3995.384616,4021.538461
58,4385.128205,6147.483647,4568.205128,4304.102564,4567.692307,4265.128205,4461.025641,4233.846153,4233.846153,4518.974358,4190.769230,4585.641025,4003.076923,4015.384615
59,4396.923076,6147.483647,4575.897435,4308.717948,4568.717948,4267.692307,4463.076923,4242.051282,4250.256410,4528.205128,4206.153846,4587.179487,4013.846153,4022.051282
60,4403.589743,6147.483647,4580.000000,4323.076923,4570.256410,4268.205128,4462.564102,4243.076923,4252.820512,4538.461538,4217.435897,4590.256410,4006.666666,4026.153846
61,4394.358974,6147.483647,4569.230769,4323.076923,4569.743589,4267.179487,4466.666666,4233.333333,4239.487179,4536.410256,4206.666666,4586.153846,3999.487180,4021.025641
62,4392.307692,6147.483647,4569.743589,4312.820512,4570.769230,4273.333333,4472.820512,4233.846153,4240.000000,4538.974358,4213.846153,4584.615384,4012.307692,4021.025641
63,4397.948717,6147.483647,4574.871794,4311.794871,4573.333333,4278.461538,4469.230769,4238.974358,4241.538461,4531.282051,4218.974358,4588.205128,4018.461538,4023.589743
64,4398.461538,6147.483647,4569.230769,4309.230769,4572.820512,4278.461538,4462.051282,4236.923076,4240.000000,4512.820512,4203.076923,4587.692307,4003.076923,4023.076923
65,4393.846153,6147.483647,4567.692307,4295.384615,4570.256410,4274.871794,4460.000000,4232.820512,4246.153846,4510.769230,4202.564102,4585.641025,3995.384616,4018.974358
66,4390.256410,6147.483647,4569.230769,4295.384615,4568.717948,4269.743589,4460.512820,4230.769230,4242.564102,4513.333333,4207.692307,4583.076923,4008.717948,4017.435897
67,4393.846153,6147.483647,4568.205128,4318.461538,4568.717948,4265.641025,4456.410256,4232.307692,4227.692307,4509.230769,4201.025641,4583.076923,4019.487179,4021.538461
68,4398.461538,6147.483647,4569.230769,4324.615384,4568.717948,4265.128205,4459.487179,4234.871794,4232.307692,4516.410256,4207.692307,4586.666666,4011.282051,4025.128205
69,4395.384615,6147.483647,4571.794871,4304.102564,4568.205128,4267.179487,4467.179487,4241.025641,4251.794871,4528.717948,4216.410256,4587.692307,4003.589743,4023.076923
70,4389.230769,6147.483647,4571.794871,4297.948717,4570.256410,4270.256410,4466.666666,4246.153846,4255.384615,4526.153846,4205.128205,4585.641025,4005.128205,4020.000000
71,4387.179487,6147.483647,4568.205128,4313.333333,4570.769230,4269.230769,4458.974358,4239.487179,4242.051282,4515.384615,4196.410256,4584.102564,4006.666666,4018.974358
72,4390.769230,6147.483647,4567.692307,4316.410256,4567.179487,4264.615384,4456.923076,4229.743589,4232.820512,4513.333333,4207.692307,4583.589743,4010.256410,4017.948717
73,4395.384615,6147.483647,4571.282051,4311.282051,4561.025641,4262.051282,4459.487179,4235.384615,4238.974358,4524.615384,4217.435897,4585.641025,4015.384615,4020.512820
74,4395.384615,6147.483647,4572.820512,4311.282051,4557.948717,4257.435897,4460.000000,4240.000000,4244.102564,4534.358974,4212.820512,4590.256410,4013.846153,4022.564102
75,4389.230769,6147.483647,4566.153846,4302.051282,4554.871794,4250.256410,4455.384615,4223.589743,4235.897435,4527.692307,4199.487179,4585.128205,3999.487180,4015.384615
76,4382.051282,6147.483647,4557.948717,4289.743589,4546.666666,4243.589743,4446.153846,4210.769230,4225.641025,4517.435897,4188.717948,4574.871794,3997.435898,4006.666666
77,4377.435897,6147.483647,4553.333333,4293.846153,4538.974358,4241.538461,4440.000000,4215.384615,4223.589743,4518.461538,4191.794871,4576.923076,4007.179487,4003.589743
78,4378.974358,6147.483647,4554.871794,4298.461538,4538.974358,4243.076923,4442.051282,4222.051282,4225.128205,4525.128205,4197.948717,4585.128205,4005.641025,4004.615384
79,4384.102564,6147.483647,4558.974358,4296.410256,4541.538461,4239.487179,4442.564102,4221.538461,4220.512820,4521.025641,4190.769230,4585.641025,4001.538461,4005.641025
80,4382.564102,6147.483647,4558.461538,4296.923076,4540.512820,4237.948717,4441.025641,4218.461538,4213.333333,4509.230769,4185.128205,4583.076923,4007.692307,4006.153846
81,4380.000000,6147.483647,4561.538461,4294.358974,4541.025641,4245.128205,4442.564102,4218.974358,4220.000000,4511.794871,4192.307692,4585.641025,4010.256410,4005.128205
82,4383.589743,6147.483647,4570.256410,4290.769230,4540.512820,4249.743589,4444.102564,4223.076923,4232.820512,4527.179487,4195.897435,4591.794871,4014.358974,4005.128205
83,4385.641025,6147.483647,4572.820512,4301.538461,4538.974358,4246.153846,4443.076923,4226.666666,4236.923076,4533.333333,4188.205128,4593.846153,4027.179487,4008.205128
84,4378.974358,6147.483647,4568.205128,4306.153846,4536.923076,4245.641025,4443.076923,4221.538461,4233.333333,4526.666666,4181.025641,4590.769230,4018.461538,4003.076923
85,4371.794871,6147.483647,4564.102564,4293.846153,4529.230769,4245.641025,4439.487179,4212.820512,4231.282051,4522.051282,4181.538461,4586.153846,3991.282052,3992.307693
86,4375.897435,6147.483647,4565.128205,4295.897435,4521.025641,4244.102564,4432.307692,4212.307692,4224.615384,4519.487179,4188.205128,4591.282051,3990.256411,3994.358975
87,4387.179487,6147.483647,4568.205128,4305.641025,4525.641025,4247.179487,4437.435897,4218.461538,4220.000000,4515.384615,4195.897435,4604.102564,4009.230769,4005.128205
88,4389.230769,6147.483647,4571.794871,4300.512820,4537.435897,4248.717948,4446.153846,4221.025641,4225.641025,4511.794871,4195.897435,4612.307692,4011.794871,4008.205128
89,4376.923076,6147.483647,4569.743589,4297.435897,4538.974358,4247.692307,4438.974358,4211.794871,4225.128205,4509.743589,4181.538461,4604.615384,4002.051282,4001.025641
90,4373.333333,6147.483647,4566.153846,4305.641025,4535.897435,4252.307692,4432.307692,4206.153846,4221.538461,4512.307692,4168.205128,4594.871794,4000.512820,3998.974359
91,4387.692307,6147.483647,4574.358974,4315.384615,4542.051282,4266.666666,4446.666666,4220.512820,4228.717948,4522.051282,4184.102564,4605.641025,4003.076923,4007.692307
92,4399.487179,6147.483647,4586.666666,4318.974358,4548.717948,4274.871794,4462.564102,4237.435897,4238.461538,4536.410256,4212.820512,4624.102564,4013.333333,4019.487179
93,4404.102564,6147.483647,4591.282051,4312.307692,4552.307692,4275.897435,4462.051282,4238.974358,4240.000000,4541.025641,4219.487179,4625.128205,4024.615384,4025.641025
94,4405.128205,6147.483647,4595.384615,4316.923076,4553.846153,4278.974358,4460.000000,4235.384615,4243.076923,4530.256410,4214.358974,4622.051282,4026.666666,4025.128205
95,4402.051282,6147.483647,4596.923076,4333.846153,4549.230769,4276.410256,4462.051282,4236.410256,4247.692307,4524.102564,4206.666666,4625.128205,4024.615384,4024.102564
96,4398.974358,6147.483647,4590.256410,4328.717948,4539.487179,4263.076923,4460.000000,4234.358974,4245.641025,4532.307692,4196.923076,4621.538461,4017.948717,4020.000000
97,4400.512820,6147.483647,4590.256410,4321.538461,4542.051282,4263.589743,4458.461538,4235.897435,4247.179487,4541.025641,4212.307692,4618.974358,4011.794871,4020.512820
98,4406.666666,6147.483647,4598.974358,4328.717948,4550.769230,4275.384615,4462.564102,4243.076923,4252.820512,4544.615384,4234.358974,4624.102564,4025.641025,4026.666666
99,4408.205128,6147.483647,4598.974358,4316.923076,4544.615384,4273.333333,4463.076923,4245.128205,4252.307692,4540.000000,4222.051282,4622.564102,4036.410256,4025.641025
100,4404.102564,6147.483647,4591.794871,4308.205128,4536.923076,4265.128205,4459.487179,4242.564102,4246.666666,4528.717948,4204.615384,4614.871794,4021.025641,4020.000000
101,4402.051282,6147.483647,4587.692307,4324.615384,4533.333333,4257.435897,4456.410256,4239.487179,4242.564102,4527.179487,4209.743589,4615.384615,4005.641025,4016.923076
102,4406.666666,6147.483647,4590.256410,4336.410256,4528.205128,4255.384615,4457.435897,4238.974358,4248.205128,4540.512820,4220.000000,4620.512820,4015.384615,4021.025641
103,4409.230769,6147.483647,4595.897435,4326.666666,4530.256410,4260.512820,4459.487179,4237.435897,4251.794871,4543.589743,4220.512820,4622.051282,4028.717948,4023.589743
104,4404.102564,6147.483647,4597.948717,4312.820512,4529.230769,4258.974358,4457.948717,4232.307692,4243.076923,4533.846153,4214.871794,4620.512820,4022.051282,4020.000000
105,4405.641025,6147.483647,4597.948717,4317.948717,4512.307692,4247.179487,4455.897435,4228.717948,4233.333333,4526.666666,4216.410256,4620.512820,4009.230769,4019.487179
106,4407.692307,6147.483647,4596.410256,4324.102564,4500.512820,4243.076923,4456.410256,4229.230769,4235.384615,4522.051282,4218.461538,4618.974358,4013.846153,4024.102564
107,4404.102564,6147.483647,4589.230769,4317.435897,4507.692307,4248.717948,4457.948717,4230.769230,4240.512820,4524.102564,4209.743589,4618.461538,4027.692307,4024.102564
108,4400.512820,6147.483647,4585.641025,4320.000000,4508.205128,4248.717948,4454.871794,4229.743589,4237.435897,4528.205128,4203.076923,4620.512820,4026.666666,4021.538461
109,4396.410256,6147.483647,4587.179487,4322.564102,4504.102564,4246.153846,4449.743589,4226.153846,4230.769230,4518.974358,4212.307692,4618.974358,4016.923076,4017.435897
110,4393.846153,6147.483647,4584.615384,4308.717948,4506.666666,4247.692307,4447.692307,4224.615384,4230.769230,4506.153846,4223.589743,4611.794871,4009.230769,4009.743589
111,4393.333333,6147.483647,4584.102564,4310.256410,4507.179487,4245.641025,4447.179487,4230.256410,4237.948717,4503.589743,4221.025641,4608.205128,4005.128205,4008.205128
112,4392.820512,6147.483647,4585.641025,4322.051282,4504.102564,4237.435897,4444.102564,4231.282051,4238.461538,4505.128205,4210.769230,4609.743589,4011.794871,4011.282051
113,4391.794871,6147.483647,4582.051282,4311.794871,4503.076923,4234.358974,4442.051282,4229.230769,4237.948717,4509.743589,4209.230769,4605.641025,4010.769230,4008.205128
114,4393.333333,6147.483647,4582.051282,4309.230769,4506.153846,4240.000000,4443.076923,4234.871794,4244.102564,4513.846153,4212.820512,4601.025641,3998.974359,4004.615384
115,4393.333333,6147.483647,4583.076923,4313.333333,4508.717948,4247.179487,4444.102564,4236.923076,4244.102564,4511.794871,4210.256410,4601.025641,4001.538461,4008.717948
116,4382.051282,6147.483647,4573.846153,4296.923076,4507.692307,4245.128205,4443.076923,4226.153846,4232.307692,4504.615384,4199.487179,4598.974358,4008.717948,4003.589743
117,4375.384615,6147.483647,4565.641025,4290.256410,4503.076923,4235.897435,4443.076923,4220.000000,4224.615384,4496.410256,4192.307692,4597.435897,3995.384616,3990.769231
118,4387.179487,6147.483647,4570.769230,4309.743589,4502.564102,4239.487179,4444.615384,4226.153846,4228.205128,4495.384615,4204.615384,4600.000000,3989.743590,3996.923077
119,4397.435897,6147.483647,4580.000000,4317.435897,4501.025641,4246.153846,4446.153846,4228.717948,4234.358974,4501.025641,4216.923076,4601.025641,4004.102564,4010.256410
120,4394.871794,6147.483647,4582.051282,4302.051282,4493.846153,4237.435897,4445.641025,4224.615384,4237.948717,4507.692307,4208.717948,4604.615384,4009.230769,4010.256410
121,4392.820512,6147.483647,4583.076923,4300.512820,4493.333333,4228.205128,4444.615384,4224.615384,4236.410256,4508.205128,4201.538461,4611.282051,4008.205128,4007.692307
122,4393.846153,6147.483647,4584.615384,4316.923076,4496.410256,4235.384615,4445.128205,4224.102564,4228.717948,4502.564102,4208.717948,4608.717948,4010.769230,4010.256410
123,4383.076923,6147.483647,4577.948717,4313.846153,4490.769230,4235.897435,4443.589743,4215.384615,4218.974358,4496.410256,4203.076923,4596.923076,3999.487180,4004.615384
124,4378.461538,6147.483647,4574.871794,4300.512820,4487.179487,4228.205128,4440.512820,4212.307692,4217.948717,4500.000000,4191.794871,4594.871794,3981.025642,3998.974359
125,4401.538461,6147.483647,4593.333333,4312.820512,4502.564102,4237.948717,4450.256410,4228.717948,4239.487179,4520.000000,4208.717948,4613.846153,3995.384616,4016.410256
126,4425.128205,6147.483647,4611.282051,4327.179487,4517.948717,4255.897435,4465.128205,4245.128205,4262.564102,4541.025641,4232.820512,4631.282051,4030.769230,4041.538461
127,4422.564102,6147.483647,4608.205128,4326.153846,4514.871794,4256.410256,4462.051282,4243.076923,4260.512820,4545.128205,4235.384615,4627.179487,4034.358974,4042.051282
128,4408.205128,6147.483647,4597.435897,4327.692307,4503.589743,4242.051282,4447.179487,4231.794871,4241.025641,4530.256410,4223.589743,4615.384615,4013.333333,4026.666666
129,4397.948717,6147.483647,4590.769230,4319.487179,4502.051282,4236.410256,4441.025641,4222.051282,4226.153846,4514.358974,4209.743589,4610.769230,4007.179487,4016.410256
130,4392.307692,6147.483647,4585.128205,4302.564102,4508.717948,4243.589743,4442.564102,4220.512820,4222.051282,4510.769230,4202.051282,4607.692307,4006.666666,4011.794871
131,4389.230769,6147.483647,4576.410256,4295.384615,4508.205128,4248.205128,4443.589743,4218.974358,4221.025641,4509.743589,4198.974358,4595.897435,3991.794872,4005.128205
132,4386.153846,6147.483647,4571.794871,4296.410256,4501.025641,4242.051282,4443.076923,4210.769230,4218.974358,4505.128205,4194.871794,4588.205128,3985.128206,4001.538461
133,4387.179487,6147.483647,4576.923076,4301.538461,4498.974358,4235.897435,4439.487179,4207.692307,4222.051282,4507.692307,4191.794871,4594.871794,3994.871795,4007.179487
134,4403.076923,6147.483647,4589.743589,4316.923076,4506.666666,4244.615384,4443.076923,4218.974358,4236.410256,4519.487179,4207.179487,4609.743589,4009.743589,4023.076923
135,4411.794871,6147.483647,4594.358974,4323.589743,4512.307692,4253.333333,4455.897435,4229.230769,4250.256410,4528.205128,4226.153846,4615.897435,4018.974358,4031.794871
136,4404.102564,6147.483647,4591.282051,4313.846153,4507.692307,4246.666666,4460.512820,4227.692307,4248.717948,4527.692307,4221.025641,4610.769230,4013.846153,4024.615384
137,4405.128205,6147.483647,4595.384615,4311.794871,4506.153846,4244.615384,4457.435897,4228.205128,4243.589743,4531.282051,4212.820512,4614.358974,4007.692307,4023.589743
138,4417.435897,6147.483647,4604.615384,4321.025641,4511.794871,4253.333333,4460.000000,4236.923076,4250.256410,4543.076923,4221.538461,4624.102564,4015.384615,4032.307692
139,4415.384615,6147.483647,4605.641025,4325.641025,4511.794871,4252.307692,4461.025641,4237.948717,4252.307692,4540.000000,4222.564102,4622.564102,4024.615384,4033.333333
140,4398.974358,6147.483647,4590.769230,4311.282051,4501.538461,4235.384615,4448.205128,4224.615384,4237.948717,4517.948717,4208.205128,4607.692307,4010.256410,4022.564102
141,4383.589743,6147.483647,4573.846153,4285.641025,4486.153846,4217.435897,4431.794871,4209.743589,4219.487179,4503.076923,4202.564102,4593.333333,3982.564103,4006.666666
142,4377.948717,6147.483647,4569.230769,4278.974358,4474.358974,4211.794871,4426.153846,4205.641025,4213.846153,4506.153846,4197.948717,4587.179487,3973.846154,3999.487180
143,4383.589743,6147.483647,4573.846153,4295.384615,4474.871794,4214.871794,4428.205128,4208.205128,4217.948717,4511.794871,4187.692307,4586.666666,3983.076924,3998.974359
144,4382.564102,6147.483647,4571.282051,4298.461538,4476.923076,4213.846153,4426.666666,4206.666666,4216.410256,4505.128205,4177.948717,4583.076923,3976.923077,3995.897436
145,4372.307692,6147.483647,4566.666666,4285.128205,4474.871794,4209.743589,4427.692307,4205.641025,4209.743589,4497.435897,4178.461538,4580.000000,3964.615385,3991.794872
146,4381.025641,6147.483647,4580.000000,4293.846153,4483.076923,4219.487179,4443.589743,4216.923076,4220.512820,4513.333333,4200.512820,4594.358974,3981.538462,4003.589743
147,4405.128205,6147.483647,4595.897435,4311.282051,4494.871794,4233.846153,4453.846153,4231.282051,4243.589743,4537.948717,4224.102564,4610.769230,4008.205128,4025.641025
148,4402.051282,6147.483647,4589.230769,4298.461538,4492.307692,4226.666666,4444.615384,4224.102564,4236.410256,4529.230769,4213.846153,4604.615384,4004.615384,4025.641025
149,4383.589743,6147.483647,4575.384615,4285.641025,4487.692307,4217.435897,4437.948717,4209.230769,4215.384615,4509.230769,4192.820512,4591.794871,3987.692308,4007.692307
150,4394.871794,6147.483647,4586.153846,4308.717948,4499.487179,4235.384615,4450.769230,4218.461538,4227.692307,4521.025641,4204.102564,4600.512820,3992.820513,4008.205128
151,4414.871794,6147.483647,4600.512820,4330.769230,4514.871794,4256.410256,4462.564102,4236.923076,4252.307692,4541.025641,4221.025641,4609.743589,4007.692307,4028.717948
152,4412.820512,6147.483647,4593.846153,4316.923076,4515.384615,4251.794871,4460.512820,4241.025641,4254.358974,4542.564102,4220.512820,4603.076923,4011.282051,4033.846153
153,4405.128205,6147.483647,4589.230769,4307.179487,4503.076923,4237.948717,4457.948717,4235.384615,4244.615384,4537.948717,4220.000000,4601.025641,4012.820512,4024.615384
154,4407.692307,6147.483647,4597.435897,4312.820512,4498.461538,4233.846153,4454.871794,4230.769230,4242.051282,4530.256410,4217.435897,4607.692307,4010.256410,4023.076923
155,4410.769230,6147.483647,4601.538461,4310.769230,4501.538461,4233.333333,4447.179487,4227.692307,4246.153846,4521.025641,4207.692307,4608.205128,4001.538461,4027.179487
156,4411.282051,6147.483647,4598.974358,4314.358974,4495.384615,4232.307692,4444.102564,4224.615384,4244.102564,4525.128205,4203.589743,4602.051282,4002.564102,4027.179487
157,4410.256410,6147.483647,4595.384615,4324.102564,4492.820512,4235.384615,4446.666666,4222.564102,4233.333333,4535.897435,4207.692307,4601.538461,4008.717948,4023.589743
158,4403.589743,6147.483647,4589.230769,4312.307692,4501.538461,4241.538461,4446.666666,4224.615384,4225.128205,4526.666666,4214.358974,4604.102564,4007.692307,4020.000000
159,4398.461538,6147.483647,4586.153846,4298.461538,4507.692307,4240.512820,4445.641025,4227.692307,4226.666666,4512.307692,4220.512820,4600.000000,3998.461539,4018.974358
160,4396.410256,6147.483647,4586.666666,4302.564102,4501.538461,4234.871794,4446.153846,4225.641025,4230.256410,4515.897435,4207.179487,4590.769230,3986.153847,4015.384615
161,4391.794871,6147.483647,4582.051282,4298.974358,4494.358974,4231.282051,4443.076923,4220.000000,4224.102564,4515.897435,4184.615384,4584.102564,3986.153847,4008.205128
162,4387.692307,6147.483647,4577.435897,4293.333333,4489.230769,4227.179487,4434.871794,4213.333333,4215.897435,4506.666666,4189.743589,4582.051282,3996.410257,4006.153846
163,4387.179487,6147.483647,4574.358974,4299.487179,4482.051282,4221.025641,4427.692307,4207.692307,4213.846153,4504.615384,4200.512820,4577.435897,3989.743590,4007.692307
164,4383.589743,6147.483647,4568.205128,4295.897435,4475.897435,4215.384615,4426.666666,4202.564102,4211.282051,4498.461538,4187.179487,4566.153846,3972.820513,4001.538461
165,4377.948717,6147.483647,4564.615384,4289.230769,4472.820512,4213.846153,4424.102564,4195.897435,4207.692307,4490.769230,4178.461538,4554.358974,3970.256411,3993.333334
166,4377.435897,6147.483647,4565.128205,4291.282051,4473.846153,4217.435897,4420.512820,4192.307692,4212.820512,4502.051282,4182.051282,4553.846153,3975.897436,3993.846154
167,4383.076923,6147.483647,4567.179487,4293.846153,4472.307692,4214.871794,4424.102564,4196.410256,4217.435897,4514.871794,4180.000000,4561.538461,3978.974359,4002.564102
168,4392.307692,6147.483647,4575.897435,4295.384615,4472.820512,4213.846153,4428.205128,4204.615384,4216.410256,4507.179487,4187.179487,4570.256410,3985.641026,4011.282051
169,4396.923076,6147.483647,4584.102564,4298.461538,4473.846153,4217.948717,4427.179487,4210.256410,4219.487179,4493.846153,4202.564102,4577.435897,3992.307693,4014.871794
170,4388.205128,6147.483647,4578.974358,4295.384615,4463.589743,4207.692307,4423.589743,4207.179487,4218.974358,4488.205128,4200.512820,4578.461538,3988.205129,4009.743589
171,4386.666666,6147.483647,4578.461538,4297.435897,4458.461538,4198.461538,4427.179487,4212.820512,4215.897435,4491.282051,4196.410256,4577.435897,3985.641026,4011.282051
172,4402.051282,6147.483647,4589.743589,4310.256410,4469.743589,4210.256410,4441.025641,4225.128205,4225.641025,4498.974358,4205.641025,4584.615384,4000.512820,4023.589743
173,4407.179487,6147.483647,4593.333333,4310.769230,4478.974358,4221.538461,4449.230769,4224.615384,4232.820512,4501.025641,4204.102564,4590.769230,4002.051282,4026.153846
174,4394.871794,6147.483647,4584.102564,4296.410256,4476.923076,4216.923076,4444.102564,4218.974358,4226.153846,4496.923076,4195.384615,4583.076923,3981.025642,4015.384615
175,4387.692307,6147.483647,4574.358974,4290.256410,4471.794871,4208.717948,4441.025641,4218.461538,4221.025641,4492.820512,4192.820512,4568.205128,3976.410257,4007.179487
176,4387.692307,6147.483647,4573.333333,4296.410256,4465.641025,4205.641025,4443.589743,4217.435897,4220.512820,4489.743589,4187.179487,4559.487179,3987.179488,4006.153846
177,4386.666666,6147.483647,4578.974358,4295.897435,4459.487179,4201.538461,4442.564102,4217.948717,4221.025641,4492.307692,4190.769230,4563.589743,3986.153847,4007.692307
178,4392.307692,6147.483647,4585.128205,4292.820512,4459.487179,4200.512820,4443.589743,4226.153846,4228.205128,4497.948717,4202.051282,4571.282051,3988.717949,4015.384615
179,4397.435897,6147.483647,4583.589743,4293.846153,4461.025641,4201.025641,4443.589743,4221.538461,4232.307692,4499.487179,4196.410256,4564.615384,3994.871795,4017.948717
180,4389.230769,6147.483647,4573.333333,4284.615384,4455.897435,4196.410256,4433.333333,4201.025641,4217.948717,4491.794871,4185.128205,4547.179487,3984.615385,4008.717948
181,4375.897435,6147.483647,4562.051282,4276.410256,4445.641025,4187.179487,4423.076923,4190.256410,4202.051282,4481.538461,4181.538461,4536.410256,3978.974359,3997.435898
182,4371.282051,6147.483647,4555.897435,4281.025641,4440.512820,4183.589743,4421.538461,4191.282051,4203.589743,4478.974358,4174.358974,4534.871794,3978.461539,3989.230770
183,4375.384615,6147.483647,4558.974358,4281.538461,4449.230769,4186.666666,4423.589743,4195.897435,4212.307692,4480.512820,4176.410256,4536.410256,3970.769231,3991.794872
184,4380.512820,6147.483647,4567.179487,4278.461538,4456.923076,4187.692307,4426.666666,4201.538461,4214.358974,4477.948717,4190.769230,4536.923076,3979.487180,4000.512820
185,4384.615384,6147.483647,4574.871794,4286.666666,4454.871794,4191.282051,4428.205128,4208.717948,4217.948717,4486.666666,4188.717948,4536.923076,3998.974359,4007.179487
186,4388.205128,6147.483647,4580.512820,4294.871794,4456.410256,4200.000000,4429.743589,4213.333333,4226.666666,4503.076923,4183.589743,4546.666666,4004.102564,4012.307692
187,4389.743589,6142.564102,4582.051282,4295.897435,4460.000000,4202.051282,4436.410256,4210.769230,4226.153846,4497.948717,4190.256410,4551.794871,4004.102564,4013.846153
188,4390.769230,6112.307692,4581.538461,4295.897435,4460.512820,4198.974358,4444.102564,4212.820512,4221.538461,4491.282051,4193.333333,4542.051282,4006.666666,4008.205128
189,4392.820512,6111.794871,4581.025641,4287.692307,4460.000000,4201.025641,4445.128205,4223.076923,4229.230769,4504.102564,4193.846153,4540.000000,4004.102564,4005.641025
190,4394.871794,6142.564102,4585.128205,4287.179487,4463.076923,4204.102564,4445.128205,4229.230769,4239.487179,4509.230769,4191.282051,4546.153846,4009.743589,4013.333333
191,4395.897435,6147.483647,4588.205128,4307.179487,4463.076923,4201.025641,4445.641025,4226.153846,4240.512820,4509.230769,4174.358974,4543.589743,4018.974358,4017.948717
192,4400.000000,6147.483647,4589.230769,4322.051282,4458.461538,4201.025641,4445.128205,4224.102564,4235.897435,4524.102564,4175.384615,4541.538461,4013.846153,4018.461538
193,4399.487179,6147.483647,4588.205128,4312.820512,4453.333333,4200.512820,4442.564102,4218.974358,4227.692307,4523.589743,4200.000000,4547.179487,4009.230769,4015.897435
194,4389.230769,6109.743589,4584.102564,4292.820512,4445.641025,4190.256410,4434.871794,4209.230769,4217.948717,4500.512820,4202.051282,4542.564102,4006.153846,4008.205128
195,4383.589743,6011.282051,4578.461538,4283.589743,4440.000000,4181.025641,4429.230769,4206.666666,4216.410256,4492.307692,4185.128205,4535.384615,3994.358975,4001.025641
196,4386.153846,5960.000000,4574.871794,4292.820512,4436.923076,4177.948717,4431.282051,4208.205128,4221.025641,4504.102564,4181.538461,4540.000000,3995.384616,4002.564102
197,4384.102564,5957.948717,4574.871794,4301.025641,4429.743589,4170.769230,4429.743589,4205.128205,4223.076923,4512.307692,4178.461538,4541.538461,4008.205128,4004.102564
198,4375.897435,5981.538461,4571.794871,4287.179487,4425.128205,4166.153846,4421.025641,4198.974358,4216.923076,4511.282051,4167.692307,4535.384615,4004.102564,3998.974359
199,4379.487179,6019.487179,4569.230769,4280.000000,4426.153846,4168.717948,4418.461538,4197.435897,4212.307692,4507.179487,4176.410256,4541.538461,3995.897436,3997.435898
200,4394.871794,6032.307692,4579.487179,4296.410256,4428.205128,4170.256410,4428.205128,4206.666666,4225.128205,4512.820512,4197.435897,4560.000000,4004.615384,4008.205128
201,4408.205128,6025.641025,4594.871794,4309.230769,4434.871794,4176.410256,4439.487179,4220.000000,4243.076923,4524.102564,4210.769230,4572.820512,4017.948717,4023.076923
202,4413.846153,6029.230769,4600.512820,4315.897435,4444.102564,4186.153846,4444.615384,4223.589743,4243.076923,4530.769230,4209.743589,4578.974358,4029.230769,4029.743589
203,4413.333333,6023.076923,4602.051282,4325.641025,4451.282051,4188.205128,4452.820512,4220.000000,4238.461538,4533.333333,4199.487179,4587.179487,4033.333333,4031.282051
204,4416.410256,5998.974358,4608.717948,4329.743589,4457.435897,4192.307692,4465.128205,4225.641025,4249.230769,4540.000000,4205.128205,4593.846153,4030.256410,4036.923076
205,4418.461538,5973.846153,4607.692307,4320.512820,4451.282051,4190.769230,4460.000000,4228.205128,4254.871794,4544.615384,4218.461538,4588.717948,4028.717948,4034.358974
206,4406.666666,5953.846153,4594.358974,4307.692307,4432.820512,4174.871794,4441.025641,4217.948717,4242.564102,4537.948717,4207.179487,4573.333333,4018.974358,4020.000000
207,4396.923076,5951.794871,4589.230769,4308.717948,4426.666666,4165.128205,4436.923076,4215.384615,4235.897435,4528.717948,4192.307692,4566.666666,4005.641025,4012.820512
208,4404.102564,5951.794871,4593.333333,4315.384615,4426.666666,4164.615384,4441.025641,4218.974358,4236.410256,4525.128205,4202.051282,4571.794871,4017.435897,4021.025641
209,4407.179487,5938.974358,4588.717948,4305.128205,4415.897435,4157.948717,4433.333333,4212.307692,4234.358974,4524.615384,4204.615384,4573.846153,4027.179487,4022.051282
210,4399.487179,5926.153846,4580.000000,4294.871794,4410.769230,4152.307692,4428.205128,4206.153846,4233.846153,4515.897435,4188.717948,4569.230769,4010.769230,4011.794871
211,4394.871794,5908.205128,4573.846153,4300.000000,4412.820512,4151.794871,4429.230769,4203.076923,4226.153846,4503.076923,4182.564102,4562.564102,3999.487180,4004.102564
212,4394.358974,5896.410256,4571.282051,4296.923076,4412.307692,4151.794871,4427.692307,4200.000000,4215.384615,4508.717948,4185.128205,4558.461538,4005.641025,4004.615384
213,4396.923076,5915.897435,4575.897435,4297.948717,4412.820512,4153.846153,4429.743589,4207.179487,4223.076923,4527.692307,4188.717948,4565.641025,4012.307692,4009.743589
214,4396.410256,5913.333333,4576.923076,4311.794871,4409.230769,4149.743589,4432.307692,4212.307692,4232.307692,4527.179487,4186.666666,4573.846153,4010.256410,4008.717948
215,4389.743589,5853.846153,4571.282051,4309.230769,4396.410256,4136.410256,4426.666666,4204.102564,4227.179487,4509.230769,4173.846153,4566.153846,4000.512820,3999.487180
216,4393.333333,5838.461538,4578.974358,4306.666666,4394.358974,4134.871794,4425.641025,4205.641025,4227.179487,4510.769230,4173.846153,4559.487179,3992.307693,3998.974359
217,4399.487179,5889.743589,4587.179487,4314.871794,4399.487179,4140.000000,4429.743589,4207.179487,4227.692307,4524.102564,4186.666666,4562.564102,3997.948718,4005.641025
218,4391.794871,5883.589743,4573.846153,4306.153846,4393.333333,4132.307692,4427.179487,4195.384615,4216.410256,4519.487179,4190.769230,4556.923076,4004.102564,4002.564102
219,4392.307692,5813.333333,4571.794871,4298.461538,4389.230769,4126.666666,4430.256410,4196.923076,4217.435897,4516.410256,4194.358974,4555.897435,4007.692307,4007.179487
220,4413.846153,5785.641025,4591.794871,4312.307692,4400.000000,4135.897435,4444.615384,4212.307692,4236.923076,4539.487179,4206.153846,4571.794871,4026.153846,4030.256410
221,4420.000000,5783.076923,4597.948717,4316.923076,4402.564102,4138.974358,4446.153846,4215.897435,4246.153846,4544.615384,4208.717948,4576.410256,4034.358974,4035.384615
222,4399.487179,5755.897435,4582.564102,4309.230769,4386.153846,4120.512820,4429.230769,4202.564102,4231.794871,4514.358974,4196.410256,4557.435897,4006.153846,4013.846153
223,4390.256410,5745.128205,4576.923076,4307.692307,4375.897435,4107.179487,4423.076923,4194.358974,4217.948717,4506.666666,4191.282051,4549.230769,3994.358975,4004.615384
224,4399.487179,5730.256410,4585.128205,4310.256410,4379.487179,4110.256410,4429.230769,4201.538461,4224.615384,4526.666666,4197.948717,4557.435897,4016.410256,4013.846153
225,4402.564102,5684.102564,4586.153846,4312.820512,4382.564102,4111.282051,4428.717948,4208.205128,4237.435897,4534.871794,4200.000000,4557.435897,4027.179487,4017.948717
226,4396.923076,5670.256410,4578.461538,4303.076923,4380.512820,4108.717948,4427.692307,4204.102564,4235.897435,4523.589743,4194.358974,4553.846153,4015.897435,4015.384615
227,4391.794871,5696.410256,4568.717948,4289.743589,4378.461538,4109.743589,4427.692307,4197.435897,4223.589743,4508.205128,4192.307692,4554.871794,4004.615384,4010.256410
228,4389.743589,5696.410256,4567.179487,4295.384615,4375.384615,4109.230769,4426.666666,4197.948717,4225.641025,4511.282051,4194.871794,4554.358974,4003.076923,4005.128205
229,4391.794871,5652.307692,4573.333333,4303.589743,4370.769230,4103.076923,4427.179487,4199.487179,4241.025641,4529.743589,4193.846153,4552.820512,4012.307692,4006.153846
230,4397.948717,5624.615384,4573.333333,4298.461538,4367.692307,4097.948717,4427.692307,4198.974358,4237.435897,4532.307692,4194.871794,4556.923076,4017.435897,4012.307692
231,4397.948717,5667.692307,4571.282051,4291.794871,4365.641025,4100.512820,4427.179487,4195.384615,4221.538461,4523.076923,4200.512820,4567.179487,4010.256410,4014.871794
232,4394.871794,5725.641025,4571.282051,4293.333333,4365.641025,4100.512820,4427.179487,4194.358974,4226.666666,4517.948717,4192.820512,4571.794871,4004.615384,4014.358974
233,4395.384615,5732.820512,4571.282051,4298.974358,4366.666666,4097.435897,4427.179487,4198.461538,4235.897435,4507.179487,4188.717948,4564.102564,4004.102564,4012.820512
234,4396.410256,5734.358974,4570.256410,4298.461538,4365.641025,4100.000000,4427.692307,4202.564102,4229.743589,4502.564102,4198.461538,4554.871794,4010.256410,4012.820512
235,4395.897435,5752.307692,4569.230769,4291.794871,4365.128205,4099.487179,4426.666666,4206.153846,4230.256410,4511.794871,4195.897435,4553.846153,4019.487179,4016.410256
236,4397.435897,5748.205128,4577.435897,4298.461538,4370.256410,4096.923076,4427.179487,4208.205128,4238.461538,4517.435897,4189.743589,4557.435897,4024.102564,4024.615384
237,4408.205128,5724.102564,4587.179487,4310.769230,4372.307692,4101.538461,4431.282051,4211.282051,4235.897435,4514.358974,4202.051282,4564.615384,4026.153846,4031.794871
238,4414.358974,5703.589743,4585.128205,4305.128205,4363.076923,4098.974358,4431.794871,4210.769230,4233.333333,4512.307692,4216.923076,4566.666666,4016.410256,4029.743589
239,4407.179487,5695.384615,4580.512820,4302.564102,4355.897435,4087.692307,4428.717948,4206.153846,4237.435897,4517.948717,4211.794871,4561.538461,4006.666666,4023.589743
240,4400.512820,5691.794871,4582.564102,4308.717948,4354.871794,4087.692307,4434.358974,4206.153846,4240.000000,4522.564102,4194.358974,4556.410256,4021.025641,4022.051282
241,4405.128205,5686.666666,4583.076923,4300.512820,4355.897435,4092.820512,4442.564102,4208.717948,4234.358974,4514.871794,4184.615384,4553.846153,4035.897435,4026.666666
242,4411.794871,5688.205128,4589.230769,4296.923076,4362.051282,4094.358974,4446.153846,4208.717948,4232.307692,4510.256410,4204.102564,4561.025641,4034.358974,4031.794871
243,4415.897435,5657.948717,4600.000000,4318.974358,4369.230769,4098.974358,4451.794871,4210.256410,4237.435897,4514.871794,4223.589743,4570.769230,4022.051282,4035.897435
244,4415.384615,5554.871794,4593.846153,4328.717948,4361.025641,4095.897435,4449.743589,4209.743589,4234.871794,4508.717948,4206.666666,4561.538461,4004.102564,4030.256410
245,4406.153846,5449.743589,4582.051282,4309.743589,4350.256410,4084.102564,4442.051282,4206.666666,4229.743589,4502.564102,4191.282051,4549.743589,3995.384616,4020.000000
246,4401.025641,5429.230769,4583.076923,4293.333333,4352.307692,4079.487179,4443.076923,4207.692307,4237.435897,4512.307692,4198.461538,4553.333333,4010.769230,4020.000000
247,4404.102564,5470.769230,4580.000000,4292.820512,4349.230769,4076.923076,4445.128205,4208.717948,4240.000000,4516.410256,4204.102564,4549.230769,4020.000000,4022.564102
248,4403.076923,5506.666666,4569.743589,4299.487179,4338.974358,4071.282051,4437.948717,4205.128205,4227.692307,4509.743589,4204.102564,4542.564102,4009.743589,4018.461538
249,4396.410256,5478.974358,4567.179487,4296.923076,4332.307692,4065.128205,4429.743589,4200.000000,4216.410256,4499.487179,4187.692307,4547.179487,4000.000000,4011.282051
250,4394.358974,5423.589743,4572.307692,4289.743589,4329.230769,4060.000000,4428.717948,4197.948717,4215.897435,4490.769230,4178.974358,4548.205128,3995.897436,4011.794871
251,4398.974358,5427.692307,4575.897435,4292.820512,4329.230769,4060.512820,4434.358974,4199.487179,4222.051282,4497.435897,4195.384615,4547.179487,3999.487180,4015.384615
252,4401.538461,5469.743589,4575.384615,4288.205128,4332.307692,4065.641025,4441.025641,4205.641025,4227.692307,4512.307692,4207.692307,4556.410256,4009.743589,4015.897435
253,4401.538461,5471.794871,4577.948717,4283.589743,4336.923076,4066.666666,4444.102564,4211.282051,4230.769230,4514.358974,4203.076923,4566.666666,4015.384615,4020.512820
254,4398.461538,5441.538461,4581.538461,4296.923076,4333.846153,4062.564102,4443.076923,4212.820512,4233.846153,4514.358974,4204.102564,4568.717948,4006.666666,4022.051282
255,4396.923076,5441.538461,4582.051282,4303.589743,4329.743589,4060.512820,4443.076923,4212.820512,4237.948717,4516.923076,4205.128205,4570.769230,4001.025641,4017.948717
256,4398.974358,5473.333333,4581.025641,4294.871794,4331.794871,4061.025641,4442.564102,4213.333333,4235.897435,4512.307692,4189.743589,4574.871794,4007.692307,4018.461538
257,4399.487179,5497.435897,4577.948717,4287.179487,4334.358974,4061.538461,4435.384615,4207.692307,4227.692307,4513.846153,4183.589743,4577.435897,4005.128205,4022.051282
258,4397.435897,5492.820512,4572.820512,4281.538461,4330.256410,4062.564102,4427.692307,4197.948717,4217.435897,4520.000000,4193.846153,4573.333333,3999.487180,4018.974358
259,4395.897435,5475.384615,4569.230769,4284.102564,4325.128205,4058.974358,4427.692307,4196.923076,4216.410256,4514.871794,4201.538461,4567.692307,4007.692307,4013.846153
