,AF3,F7,F3,FC5,T7,P7,O1,O2,P8,T8,FC6,F4,F8,AF4
0,4369.743589,4531.282051,4522.564102,4249.743589,4463.589743,4184.102564,4442.051282,4190.256410,4232.820512,4475.897435,4213.333333,4661.538461,3974.358975,4023.589743
1,4371.794871,4534.871794,4523.076923,4249.230769,4467.179487,4192.307692,4445.128205,4194.871794,4234.358974,4477.435897,4212.820512,4663.589743,3972.820513,4022.564102
2,4372.307692,4542.051282,4523.076923,4253.846153,4477.948717,4198.974358,4446.666666,4201.025641,4246.153846,4484.102564,4214.358974,4663.589743,3969.743590,4025.128205
3,4372.307692,4541.025641,4521.025641,4252.820512,4474.358974,4190.769230,4443.589743,4204.615384,4248.717948,4485.128205,4216.923076,4662.564102,3972.820513,4027.692307
4,4368.717948,4534.358974,4523.076923,4246.153846,4464.615384,4182.564102,4442.564102,4208.205128,4247.179487,4494.358974,4217.435897,4665.128205,3972.820513,4021.025641
5,4363.076923,4530.769230,4522.051282,4247.179487,4455.897435,4184.102564,4437.435897,4203.589743,4249.230769,4501.538461,4215.384615,4664.615384,3966.666667,4015.384615
6,4368.205128,4532.307692,4520.512820,4253.846153,4456.923076,4184.102564,4434.871794,4201.025641,4248.717948,4488.717948,4219.487179,4664.615384,3969.743590,4024.615384
7,4377.948717,4538.974358,4527.692307,4256.410256,4475.897435,4185.641025,4441.025641,4207.692307,4249.743589,4484.615384,4225.641025,4671.794871,3981.538462,4038.461538
8,4376.923076,4541.025641,4530.256410,4253.846153,4481.538461,4194.358974,4445.128205,4208.717948,4253.846153,4500.512820,4223.076923,4674.871794,3979.487180,4034.871794
9,4371.794871,4535.897435,4523.076923,4254.871794,4470.256410,4194.871794,4441.538461,4204.102564,4251.794871,4501.025641,4214.871794,4668.717948,3966.666667,4022.051282
10,4368.717948,4538.974358,4521.538461,4255.897435,4474.871794,4191.282051,4442.564102,4206.153846,4248.717948,4493.846153,4217.435897,4665.641025,3961.538462,4022.051282
11,4362.051282,4537.948717,4521.538461,4249.230769,4480.000000,4193.846153,4445.641025,4204.615384,4249.743589,4493.333333,4220.000000,4666.666666,3961.025642,4027.179487
12,4358.461538,4525.128205,4511.282051,4242.051282,4467.692307,4192.307692,4443.589743,4198.974358,4244.615384,4480.512820,4206.666666,4660.000000,3950.769231,4021.025641
13,4363.076923,4524.615384,4505.641025,4244.615384,4457.948717,4185.128205,4442.564102,4197.435897,4240.512820,4473.333333,4204.102564,4655.897435,3944.615385,4012.307692
14,4363.589743,4534.358974,4510.256410,4249.230769,4457.948717,4182.564102,4443.589743,4198.461538,4243.076923,4483.076923,4212.820512,4658.974358,3949.743590,4013.333333
15,4362.051282,4533.333333,4513.333333,4251.282051,4453.846153,4186.666666,4444.102564,4201.025641,4243.589743,4486.153846,4207.692307,4660.000000,3949.743590,4017.948717
16,4363.589743,4530.769230,4515.384615,4250.769230,4453.846153,4186.153846,4442.564102,4201.538461,4241.538461,4481.538461,4204.615384,4658.974358,3946.153847,4018.974358
17,4368.205128,4537.435897,4521.025641,4250.256410,4470.256410,4184.102564,4443.076923,4200.512820,4247.179487,4481.025641,4212.820512,4663.076923,3950.769231,4023.076923
18,4371.282051,4539.487179,4526.666666,4254.871794,4482.051282,4193.846153,4445.641025,4205.641025,4251.794871,4485.128205,4214.871794,4666.666666,3954.358975,4031.282051
19,4369.230769,4536.410256,4526.153846,4259.487179,4475.897435,4198.974358,4445.128205,4207.692307,4248.717948,4488.205128,4210.769230,4663.076923,3944.615385,4027.692307
20,4363.589743,4534.871794,4521.538461,4256.923076,4469.743589,4188.205128,4446.153846,4202.564102,4247.179487,4481.025641,4206.153846,4660.000000,3933.846154,4018.974358
21,4362.051282,4534.871794,4520.512820,4253.846153,4477.435897,4188.205128,4453.846153,4204.615384,4250.256410,4480.000000,4205.128205,4659.487179,3934.358975,4017.948717
22,4363.589743,4533.846153,4522.564102,4254.871794,4478.461538,4202.051282,4461.025641,4214.871794,4252.820512,4498.461538,4209.743589,4658.461538,3941.538462,4020.512820
23,4360.512820,4529.230769,4517.435897,4251.282051,4461.025641,4194.871794,4459.487179,4216.923076,4250.769230,4503.589743,4207.179487,4652.307692,3942.564103,4017.948717
24,4359.487179,4528.717948,4513.846153,4250.769230,4458.461538,4186.153846,4456.923076,4213.333333,4252.820512,4486.666666,4205.128205,4648.717948,3940.000000,4016.410256
25,4367.179487,4539.487179,4521.025641,4261.025641,4478.974358,4202.564102,4461.025641,4220.000000,4260.512820,4487.692307,4217.948717,4656.923076,3946.666667,4026.666666
26,4372.307692,4544.102564,4526.153846,4268.717948,4484.102564,4205.641025,4460.512820,4220.512820,4258.461538,4498.974358,4224.102564,4663.076923,3952.820513,4033.333333
27,4364.615384,4532.307692,4522.564102,4261.025641,4465.128205,4186.666666,4448.717948,4202.564102,4245.641025,4494.358974,4211.794871,4654.871794,3945.128206,4027.179487
28,4358.974358,4523.076923,4517.435897,4251.794871,4460.512820,4182.564102,4442.564102,4196.410256,4244.615384,4488.205128,4204.615384,4647.692307,3942.051283,4023.076923
29,4364.615384,4528.205128,4519.487179,4252.307692,4473.846153,4189.743589,4448.205128,4208.205128,4256.410256,4492.307692,4212.307692,4654.871794,3951.282052,4026.153846
30,4367.692307,4530.769230,4523.076923,4257.435897,4472.820512,4187.179487,4449.743589,4210.769230,4257.948717,4500.000000,4214.358974,4655.897435,3950.769231,4025.128205
31,4364.102564,4527.179487,4518.461538,4260.000000,4463.076923,4183.589743,4444.615384,4201.538461,4249.230769,4495.897435,4207.179487,4649.230769,3942.564103,4022.564102
32,4360.000000,4526.666666,4508.717948,4256.410256,4456.923076,4182.051282,4443.076923,4196.923076,4238.461538,4474.871794,4200.000000,4645.128205,3934.358975,4020.512820
33,4356.923076,4525.641025,4506.666666,4251.282051,4457.435897,4177.948717,4441.025641,4190.769230,4224.615384,4458.974358,4191.794871,4638.974358,3922.564103,4012.820512
34,4354.871794,4521.025641,4509.743589,4250.256410,4466.153846,4180.000000,4436.410256,4182.051282,4221.025641,4467.692307,4189.743589,4636.410256,3917.435898,4008.717948
35,4356.923076,4520.000000,4507.179487,4253.846153,4461.025641,4182.564102,4433.333333,4181.538461,4224.102564,4469.230769,4194.871794,4640.512820,3917.435898,4012.820512
36,4361.025641,4525.641025,4505.128205,4255.897435,4447.692307,4178.461538,4436.410256,4188.717948,4227.179487,4463.076923,4196.410256,4644.102564,3919.487180,4021.025641
37,4363.076923,4530.256410,4512.307692,4258.461538,4458.974358,4181.025641,4442.051282,4197.435897,4236.410256,4476.410256,4195.897435,4643.589743,3925.641026,4027.692307
38,4361.538461,4529.743589,4520.512820,4264.615384,4479.487179,4188.717948,4443.076923,4201.538461,4244.102564,4482.564102,4200.512820,4647.179487,3932.307693,4028.205128
39,4365.128205,4530.256410,4522.051282,4266.153846,4477.435897,4193.333333,4442.564102,4204.615384,4241.025641,4474.871794,4206.666666,4652.307692,3937.435898,4028.205128
40,4374.358974,4532.307692,4522.564102,4264.615384,4471.794871,4193.333333,4447.179487,4209.230769,4243.589743,4484.615384,4208.717948,4656.923076,3944.102565,4032.307692
41,4372.820512,4529.743589,4524.615384,4258.461538,4468.205128,4189.743589,4449.230769,4206.153846,4250.769230,4488.205128,4209.743589,4658.974358,3945.128206,4034.358974
42,4362.564102,4525.128205,4522.051282,4252.307692,4456.410256,4184.102564,4444.615384,4201.025641,4246.666666,4469.743589,4209.743589,4655.897435,3938.461539,4034.871794
43,4365.128205,4525.128205,4520.512820,4261.025641,4457.435897,4185.641025,4443.589743,4203.589743,4242.051282,4472.307692,4206.666666,4656.410256,3936.923077,4037.435897
44,4369.743589,4531.282051,4524.615384,4268.717948,4464.615384,4188.205128,4443.589743,4204.102564,4246.153846,4486.666666,4205.641025,4658.461538,3938.974359,4038.461538
45,4363.589743,4532.820512,4525.128205,4264.102564,4461.538461,4181.538461,4437.435897,4198.461538,4243.589743,4478.974358,4207.179487,4656.923076,3943.076924,4037.948717
46,4363.076923,4531.282051,4522.564102,4263.076923,4457.948717,4176.410256,4432.307692,4198.461538,4240.000000,4471.794871,4211.794871,4657.948717,3947.179488,4044.102564
47,4370.769230,4530.256410,4526.666666,4269.743589,4460.512820,4178.461538,4436.410256,4201.025641,4242.051282,4481.538461,4210.769230,4658.974358,3940.000000,4048.205128
48,4373.333333,4528.205128,4537.948717,4271.794871,4469.743589,4184.615384,4443.076923,4199.487179,4246.153846,4488.717948,4205.641025,4656.410256,3935.384616,4042.564102
49,4372.820512,4529.743589,4538.461538,4269.743589,4479.487179,4187.692307,4445.641025,4206.153846,4250.256410,4485.641025,4209.230769,4659.487179,3946.666667,4041.538461
50,4372.307692,4532.820512,4532.820512,4268.717948,4474.871794,4188.717948,4449.230769,4215.897435,4250.256410,4480.000000,4214.358974,4665.128205,3953.846154,4047.692307
51,4367.179487,4528.205128,4532.307692,4265.128205,4455.384615,4187.179487,4448.205128,4212.307692,4243.589743,4476.923076,4208.717948,4658.461538,3943.589744,4045.641025
52,4365.641025,4520.512820,4529.230769,4263.076923,4446.666666,4184.102564,4445.641025,4207.692307,4241.025641,4472.820512,4199.487179,4648.717948,3935.897436,4038.461538
53,4367.179487,4518.974358,4523.076923,4264.615384,4455.897435,4183.589743,4452.307692,4210.256410,4243.589743,4470.256410,4196.923076,4648.717948,3936.923077,4034.358974
54,4362.051282,4517.948717,4521.025641,4265.128205,4466.153846,4191.794871,4460.000000,4212.307692,4245.128205,4477.435897,4196.410256,4649.230769,3934.871795,4029.743589
55,4354.871794,4513.846153,4524.102564,4261.025641,4467.692307,4197.435897,4458.461538,4212.820512,4246.153846,4477.948717,4193.846153,4643.076923,3927.692308,4026.666666
56,4349.743589,4508.205128,4515.897435,4252.820512,4461.538461,4190.769230,4456.923076,4208.717948,4240.512820,4464.102564,4188.205128,4636.923076,3919.487180,4024.102564
57,4347.692307,4500.512820,4507.179487,4246.666666,4462.051282,4190.769230,4460.000000,4205.641025,4233.846153,4460.000000,4188.205128,4638.974358,3919.487180,4018.974358
58,4352.820512,4503.589743,4515.897435,4249.743589,4463.589743,4200.000000,4461.538461,4214.871794,4246.153846,4470.769230,4196.923076,4647.692307,3929.743590,4020.512820
59,4356.410256,4509.743589,4522.051282,4255.384615,4452.307692,4193.846153,4460.512820,4222.051282,4252.307692,4469.230769,4197.435897,4648.205128,3934.358975,4027.179487
60,4348.205128,4505.128205,4512.820512,4252.307692,4442.564102,4181.025641,4457.948717,4211.282051,4233.846153,4453.333333,4188.717948,4640.000000,3924.615385,4026.153846
61,4345.128205,4503.589743,4510.256410,4248.717948,4456.410256,4184.615384,4456.923076,4203.076923,4226.666666,4452.307692,4187.692307,4637.435897,3923.076924,4022.051282
62,4349.230769,4506.666666,4514.871794,4253.846153,4467.692307,4189.743589,4455.897435,4204.102564,4235.897435,4467.179487,4187.692307,4641.025641,3929.743590,4023.076923
63,4348.205128,4501.025641,4512.820512,4258.461538,4452.307692,4183.589743,4446.666666,4199.487179,4232.820512,4470.256410,4182.564102,4641.538461,3923.076924,4024.102564
64,4350.256410,4497.435897,4515.897435,4258.974358,4446.666666,4182.051282,4441.025641,4199.487179,4228.717948,4462.051282,4183.589743,4643.076923,3913.846154,4025.128205
65,4361.025641,4505.128205,4526.153846,4261.025641,4464.615384,4186.153846,4450.256410,4209.230769,4237.435897,4455.897435,4189.230769,4651.282051,3918.461539,4032.820512
66,4365.128205,4511.794871,4527.179487,4265.128205,4468.717948,4188.717948,4453.846153,4211.282051,4240.000000,4450.769230,4189.230769,4654.871794,3925.128206,4038.461538
67,4363.076923,4509.230769,4523.076923,4265.128205,4460.512820,4186.666666,4446.666666,4202.564102,4234.358974,4451.794871,4182.564102,4649.743589,3923.589744,4033.333333
68,4363.076923,4506.666666,4521.538461,4262.051282,4456.410256,4184.615384,4441.538461,4195.897435,4229.743589,4455.897435,4180.512820,4643.589743,3920.000000,4029.230769
69,4362.051282,4508.205128,4521.025641,4262.051282,4452.307692,4182.564102,4440.512820,4195.384615,4223.589743,4451.282051,4185.641025,4641.025641,3918.974359,4033.333333
70,4362.564102,4511.282051,4523.076923,4263.076923,4451.794871,4182.564102,4442.051282,4197.435897,4224.615384,4451.794871,4188.717948,4643.076923,3926.666667,4038.974358
71,4366.666666,4512.820512,4527.692307,4264.102564,4459.487179,4184.615384,4442.051282,4199.487179,4230.769230,4458.974358,4187.179487,4648.717948,3935.384616,4038.974358
72,4371.282051,4514.871794,4529.743589,4270.256410,4466.666666,4185.128205,4435.384615,4196.410256,4230.769230,4451.794871,4189.230769,4651.794871,3933.846154,4037.948717
73,4372.307692,4516.410256,4531.794871,4276.923076,4471.794871,4184.102564,4433.846153,4195.897435,4228.205128,4448.205128,4192.820512,4652.820512,3927.179488,4042.564102
74,4371.794871,4514.358974,4533.846153,4273.846153,4474.358974,4185.641025,4442.051282,4201.538461,4232.307692,4463.589743,4191.794871,4654.871794,3929.230770,4047.692307
75,4369.743589,4511.794871,4528.717948,4268.205128,4468.205128,4185.641025,4442.564102,4202.564102,4234.871794,4469.743589,4187.692307,4651.282051,3938.461539,4043.076923
76,4365.641025,4511.794871,4521.025641,4265.641025,4461.538461,4181.025641,4437.435897,4201.025641,4231.794871,4457.435897,4185.128205,4647.692307,3933.846154,4033.846153
77,4362.051282,4508.205128,4521.538461,4263.589743,4458.461538,4177.435897,4436.923076,4201.025641,4229.743589,4453.333333,4183.076923,4648.717948,3917.948718,4030.256410
78,4362.051282,4504.615384,4523.589743,4263.076923,4463.589743,4180.512820,4436.410256,4199.487179,4230.256410,4467.179487,4178.461538,4646.666666,3925.128206,4036.410256
79,4362.564102,4507.179487,4517.435897,4263.589743,4474.871794,4185.128205,4440.000000,4200.000000,4233.846153,4474.871794,4176.410256,4644.102564,3943.076924,4042.051282
80,4357.435897,4505.128205,4510.256410,4260.000000,4466.666666,4186.153846,4442.051282,4200.512820,4233.846153,4463.589743,4178.461538,4643.076923,3933.333334,4035.384615
81,4352.307692,4501.025641,4507.692307,4253.333333,4448.717948,4181.025641,4434.358974,4194.871794,4228.205128,4456.923076,4176.923076,4638.461538,3919.487180,4024.102564
82,4353.333333,4504.615384,4507.179487,4251.794871,4457.948717,4177.948717,4430.769230,4191.282051,4225.641025,4463.076923,4173.846153,4633.333333,3927.692308,4026.666666
83,4355.897435,4507.179487,4507.179487,4256.923076,4475.384615,4182.051282,4437.948717,4195.384615,4230.769230,4467.692307,4175.897435,4635.897435,3937.435898,4033.333333
84,4358.974358,4507.692307,4510.256410,4264.102564,4474.871794,4186.666666,4441.538461,4199.487179,4235.384615,4471.794871,4185.128205,4644.102564,3940.000000,4029.743589
85,4361.538461,4511.282051,4514.358974,4266.153846,4472.820512,4187.179487,4442.051282,4200.512820,4233.846153,4472.307692,4187.692307,4650.256410,3941.538462,4027.692307
86,4358.461538,4512.307692,4511.282051,4262.564102,4471.282051,4187.179487,4443.589743,4197.948717,4228.717948,4454.358974,4181.538461,4647.179487,3937.435898,4030.256410
87,4352.820512,4509.230769,4504.102564,4258.974358,4464.102564,4186.153846,4442.051282,4194.871794,4229.230769,4445.641025,4182.564102,4638.461538,3933.846154,4027.179487
88,4355.384615,4512.820512,4505.641025,4261.025641,4466.153846,4188.205128,4441.025641,4195.897435,4236.923076,4463.589743,4189.230769,4640.000000,3937.435898,4023.076923
89,4363.076923,4520.000000,4513.846153,4267.179487,4476.923076,4196.923076,4443.589743,4201.025641,4240.000000,4478.974358,4191.794871,4648.717948,3943.589744,4023.589743
90,4362.564102,4524.615384,4515.384615,4267.179487,4482.564102,4204.102564,4445.128205,4208.717948,4243.076923,4483.589743,4193.333333,4650.256410,3949.743590,4024.615384
91,4356.410256,4521.025641,4509.230769,4264.102564,4476.410256,4198.461538,4443.589743,4212.307692,4247.692307,4485.641025,4198.461538,4647.179487,3952.307693,4024.102564
92,4351.282051,4511.794871,4507.179487,4264.102564,4463.589743,4186.666666,4442.564102,4205.641025,4240.512820,4479.487179,4193.333333,4645.641025,3946.666667,4019.487179
93,4349.743589,4513.333333,4508.717948,4263.589743,4463.589743,4189.743589,4444.102564,4197.435897,4233.333333,4467.179487,4187.692307,4644.102564,3941.538462,4013.333333
94,4350.769230,4518.974358,4508.205128,4260.000000,4477.435897,4196.923076,4445.641025,4201.538461,4239.487179,4470.256410,4193.846153,4645.128205,3945.128206,4014.358974
95,4350.256410,4512.820512,4507.179487,4259.487179,4480.512820,4190.256410,4441.538461,4203.589743,4238.461538,4477.435897,4197.435897,4647.692307,3946.153847,4009.743589
96,4345.128205,4503.589743,4506.666666,4257.948717,4467.692307,4180.512820,4435.384615,4190.769230,4227.692307,4466.666666,4190.769230,4644.102564,3937.948718,3999.487180
97,4341.025641,4503.589743,4503.076923,4252.307692,4463.589743,4182.564102,4436.410256,4187.179487,4228.205128,4456.410256,4184.615384,4642.564102,3933.333334,4003.076923
98,4350.256410,4510.769230,4507.179487,4255.384615,4472.307692,4192.820512,4441.538461,4198.974358,4237.948717,4471.282051,4189.743589,4651.794871,3940.512821,4011.282051
99,4361.538461,4519.487179,4521.025641,4264.102564,4472.820512,4196.410256,4444.102564,4207.179487,4245.128205,4490.256410,4200.512820,4658.461538,3946.666667,4010.256410
100,4354.871794,4525.128205,4520.000000,4264.102564,4467.179487,4192.820512,4444.102564,4204.615384,4250.256410,4483.076923,4204.102564,4656.923076,3944.102565,4006.153846
101,4344.102564,4520.512820,4511.282051,4258.974358,4478.461538,4194.871794,4443.589743,4203.589743,4247.179487,4471.282051,4199.487179,4655.897435,3945.128206,4004.102564
102,4347.692307,4513.846153,4514.358974,4260.512820,4489.743589,4200.512820,4442.051282,4204.102564,4238.974358,4476.923076,4195.384615,4654.358974,3951.282052,4003.076923
103,4350.769230,4517.435897,4514.871794,4265.641025,4478.974358,4194.871794,4441.025641,4200.512820,4236.923076,4478.461538,4194.358974,4648.205128,3946.153847,4000.512820
104,4344.615384,4517.435897,4504.615384,4260.000000,4464.102564,4184.615384,4441.025641,4200.512820,4237.435897,4472.820512,4193.333333,4644.102564,3937.435898,3995.384616
105,4344.102564,4513.333333,4503.076923,4254.871794,4466.153846,4188.205128,4441.538461,4201.025641,4233.846153,4474.358974,4192.820512,4645.128205,3943.589744,3995.384616
106,4346.666666,4513.846153,4508.205128,4255.897435,4477.948717,4195.384615,4442.564102,4200.000000,4234.871794,4481.538461,4194.358974,4647.692307,3953.333334,3998.461539
107,4345.128205,4513.333333,4507.179487,4255.897435,4485.641025,4197.948717,4442.564102,4201.538461,4240.512820,4483.076923,4202.051282,4649.743589,3955.897436,3997.435898
108,4346.153846,4511.794871,4508.205128,4255.384615,4489.743589,4200.000000,4442.564102,4203.589743,4244.615384,4482.051282,4209.230769,4652.820512,3958.974359,4000.000000
109,4346.153846,4512.820512,4509.743589,4253.333333,4484.102564,4197.435897,4443.076923,4202.564102,4243.589743,4480.512820,4204.615384,4653.846153,3961.025642,4003.076923
110,4344.615384,4511.794871,4504.102564,4249.743589,4466.153846,4192.307692,4442.051282,4201.538461,4244.102564,4479.487179,4199.487179,4650.256410,3956.410257,3996.410257
111,4346.666666,4505.641025,4507.692307,4253.333333,4465.128205,4193.333333,4443.589743,4209.230769,4252.307692,4486.153846,4206.153846,4651.282051,3955.384616,3993.333334
112,4352.820512,4507.179487,4518.461538,4257.435897,4487.179487,4200.512820,4448.717948,4214.358974,4260.000000,4495.897435,4210.256410,4657.948717,3960.512821,4003.076923
113,4355.897435,4516.923076,4514.871794,4254.871794,4494.358974,4204.102564,4448.717948,4213.846153,4254.358974,4497.435897,4211.282051,4658.974358,3964.615385,4009.230769
114,4354.358974,4517.435897,4510.256410,4253.333333,4480.000000,4195.897435,4443.076923,4210.256410,4245.128205,4486.666666,4210.769230,4654.358974,3964.102565,4000.512820
115,4357.435897,4515.897435,4517.435897,4260.512820,4473.846153,4189.230769,4442.051282,4208.717948,4247.692307,4478.461538,4209.743589,4655.897435,3964.102565,3996.923077
116,4358.974358,4518.974358,4514.871794,4263.589743,4462.564102,4190.256410,4444.102564,4209.230769,4249.743589,4482.051282,4206.153846,4658.974358,3965.128206,4002.051282
117,4354.358974,4522.051282,4509.743589,4260.000000,4450.769230,4189.743589,4443.589743,4204.102564,4246.666666,4489.230769,4202.564102,4655.897435,3963.589744,4004.615384
118,4355.384615,4519.487179,4519.487179,4261.538461,4472.307692,4191.282051,4444.615384,4207.179487,4248.205128,4498.974358,4206.666666,4657.948717,3966.666667,4007.179487
119,4363.076923,4521.538461,4525.641025,4270.256410,4500.512820,4197.948717,4446.153846,4215.897435,4251.282051,4500.512820,4214.871794,4663.076923,3970.256411,4005.641025
120,4364.615384,4526.153846,4523.076923,4273.333333,4496.410256,4203.589743,4445.641025,4211.282051,4250.769230,4485.128205,4213.846153,4661.025641,3966.153847,4002.564102
121,4362.051282,4524.615384,4521.538461,4265.641025,4486.666666,4200.512820,4444.615384,4200.512820,4247.692307,4476.923076,4206.666666,4654.358974,3966.153847,4004.615384
122,4358.461538,4520.512820,4513.846153,4261.025641,4485.641025,4189.743589,4442.051282,4198.461538,4243.076923,4485.128205,4200.512820,4649.743589,3967.179488,4007.179487
123,4355.384615,4515.897435,4507.692307,4261.025641,4480.512820,4185.641025,4440.512820,4203.076923,4240.512820,4486.666666,4203.589743,4647.692307,3961.025642,4002.051282
124,4360.000000,4516.923076,4514.871794,4261.025641,4481.538461,4195.384615,4443.589743,4207.692307,4245.128205,4485.641025,4211.282051,4653.846153,3962.051283,4002.051282
125,4362.051282,4522.564102,4520.000000,4263.076923,4480.000000,4198.974358,4445.641025,4208.205128,4249.743589,4494.358974,4212.307692,4658.461538,3970.769231,4008.205128
126,4357.435897,4522.051282,4517.435897,4265.128205,4473.333333,4191.794871,4443.589743,4208.205128,4255.384615,4502.051282,4205.641025,4653.333333,3971.794872,4009.230769
127,4361.538461,4521.538461,4520.512820,4265.641025,4480.000000,4195.897435,4443.076923,4214.358974,4261.025641,4501.538461,4209.743589,4653.846153,3971.282052,4012.820512
128,4366.153846,4522.564102,4520.000000,4265.128205,4484.615384,4202.051282,4444.615384,4213.333333,4254.871794,4498.974358,4219.487179,4658.461538,3970.769231,4012.820512
129,4363.076923,4522.051282,4515.384615,4267.179487,4480.000000,4199.487179,4444.102564,4206.153846,4250.256410,4493.333333,4217.948717,4656.923076,3967.179488,4006.153846
130,4363.589743,4523.589743,4518.974358,4268.205128,4489.230769,4194.358974,4443.076923,4207.692307,4255.384615,4491.282051,4210.769230,4656.410256,3970.769231,4006.153846
131,4363.589743,4521.538461,4518.461538,4266.153846,4495.384615,4191.282051,4443.076923,4205.128205,4250.769230,4495.384615,4206.666666,4656.410256,3973.333334,4012.307692
132,4362.051282,4518.461538,4513.846153,4265.641025,4483.076923,4193.846153,4442.564102,4196.923076,4242.564102,4501.538461,4210.256410,4657.948717,3971.282052,4011.794871
133,4368.205128,4524.102564,4516.410256,4268.205128,4478.974358,4195.384615,4443.076923,4202.051282,4250.769230,4501.025641,4217.435897,4662.051282,3974.358975,4012.307692
134,4368.717948,4521.025641,4516.410256,4268.717948,4475.384615,4187.692307,4443.076923,4204.615384,4252.307692,4489.743589,4213.846153,4658.461538,3973.333334,4011.282051
135,4362.564102,4508.205128,4513.333333,4264.102564,4467.179487,4183.589743,4442.051282,4197.435897,4242.051282,4487.179487,4210.256410,4653.846153,3967.692308,4005.641025
136,4370.769230,4515.384615,4522.564102,4271.282051,4480.000000,4193.846153,4443.076923,4205.641025,4251.794871,4498.974358,4217.435897,4662.564102,3974.871795,4013.333333
137,4380.000000,4525.128205,4529.230769,4278.974358,4494.358974,4202.051282,4446.153846,4218.461538,4264.615384,4508.717948,4223.076923,4669.230769,3984.615385,4024.615384
138,4371.794871,4518.461538,4523.589743,4271.282051,4483.076923,4198.461538,4445.641025,4212.307692,4256.923076,4509.230769,4217.948717,4664.102564,3978.461539,4019.487179
139,4368.717948,4515.897435,4522.051282,4267.692307,4473.333333,4194.358974,4443.589743,4206.153846,4247.179487,4505.128205,4212.820512,4661.025641,3974.871795,4016.923076
140,4376.923076,4522.564102,4530.769230,4271.282051,4488.205128,4200.000000,4449.743589,4215.897435,4249.743589,4502.564102,4215.384615,4668.205128,3982.564103,4025.641025
141,4378.974358,4525.641025,4536.410256,4271.794871,4501.025641,4204.615384,4458.461538,4220.000000,4256.410256,4507.179487,4221.538461,4674.871794,3984.615385,4028.717948
142,4373.333333,4520.000000,4529.230769,4270.769230,4489.230769,4201.025641,4457.948717,4214.871794,4259.487179,4506.153846,4222.564102,4669.743589,3979.487180,4023.589743
143,4368.717948,4514.358974,4520.000000,4270.769230,4476.923076,4201.538461,4454.871794,4214.358974,4255.384615,4496.410256,4220.000000,4662.051282,3977.435898,4022.051282
144,4369.743589,4517.435897,4521.538461,4272.307692,4489.230769,4203.589743,4458.461538,4214.871794,4253.846153,4497.435897,4217.435897,4663.076923,3977.435898,4021.538461
145,4376.410256,4522.564102,4524.615384,4275.384615,4498.974358,4203.589743,4461.025641,4215.384615,4256.410256,4510.256410,4217.435897,4664.615384,3973.846154,4021.538461
146,4377.435897,4517.948717,4521.538461,4274.358974,4480.000000,4201.538461,4456.923076,4215.897435,4255.384615,4512.307692,4215.384615,4661.025641,3973.333334,4022.564102
147,4373.333333,4516.923076,4524.102564,4271.282051,4472.307692,4200.000000,4456.923076,4215.897435,4255.384615,4499.487179,4216.410256,4661.025641,3976.923077,4024.102564
148,4376.410256,4524.615384,4532.307692,4278.974358,4489.743589,4201.538461,4458.461538,4217.435897,4256.923076,4493.333333,4217.948717,4663.589743,3978.461539,4026.666666
149,4379.487179,4523.589743,4531.282051,4282.564102,4494.871794,4202.051282,4453.846153,4216.923076,4254.358974,4496.410256,4212.307692,4660.512820,3973.846154,4027.179487
150,4377.435897,4518.461538,4524.615384,4276.410256,4489.743589,4200.000000,4448.717948,4209.743589,4251.794871,4487.692307,4205.128205,4660.000000,3969.743590,4026.153846
151,4375.384615,4521.538461,4522.564102,4276.923076,4491.282051,4201.538461,4447.692307,4203.076923,4251.794871,4483.076923,4205.128205,4660.000000,3969.230770,4026.153846
152,4371.794871,4518.974358,4523.589743,4277.948717,4489.743589,4201.025641,4445.641025,4200.000000,4244.102564,4497.435897,4204.102564,4654.358974,3967.179488,4022.051282
153,4369.743589,4508.717948,4527.179487,4272.820512,4485.641025,4196.410256,4443.589743,4201.538461,4245.128205,4502.051282,4202.051282,4652.307692,3965.641026,4018.974358
154,4374.871794,4510.256410,4534.358974,4272.820512,4488.717948,4199.487179,4444.615384,4205.128205,4254.871794,4497.948717,4205.128205,4661.025641,3972.307693,4024.615384
155,4379.487179,4516.923076,4537.948717,4273.846153,4489.743589,4199.487179,4444.615384,4202.051282,4253.846153,4502.051282,4204.102564,4663.076923,3971.282052,4030.769230
156,4377.948717,4512.307692,4533.846153,4267.179487,4488.205128,4191.794871,4442.051282,4197.948717,4245.641025,4492.820512,4202.564102,4657.435897,3962.564103,4032.820512
157,4376.923076,4508.717948,4530.256410,4264.615384,4488.205128,4193.846153,4444.102564,4200.000000,4244.615384,4481.538461,4208.205128,4661.025641,3970.769231,4032.307692
158,4374.358974,4506.666666,4525.641025,4269.743589,4481.025641,4197.435897,4446.153846,4195.897435,4250.769230,4493.333333,4210.256410,4660.000000,3980.512821,4025.128205
159,4368.717948,4498.974358,4520.512820,4267.179487,4474.358974,4188.717948,4440.000000,4192.820512,4249.230769,4495.897435,4203.076923,4648.717948,3969.230770,4017.435897
160,4370.256410,4498.461538,4520.000000,4259.487179,4465.641025,4183.076923,4435.384615,4195.384615,4244.102564,4485.128205,4199.487179,4646.666666,3962.564103,4022.051282
161,4374.871794,4507.179487,4522.564102,4263.589743,4460.000000,4184.615384,4438.461538,4192.820512,4246.153846,4487.692307,4202.564102,4654.871794,3974.358975,4033.846153
162,4374.358974,4511.282051,4524.615384,4271.282051,4472.820512,4187.692307,4436.923076,4190.769230,4248.205128,4494.358974,4202.051282,4652.820512,3975.897436,4035.384615
163,4377.435897,4510.256410,4523.589743,4271.282051,4493.333333,4194.871794,4436.410256,4191.794871,4244.102564,4491.282051,4198.974358,4648.717948,3968.717949,4027.179487
164,4384.102564,4510.256410,4522.564102,4271.794871,4504.615384,4201.025641,4444.102564,4193.333333,4240.512820,4478.974358,4204.615384,4650.769230,3971.794872,4027.179487
165,4382.564102,4513.333333,4529.230769,4276.923076,4506.666666,4198.974358,4446.666666,4194.358974,4244.102564,4473.846153,4211.794871,4651.794871,3976.410257,4037.948717
166,4381.025641,4513.846153,4533.846153,4279.487179,4505.128205,4198.974358,4442.051282,4191.282051,4246.153846,4487.692307,4209.743589,4653.333333,3973.846154,4041.538461
167,4385.128205,4510.769230,4527.692307,4278.974358,4496.923076,4202.051282,4445.128205,4194.871794,4248.205128,4495.384615,4211.282051,4655.897435,3973.846154,4037.435897
168,4380.000000,4505.128205,4523.589743,4276.410256,4484.102564,4195.384615,4446.666666,4198.974358,4246.666666,4481.025641,4207.692307,4651.794871,3973.846154,4034.358974
169,4362.051282,4495.897435,4517.435897,4268.717948,4473.846153,4183.589743,4436.410256,4184.102564,4230.769230,4461.538461,4186.153846,4637.948717,3954.358975,4015.897435
170,4353.846153,4491.794871,4507.179487,4262.051282,4478.461538,4184.102564,4431.282051,4167.179487,4218.974358,4455.897435,4171.282051,4626.666666,3933.333334,4000.000000
171,4364.102564,4502.564102,4513.846153,4265.641025,4494.871794,4192.307692,4441.025641,4178.461538,4228.717948,4460.512820,4182.051282,4632.307692,3946.153847,4015.384615
172,4369.743589,4509.743589,4522.564102,4272.307692,4494.358974,4190.256410,4445.641025,4191.282051,4237.948717,4466.153846,4193.846153,4643.589743,3969.230770,4031.282051
173,4362.564102,4503.589743,4515.897435,4270.769230,4484.102564,4182.051282,4436.410256,4182.564102,4231.794871,4463.076923,4187.179487,4641.538461,3961.025642,4024.102564
174,4360.000000,4501.538461,4513.846153,4266.666666,4488.205128,4184.102564,4430.769230,4176.410256,4228.717948,4467.179487,4183.076923,4633.846153,3945.641026,4021.538461
175,4364.615384,4505.128205,4518.974358,4272.820512,4501.025641,4191.794871,4436.410256,4182.051282,4233.333333,4481.538461,4190.769230,4637.948717,3952.307693,4026.666666
176,4366.666666,4507.179487,4517.435897,4275.384615,4494.871794,4191.282051,4438.974358,4181.025641,4233.333333,4478.974358,4193.333333,4643.076923,3962.051283,4022.564102
177,4368.205128,4505.641025,4520.512820,4271.282051,4478.974358,4184.102564,4432.820512,4177.435897,4231.794871,4468.205128,4191.282051,4639.487179,3965.641026,4022.051282
178,4370.256410,4504.102564,4524.102564,4270.256410,4475.897435,4181.025641,4426.153846,4178.461538,4229.743589,4466.153846,4193.333333,4637.948717,3965.641026,4030.256410
179,4369.743589,4505.128205,4521.025641,4270.769230,4482.051282,4184.102564,4428.205128,4174.871794,4225.128205,4462.564102,4194.871794,4641.538461,3962.051283,4034.871794
180,4374.871794,4508.205128,4523.589743,4272.307692,4487.692307,4187.692307,4434.358974,4175.384615,4228.205128,4462.564102,4194.358974,4643.589743,3964.102565,4036.410256
181,4377.948717,4505.128205,4525.641025,4276.410256,4489.230769,4185.128205,4433.846153,4181.025641,4234.358974,4473.846153,4195.384615,4643.076923,3972.820513,4039.487179
182,4375.384615,4499.487179,4523.589743,4276.923076,4490.256410,4184.102564,4429.230769,4181.538461,4233.846153,4477.948717,4194.358974,4643.076923,3973.333334,4040.000000
183,4377.948717,4503.076923,4525.641025,4276.410256,4492.820512,4192.820512,4435.897435,4182.051282,4233.846153,4475.384615,4197.435897,4647.179487,3964.102565,4041.025641
184,4381.025641,4508.205128,4525.641025,4276.410256,4487.179487,4193.846153,4441.025641,4181.538461,4231.282051,4474.871794,4197.435897,4646.666666,3957.948718,4043.076923
185,4372.820512,4504.102564,4520.512820,4272.820512,4478.974358,4184.102564,4432.820512,4172.820512,4224.615384,4466.153846,4183.589743,4637.435897,3958.974359,4036.923076
186,4363.589743,4495.897435,4520.512820,4272.820512,4486.666666,4183.589743,4428.717948,4170.769230,4222.051282,4457.435897,4181.025641,4633.333333,3965.128206,4028.717948
187,4365.128205,4495.897435,4518.461538,4276.923076,4499.487179,4190.256410,4431.794871,4175.384615,4224.102564,4461.538461,4188.717948,4634.358974,3965.128206,4033.333333
188,4367.179487,4497.948717,4512.307692,4275.897435,4501.025641,4191.282051,4432.307692,4171.282051,4223.076923,4465.128205,4183.589743,4631.794871,3956.410257,4038.974358
189,4370.256410,4494.871794,4516.410256,4276.923076,4494.871794,4191.794871,4436.410256,4168.205128,4221.538461,4465.128205,4180.512820,4631.794871,3955.384616,4034.358974
190,4369.230769,4494.358974,4522.564102,4276.410256,4482.051282,4189.230769,4443.076923,4174.358974,4223.076923,4463.589743,4185.641025,4633.846153,3958.461539,4031.794871
191,4362.564102,4496.410256,4520.000000,4272.307692,4478.461538,4185.128205,4443.076923,4180.000000,4229.230769,4458.974358,4184.615384,4632.307692,3958.974359,4032.307692
192,4369.230769,4499.487179,4519.487179,4277.435897,4489.743589,4189.230769,4438.461538,4184.102564,4236.410256,4460.512820,4183.076923,4633.846153,3958.461539,4033.846153
193,4380.512820,4502.564102,4522.051282,4284.102564,4497.435897,4189.230769,4434.358974,4180.512820,4231.794871,4467.692307,4189.230769,4636.410256,3956.410257,4039.487179
194,4375.897435,4506.153846,4519.487179,4282.564102,4500.000000,4184.615384,4434.358974,4173.846153,4218.974358,4466.666666,4189.230769,4632.820512,3954.871795,4041.025641
195,4371.282051,4506.666666,4518.461538,4278.974358,4503.076923,4191.794871,4440.512820,4170.256410,4216.410256,4463.076923,4183.076923,4630.769230,3963.076924,4041.025641
196,4376.410256,4504.615384,4523.076923,4278.974358,4496.410256,4195.897435,4441.025641,4165.641025,4219.487179,4465.641025,4182.564102,4634.871794,3968.205129,4047.179487
197,4375.897435,4504.102564,4520.000000,4278.461538,4492.820512,4192.307692,4436.410256,4166.666666,4221.025641,4471.282051,4186.666666,4637.435897,3965.641026,4046.666666
198,4370.769230,4504.102564,4511.282051,4278.974358,4501.025641,4193.846153,4435.897435,4175.384615,4224.615384,4475.384615,4187.179487,4634.871794,3964.102565,4035.384615
199,4370.256410,4501.538461,4506.666666,4274.358974,4501.025641,4192.820512,4431.794871,4175.384615,4224.615384,4464.102564,4180.512820,4631.282051,3959.487180,4029.743589
200,4366.153846,4497.435897,4508.717948,4267.179487,4489.230769,4186.153846,4428.205128,4170.256410,4220.512820,4447.179487,4176.923076,4631.282051,3956.923077,4033.333333
201,4361.538461,4500.000000,4508.717948,4268.717948,4485.641025,4184.102564,4431.794871,4174.871794,4221.025641,4448.205128,4181.538461,4633.333333,3961.025642,4034.358974
202,4361.538461,4505.128205,4505.641025,4269.743589,4491.282051,4187.692307,4435.384615,4177.435897,4223.589743,4461.025641,4186.666666,4633.846153,3962.051283,4028.205128
203,4363.589743,4505.128205,4506.153846,4267.692307,4490.769230,4191.794871,4433.333333,4169.743589,4223.076923,4468.205128,4188.205128,4636.410256,3963.076924,4022.564102
204,4363.589743,4505.128205,4508.205128,4269.230769,4485.641025,4191.282051,4429.230769,4166.666666,4221.025641,4468.717948,4188.205128,4639.487179,3969.743590,4023.589743
205,4362.051282,4505.641025,4508.205128,4271.794871,4489.230769,4187.179487,4428.717948,4170.769230,4225.128205,4464.615384,4191.282051,4641.538461,3973.846154,4028.205128
206,4363.589743,4505.128205,4510.256410,4269.230769,4496.923076,4190.769230,4435.384615,4175.384615,4229.743589,4455.897435,4197.948717,4645.641025,3975.384616,4032.307692
207,4365.128205,4506.666666,4510.769230,4267.179487,4496.410256,4199.487179,4442.564102,4178.461538,4226.666666,4457.948717,4203.076923,4648.717948,3974.871795,4027.692307
208,4361.538461,4506.666666,4505.641025,4269.230769,4495.384615,4200.000000,4442.051282,4178.461538,4223.589743,4469.230769,4201.538461,4645.128205,3970.769231,4017.948717
209,4360.000000,4507.692307,4504.615384,4270.256410,4502.051282,4197.948717,4443.076923,4177.435897,4228.205128,4471.282051,4197.948717,4640.000000,3968.205129,4015.897435
210,4360.512820,4509.743589,4506.153846,4269.230769,4504.615384,4197.948717,4441.538461,4175.384615,4224.102564,4467.179487,4191.794871,4636.923076,3966.666667,4014.871794
211,4355.384615,4504.615384,4501.025641,4264.102564,4496.923076,4192.820512,4431.282051,4168.717948,4217.435897,4469.230769,4186.153846,4630.769230,3960.512821,4003.076923
212,4355.384615,4502.051282,4501.025641,4266.153846,4492.820512,4189.743589,4433.333333,4172.307692,4228.205128,4469.230769,4192.307692,4632.820512,3962.051283,4002.564102
213,4364.102564,4508.205128,4506.666666,4270.256410,4492.820512,4191.282051,4440.000000,4181.025641,4235.897435,4464.102564,4202.051282,4644.102564,3974.358975,4017.435897
214,4365.641025,4508.205128,4506.666666,4266.666666,4486.666666,4188.717948,4432.307692,4174.358974,4224.102564,4466.666666,4199.487179,4643.589743,3980.000000,4020.000000
215,4363.076923,4505.641025,4504.615384,4267.179487,4480.512820,4186.153846,4426.153846,4168.205128,4217.948717,4468.205128,4190.769230,4636.410256,3975.897436,4012.820512
216,4367.179487,4514.871794,4507.179487,4274.358974,4490.256410,4191.282051,4434.358974,4174.358974,4222.564102,4463.589743,4195.897435,4643.076923,3974.358975,4012.307692
217,4371.794871,4519.487179,4509.230769,4275.384615,4503.589743,4194.871794,4438.974358,4175.384615,4221.538461,4470.769230,4204.102564,4648.205128,3976.923077,4012.820512
218,4371.282051,4514.358974,4506.666666,4270.256410,4497.435897,4189.743589,4434.871794,4170.256410,4218.461538,4477.435897,4197.948717,4640.512820,3974.871795,4009.230769
219,4368.717948,4511.794871,4504.102564,4272.307692,4493.333333,4184.615384,4433.846153,4175.384615,4223.076923,4470.256410,4191.794871,4637.948717,3971.794872,4010.769230
220,4372.307692,4516.923076,4508.205128,4276.410256,4508.717948,4189.743589,4439.487179,4183.589743,4229.230769,4472.307692,4200.000000,4644.102564,3977.435898,4016.923076
221,4374.358974,4520.512820,4511.282051,4275.897435,4509.743589,4197.948717,4444.102564,4184.102564,4235.384615,4485.128205,4205.641025,4647.692307,3983.589744,4014.358974
222,4369.743589,4514.358974,4508.205128,4275.384615,4493.333333,4200.000000,4443.589743,4187.179487,4245.128205,4492.307692,4203.076923,4646.153846,3987.179488,4006.153846
223,4368.205128,4512.307692,4506.153846,4276.923076,4491.282051,4196.410256,4443.076923,4189.743589,4245.641025,4493.846153,4203.589743,4643.076923,3992.307693,4010.769230
224,4369.743589,4513.333333,4507.692307,4274.358974,4490.256410,4189.743589,4435.384615,4183.589743,4233.846153,4488.205128,4203.076923,4640.512820,3989.230770,4014.871794
225,4370.256410,4513.846153,4508.205128,4272.307692,4483.589743,4185.641025,4428.717948,4181.538461,4229.743589,4480.000000,4202.564102,4643.589743,3978.461539,4009.230769
226,4375.897435,4516.923076,4510.769230,4274.358974,4491.282051,4191.282051,4437.948717,4187.692307,4234.358974,4479.487179,4208.717948,4649.230769,3980.512821,4011.282051
227,4380.000000,4517.435897,4513.846153,4276.923076,4505.641025,4196.410256,4444.102564,4187.179487,4233.846153,4489.230769,4207.692307,4649.743589,3992.307693,4019.487179
228,4375.384615,4514.358974,4510.769230,4275.897435,4511.794871,4196.923076,4443.076923,4188.717948,4237.948717,4497.435897,4205.128205,4649.230769,3991.794872,4018.974358
229,4371.282051,4515.384615,4505.641025,4271.794871,4505.128205,4197.948717,4445.641025,4196.923076,4245.641025,4488.205128,4210.769230,4647.179487,3985.641026,4014.358974
230,4367.179487,4511.794871,4504.615384,4265.128205,4489.743589,4194.358974,4446.666666,4195.384615,4245.641025,4479.487179,4213.846153,4645.128205,3987.692308,4011.282051
231,4359.487179,4497.948717,4504.102564,4261.538461,4476.923076,4183.076923,4441.538461,4192.307692,4242.564102,4497.435897,4208.205128,4644.615384,3989.230770,4006.153846
232,4360.000000,4497.435897,4503.589743,4260.000000,4484.102564,4181.538461,4440.512820,4195.897435,4244.102564,4506.153846,4204.615384,4641.538461,3983.076924,4005.641025
233,4366.666666,4507.692307,4507.179487,4264.615384,4497.948717,4190.256410,4443.589743,4200.000000,4240.000000,4489.230769,4204.615384,4642.051282,3984.102565,4012.820512
234,4365.641025,4505.128205,4508.205128,4271.282051,4489.230769,4188.205128,4442.051282,4193.333333,4228.717948,4477.435897,4198.974358,4639.487179,3984.615385,4013.333333
235,4363.076923,4503.589743,4502.564102,4269.743589,4474.358974,4183.076923,4438.461538,4183.589743,4222.564102,4476.923076,4195.897435,4633.333333,3974.358975,4006.153846
236,4373.333333,4514.358974,4503.076923,4268.205128,4491.282051,4193.846153,4441.538461,4189.743589,4229.743589,4481.538461,4206.153846,4640.512820,3981.025642,4014.358974
237,4383.076923,4523.076923,4513.846153,4274.358974,4514.358974,4202.051282,4447.692307,4200.512820,4242.564102,4493.333333,4219.487179,4655.384615,4002.051282,4032.307692
238,4381.025641,4523.589743,4517.435897,4279.487179,4502.564102,4194.358974,4442.051282,4199.487179,4250.769230,4506.153846,4220.512820,4654.871794,4003.589743,4033.333333
239,4378.461538,4520.512820,4510.256410,4278.974358,4484.102564,4188.717948,4433.846153,4195.897435,4248.205128,4509.230769,4214.358974,4646.666666,3994.358975,4025.128205
240,4378.461538,4514.358974,4507.692307,4273.846153,4488.717948,4189.743589,4437.435897,4195.897435,4242.564102,4495.897435,4209.743589,4646.153846,3994.871795,4024.615384
241,4374.358974,4511.282051,4509.230769,4268.717948,4494.358974,4189.230769,4442.564102,4194.871794,4237.948717,4478.974358,4204.102564,4646.153846,3993.333334,4025.641025
242,4374.358974,4512.820512,4509.743589,4271.794871,4489.230769,4189.230769,4440.512820,4194.871794,4234.358974,4482.051282,4202.051282,4645.641025,3990.256411,4025.641025
243,4383.076923,4516.923076,4515.384615,4279.487179,4493.333333,4192.307692,4441.538461,4195.897435,4234.871794,4495.384615,4210.256410,4649.230769,3991.794872,4032.307692
244,4388.205128,4523.589743,4524.615384,4278.974358,4501.538461,4193.846153,4443.589743,4193.333333,4233.333333,4493.333333,4216.923076,4655.384615,3988.717949,4033.333333
245,4383.589743,4523.076923,4521.538461,4275.384615,4489.743589,4190.256410,4436.923076,4186.666666,4224.615384,4477.948717,4205.641025,4652.307692,3983.076924,4023.589743
246,4378.461538,4517.435897,4510.256410,4275.384615,4476.923076,4183.076923,4434.358974,4177.948717,4214.871794,4463.076923,4191.794871,4637.948717,3982.051283,4018.461538
247,4379.487179,4517.435897,4508.717948,4275.897435,4487.179487,4183.589743,4440.000000,4180.000000,4213.846153,4464.615384,4194.871794,4635.897435,3982.564103,4022.564102
248,4385.641025,4517.435897,4520.512820,4273.333333,4496.923076,4189.230769,4443.589743,4188.717948,4220.512820,4485.128205,4203.589743,4646.666666,3982.564103,4025.641025
249,4384.102564,4512.307692,4522.564102,4269.743589,4492.307692,4187.179487,4442.051282,4186.153846,4226.666666,4496.923076,4203.589743,4648.205128,3982.051283,4022.564102
250,4376.410256,4508.205128,4510.256410,4265.641025,4488.205128,4186.153846,4437.435897,4183.589743,4225.641025,4487.692307,4202.051282,4638.461538,3982.051283,4018.461538
251,4374.871794,4508.205128,4503.589743,4261.538461,4488.205128,4185.641025,4434.358974,4185.641025,4222.051282,4473.333333,4202.051282,4634.871794,3978.974359,4016.923076
252,4377.435897,4509.743589,4509.743589,4263.589743,4490.256410,4184.102564,4440.000000,4183.589743,4223.589743,4467.692307,4198.974358,4636.410256,3970.769231,4020.000000
253,4378.974358,4510.256410,4515.384615,4267.692307,4490.256410,4186.666666,4443.589743,4184.615384,4223.589743,4472.307692,4194.358974,4637.948717,3965.641026,4023.076923
254,4377.948717,4510.256410,4512.307692,4268.717948,4481.538461,4186.666666,4436.410256,4186.666666,4219.487179,4474.358974,4188.205128,4637.948717,3967.692308,4018.461538
255,4378.974358,4513.333333,4511.282051,4273.333333,4473.333333,4182.564102,4434.358974,4182.564102,4216.410256,4472.307692,4187.179487,4634.358974,3973.333334,4016.923076
