,AF3,F7,F3,FC5,T7,P7,O1,O2,P8,T8,FC6,F4,F8,AF4
0,4340.000000,4502.051282,4551.794871,4240.000000,4486.153846,4170.256410,4423.076923,4187.179487,4204.615384,4475.897435,3689.743590,4634.871794,3959.487180,4010.769230
1,4337.948717,4506.153846,4542.564102,4233.846153,4475.384615,4168.717948,4423.076923,4185.128205,4205.641025,4465.128205,3691.282052,4631.794871,3958.461539,4012.307692
2,4340.000000,4518.461538,4542.051282,4232.820512,4482.564102,4168.717948,4414.358974,4185.128205,4203.589743,4464.102564,3692.307693,4629.230769,3962.564103,4013.333333
3,4347.179487,4524.102564,4548.205128,4238.461538,4503.589743,4170.256410,4409.743589,4179.487179,4203.589743,4472.820512,3697.948718,4632.820512,3967.179488,4015.897435
4,4355.384615,4530.256410,4548.205128,4243.076923,4500.000000,4170.256410,4410.769230,4170.256410,4204.615384,4475.384615,3708.717949,4638.974358,3975.897436,4024.102564
5,4361.025641,4536.410256,4549.743589,4245.641025,4487.692307,4167.692307,4414.358974,4176.923076,4209.743589,4480.000000,3717.435898,4642.564102,3992.307693,4030.769230
6,4360.000000,4531.794871,4552.820512,4242.051282,4491.794871,4167.692307,4418.461538,4187.692307,4215.384615,4485.128205,3724.102565,4645.641025,3995.897436,4030.769230
7,4350.769230,4520.512820,4547.692307,4235.384615,4487.692307,4167.692307,4416.923076,4184.615384,4211.794871,4481.538461,3720.000000,4644.102564,3982.564103,4023.589743
8,4350.769230,4518.974358,4548.717948,4236.923076,4482.564102,4168.205128,4418.974358,4183.589743,4210.256410,4478.974358,3715.897436,4642.564102,3978.974359,4021.025641
9,4361.538461,4526.666666,4557.948717,4243.589743,4497.948717,4173.333333,4429.743589,4190.256410,4222.051282,4486.153846,3727.692308,4645.641025,3983.589744,4026.153846
10,4362.051282,4525.641025,4557.948717,4241.538461,4508.205128,4176.923076,4428.205128,4189.230769,4227.179487,4488.717948,3731.794872,4647.692307,3977.435898,4024.615384
11,4359.487179,4523.076923,4554.358974,4235.384615,4504.102564,4173.846153,4416.923076,4182.564102,4222.564102,4483.076923,3721.538462,4644.615384,3973.333334,4022.564102
12,4361.538461,4527.692307,4551.282051,4230.769230,4497.948717,4172.307692,4413.846153,4181.025641,4218.974358,4478.974358,3720.000000,4641.025641,3968.205129,4023.589743
13,4355.384615,4520.512820,4544.615384,4226.666666,4482.564102,4167.692307,4412.820512,4175.897435,4211.282051,4471.794871,3718.974359,4634.871794,3954.871795,4014.358974
14,4343.589743,4507.692307,4536.923076,4223.589743,4473.333333,4160.000000,4410.256410,4166.666666,4201.025641,4462.051282,3704.615385,4622.564102,3954.871795,4003.589743
15,4343.589743,4514.358974,4536.410256,4217.435897,4487.692307,4164.615384,4413.333333,4171.794871,4197.948717,4456.923076,3700.512821,4618.974358,3962.564103,4005.128205
16,4350.256410,4521.025641,4540.512820,4214.358974,4496.923076,4171.794871,4418.461538,4179.487179,4198.974358,4457.435897,3709.743590,4623.589743,3952.820513,4007.179487
17,4348.717948,4508.205128,4541.025641,4217.948717,4494.358974,4171.282051,4420.000000,4181.025641,4204.102564,4460.000000,3713.333334,4628.205128,3941.025642,4002.564102
18,4348.205128,4504.102564,4542.051282,4221.538461,4499.487179,4170.769230,4420.000000,4183.076923,4209.743589,4461.538461,3714.871795,4629.230769,3946.666667,4001.538461
19,4351.794871,4508.205128,4538.974358,4219.487179,4492.820512,4163.076923,4415.897435,4177.948717,4204.615384,4459.487179,3716.410257,4622.564102,3950.769231,4001.538461
20,4351.282051,4507.692307,4535.384615,4214.871794,4476.923076,4153.333333,4410.769230,4169.743589,4198.974358,4458.461538,3711.794872,4615.897435,3948.205129,4001.538461
21,4354.871794,4517.435897,4538.974358,4216.923076,4486.666666,4162.051282,4415.897435,4178.974358,4211.794871,4464.615384,3718.974359,4622.564102,3953.333334,4007.692307
22,4364.102564,4527.179487,4543.076923,4220.000000,4508.205128,4173.846153,4421.538461,4189.743589,4221.538461,4467.692307,3737.435898,4632.307692,3962.051283,4016.410256
23,4364.102564,4520.000000,4541.538461,4216.923076,4503.589743,4168.717948,4416.923076,4183.589743,4213.846153,4468.717948,3737.948718,4627.179487,3959.487180,4016.923076
24,4358.461538,4516.923076,4539.487179,4214.358974,4491.794871,4164.102564,4412.820512,4183.589743,4212.820512,4475.897435,3728.205129,4622.564102,3960.000000,4010.769230
25,4362.051282,4522.564102,4542.051282,4215.897435,4494.871794,4168.717948,4413.846153,4190.769230,4222.051282,4477.948717,3733.846154,4630.769230,3970.769231,4011.794871
26,4368.205128,4517.435897,4543.589743,4216.923076,4492.307692,4164.615384,4412.307692,4187.692307,4221.025641,4470.769230,3745.128206,4633.846153,3970.256411,4016.923076
27,4372.820512,4513.846153,4543.589743,4216.923076,4482.564102,4155.897435,4410.769230,4185.641025,4220.000000,4477.435897,3749.230770,4631.794871,3968.205129,4020.000000
28,4380.000000,4518.974358,4547.179487,4216.410256,4486.153846,4160.000000,4412.307692,4189.230769,4224.615384,4490.256410,3752.307693,4634.871794,3972.307693,4022.051282
29,4384.102564,4524.615384,4549.230769,4216.410256,4498.461538,4169.230769,4414.871794,4190.256410,4225.128205,4488.717948,3757.948718,4638.974358,3978.461539,4027.179487
30,4378.461538,4529.743589,4548.205128,4224.102564,4503.076923,4170.256410,4418.974358,4188.717948,4222.564102,4481.025641,3762.051283,4636.410256,3984.615385,4028.205128
31,4368.717948,4520.000000,4542.051282,4227.179487,4497.948717,4163.589743,4416.923076,4182.564102,4218.461538,4469.230769,3754.358975,4627.692307,3975.897436,4016.410256
32,4368.205128,4508.205128,4540.512820,4221.538461,4494.358974,4167.692307,4415.384615,4183.589743,4216.923076,4466.153846,3749.743590,4627.692307,3958.974359,4010.256410
33,4377.948717,4522.564102,4549.230769,4223.589743,4503.076923,4178.974358,4424.615384,4194.871794,4225.641025,4478.974358,3762.564103,4636.410256,3962.051283,4020.000000
34,4386.666666,4538.974358,4552.820512,4226.153846,4513.846153,4180.000000,4432.307692,4197.435897,4232.307692,4487.179487,3771.794872,4636.923076,3979.487180,4028.205128
35,4384.102564,4531.794871,4547.692307,4217.948717,4498.974358,4168.717948,4423.589743,4185.641025,4223.589743,4479.487179,3765.128206,4630.769230,3977.948718,4022.051282
36,4378.974358,4518.461538,4547.692307,4211.794871,4480.000000,4163.076923,4411.794871,4178.974358,4211.794871,4472.307692,3760.512821,4629.230769,3969.230770,4014.871794
37,4380.512820,4507.692307,4555.384615,4215.897435,4491.794871,4168.205128,4416.410256,4186.153846,4217.435897,4478.461538,3766.153847,4634.358974,3975.384616,4021.538461
38,4383.076923,4506.666666,4554.871794,4216.923076,4504.102564,4170.769230,4426.153846,4195.897435,4227.692307,4484.615384,3771.282052,4636.410256,3978.461539,4027.692307
39,4384.102564,4518.461538,4546.666666,4210.769230,4492.307692,4169.230769,4427.692307,4195.384615,4226.666666,4478.974358,3770.769231,4635.384615,3971.794872,4022.564102
40,4383.076923,4523.589743,4544.615384,4209.230769,4487.692307,4167.179487,4425.128205,4191.282051,4222.051282,4474.871794,3774.871795,4632.307692,3970.256411,4017.948717
41,4382.564102,4516.923076,4547.692307,4209.743589,4496.410256,4166.666666,4428.205128,4196.410256,4228.205128,4482.051282,3781.538462,4630.769230,3975.897436,4023.076923
42,4384.102564,4513.846153,4547.179487,4206.666666,4498.461538,4170.769230,4431.282051,4204.615384,4237.435897,4487.179487,3779.487180,4634.358974,3979.487180,4026.666666
43,4384.102564,4508.205128,4544.102564,4206.666666,4498.974358,4175.384615,4433.846153,4202.564102,4235.384615,4484.615384,3775.897436,4633.333333,3980.000000,4024.615384
44,4378.974358,4503.076923,4540.000000,4208.717948,4499.487179,4173.846153,4433.333333,4193.846153,4225.128205,4475.897435,3773.846154,4623.076923,3971.794872,4019.487179
45,4372.307692,4507.179487,4532.307692,4200.512820,4490.769230,4167.692307,4425.641025,4185.641025,4217.435897,4466.153846,3768.205129,4613.333333,3953.333334,4008.717948
46,4372.307692,4508.717948,4530.256410,4194.871794,4485.641025,4165.128205,4418.974358,4181.025641,4213.846153,4465.128205,3767.692308,4617.435897,3950.256411,4003.076923
47,4376.410256,4505.641025,4533.333333,4199.487179,4495.897435,4166.153846,4417.948717,4176.410256,4209.743589,4466.153846,3773.846154,4625.128205,3965.641026,4010.256410
48,4384.615384,4513.333333,4538.461538,4198.974358,4505.641025,4167.692307,4421.538461,4176.410256,4209.743589,4465.128205,3776.923077,4628.717948,3977.948718,4021.538461
49,4391.794871,4522.564102,4546.153846,4202.564102,4507.692307,4169.230769,4427.692307,4185.128205,4217.435897,4471.282051,3778.461539,4631.794871,3981.538462,4027.692307
50,4393.333333,4517.948717,4544.615384,4214.871794,4501.538461,4168.717948,4428.205128,4187.692307,4220.000000,4477.948717,3785.128206,4632.820512,3980.512821,4028.205128
51,4390.769230,4517.435897,4540.512820,4216.923076,4489.743589,4166.666666,4425.128205,4182.564102,4215.384615,4473.333333,3789.230770,4630.769230,3973.333334,4025.128205
52,4390.769230,4523.589743,4543.589743,4215.384615,4490.256410,4168.717948,4425.128205,4183.076923,4214.871794,4468.717948,3790.256411,4632.307692,3966.153847,4023.589743
53,4390.769230,4517.435897,4543.076923,4220.512820,4497.948717,4169.743589,4423.589743,4188.205128,4220.512820,4466.666666,3790.769231,4632.820512,3967.179488,4023.076923
54,4389.743589,4513.846153,4540.512820,4226.153846,4497.435897,4165.641025,4423.589743,4191.794871,4224.615384,4471.282051,3788.717949,4631.282051,3981.538462,4024.615384
55,4393.333333,4524.615384,4548.205128,4236.410256,4502.051282,4174.358974,4430.256410,4199.487179,4229.230769,4485.128205,3791.282052,4632.820512,3995.897436,4032.820512
56,4388.205128,4522.564102,4552.820512,4248.717948,4508.717948,4183.589743,4431.282051,4200.000000,4229.743589,4483.589743,3793.846154,4634.871794,3987.692308,4031.794871
57,4374.358974,4508.205128,4544.615384,4252.307692,4498.974358,4173.333333,4427.692307,4190.256410,4224.615384,4465.128205,3788.205129,4631.282051,3975.384616,4021.025641
58,4367.692307,4509.230769,4537.948717,4254.358974,4489.743589,4171.282051,4429.743589,4188.717948,4222.051282,4458.461538,3776.923077,4622.564102,3975.897436,4019.487179
59,4364.102564,4516.923076,4537.435897,4261.538461,4498.974358,4179.487179,4430.256410,4196.923076,4220.000000,4463.589743,3777.948718,4618.461538,3972.820513,4021.538461
60,4361.025641,4521.538461,4535.897435,4268.717948,4508.717948,4177.948717,4430.769230,4200.512820,4218.461538,4469.230769,3790.256411,4621.538461,3971.794872,4020.512820
61,4360.512820,4521.025641,4536.410256,4275.897435,4509.743589,4179.487179,4439.487179,4197.948717,4217.948717,4468.717948,3790.256411,4625.641025,3975.897436,4022.051282
62,4357.948717,4511.282051,4543.589743,4278.461538,4503.076923,4181.538461,4440.000000,4196.923076,4218.461538,4467.692307,3783.589744,4630.256410,3973.333334,4026.153846
63,4354.871794,4510.769230,4546.666666,4276.410256,4488.717948,4176.923076,4432.820512,4197.435897,4218.974358,4472.820512,3792.820513,4633.333333,3973.846154,4028.205128
64,4352.307692,4519.487179,4541.538461,4270.769230,4484.615384,4175.384615,4430.256410,4198.461538,4218.461538,4475.897435,3809.743590,4634.871794,3983.589744,4030.769230
65,4349.230769,4515.897435,4542.051282,4266.153846,4498.974358,4179.487179,4431.282051,4201.538461,4220.000000,4474.358974,3818.974359,4638.461538,3987.179488,4034.358974
66,4349.743589,4508.205128,4550.769230,4270.769230,4506.666666,4179.487179,4434.871794,4200.000000,4222.051282,4482.051282,3818.974359,4646.153846,3987.692308,4037.948717
67,4350.256410,4512.307692,4549.230769,4272.820512,4501.538461,4180.000000,4439.487179,4198.974358,4221.538461,4487.179487,3816.410257,4646.666666,3992.820513,4039.487179
68,4346.153846,4509.743589,4545.641025,4268.205128,4496.923076,4176.923076,4436.923076,4201.025641,4223.076923,4483.076923,3820.000000,4642.051282,3995.897436,4038.974358
69,4343.589743,4500.512820,4548.717948,4263.589743,4485.641025,4167.692307,4429.230769,4200.000000,4225.641025,4485.128205,3829.230770,4641.538461,3995.384616,4038.461538
70,4341.538461,4504.102564,4545.641025,4256.410256,4473.846153,4166.666666,4426.153846,4196.923076,4222.564102,4487.179487,3832.820513,4644.102564,3991.282052,4037.435897
71,4343.076923,4511.794871,4543.589743,4256.410256,4491.282051,4177.948717,4433.333333,4204.615384,4226.153846,4479.487179,3838.974359,4646.666666,3992.307693,4038.461538
72,4351.282051,4518.974358,4549.230769,4268.205128,4509.230769,4184.102564,4442.051282,4215.384615,4235.384615,4484.615384,3844.615385,4648.717948,3998.461539,4042.051282
73,4352.307692,4526.153846,4549.743589,4268.717948,4499.487179,4180.000000,4439.487179,4209.230769,4233.333333,4496.923076,3839.487180,4647.692307,3994.871795,4040.000000
74,4346.666666,4520.000000,4548.717948,4264.102564,4494.358974,4179.487179,4432.307692,4200.000000,4225.128205,4491.794871,3838.461539,4647.179487,3987.692308,4037.435897
75,4346.666666,4507.179487,4549.743589,4270.769230,4502.564102,4179.487179,4432.307692,4201.538461,4222.051282,4482.051282,3838.974359,4645.641025,3988.717949,4037.435897
76,4347.692307,4512.820512,4547.692307,4270.256410,4498.461538,4174.358974,4430.256410,4201.025641,4217.948717,4479.487179,3828.205129,4641.538461,3984.102565,4032.820512
77,4346.153846,4523.076923,4546.666666,4262.564102,4491.794871,4175.897435,4429.230769,4196.923076,4212.307692,4472.307692,3825.641026,4639.487179,3976.410257,4029.230769
78,4345.641025,4518.461538,4549.230769,4266.153846,4495.897435,4178.461538,4433.333333,4198.461538,4209.230769,4465.128205,3833.846154,4638.461538,3976.923077,4027.179487
79,4343.076923,4509.230769,4547.692307,4264.615384,4495.897435,4171.282051,4432.820512,4201.025641,4210.769230,4469.743589,3833.333334,4636.410256,3972.820513,4023.589743
80,4337.948717,4506.666666,4546.153846,4252.820512,4484.615384,4168.717948,4430.256410,4194.871794,4210.769230,4474.871794,3831.282052,4634.871794,3969.743590,4024.102564
81,4340.512820,4505.641025,4549.743589,4254.358974,4478.461538,4171.794871,4428.717948,4191.282051,4207.692307,4470.256410,3833.846154,4635.897435,3974.871795,4026.666666
82,4346.153846,4505.641025,4551.282051,4258.974358,4481.025641,4167.692307,4426.153846,4194.871794,4206.153846,4464.615384,3835.384616,4636.410256,3969.230770,4024.615384
83,4346.666666,4507.692307,4550.256410,4251.794871,4486.153846,4168.205128,4427.692307,4198.974358,4208.205128,4467.692307,3843.589744,4641.025641,3964.102565,4026.153846
84,4349.230769,4514.871794,4551.282051,4250.256410,4495.384615,4175.384615,4433.333333,4202.051282,4212.307692,4473.333333,3851.794872,4645.641025,3974.871795,4029.230769
85,4352.820512,4523.076923,4552.307692,4256.410256,4503.076923,4177.948717,4433.846153,4199.487179,4212.820512,4472.307692,3845.128206,4639.487179,3976.923077,4024.102564
86,4349.230769,4517.948717,4546.153846,4251.794871,4497.435897,4171.282051,4427.692307,4191.794871,4204.615384,4470.256410,3832.820513,4630.256410,3964.102565,4017.948717
87,4344.615384,4511.282051,4538.461538,4243.076923,4487.692307,4165.641025,4424.102564,4186.666666,4195.384615,4468.205128,3836.410257,4628.205128,3957.435898,4014.871794
88,4350.256410,4520.000000,4538.461538,4246.666666,4493.333333,4171.282051,4428.205128,4186.153846,4200.000000,4464.615384,3848.205129,4631.282051,3958.461539,4016.923076
89,4357.948717,4529.230769,4543.076923,4250.769230,4499.487179,4177.435897,4429.743589,4188.205128,4206.666666,4462.564102,3848.205129,4631.794871,3964.102565,4021.538461
90,4360.000000,4530.256410,4545.128205,4246.153846,4494.871794,4173.333333,4427.179487,4192.820512,4204.102564,4466.153846,3842.564103,4630.256410,3972.820513,4023.589743
91,4364.102564,4527.179487,4544.102564,4242.051282,4498.461538,4173.846153,4429.230769,4198.461538,4207.692307,4480.000000,3849.743590,4631.282051,3975.897436,4021.538461
92,4363.076923,4521.025641,4543.589743,4243.589743,4503.076923,4181.538461,4430.256410,4199.487179,4213.846153,4486.153846,3855.897436,4630.256410,3970.769231,4020.512820
93,4360.512820,4518.974358,4543.076923,4248.717948,4502.051282,4179.487179,4429.230769,4201.025641,4217.948717,4482.051282,3853.846154,4630.769230,3969.743590,4021.025641
94,4368.205128,4523.076923,4545.641025,4252.820512,4501.538461,4174.358974,4434.871794,4207.179487,4223.589743,4484.615384,3856.410257,4633.846153,3971.794872,4022.051282
95,4373.846153,4524.102564,4548.717948,4252.307692,4499.487179,4182.051282,4439.487179,4208.717948,4226.666666,4484.615384,3861.538462,4634.871794,3971.794872,4023.589743
96,4370.769230,4525.641025,4547.692307,4250.256410,4504.615384,4188.717948,4440.512820,4210.256410,4227.692307,4484.102564,3864.102565,4632.820512,3976.923077,4024.615384
97,4367.692307,4524.615384,4547.692307,4249.743589,4508.717948,4184.615384,4441.538461,4212.820512,4229.230769,4494.871794,3864.615385,4633.846153,3976.410257,4021.538461
98,4365.641025,4520.000000,4545.128205,4249.230769,4496.410256,4182.564102,4434.358974,4209.230769,4222.564102,4489.743589,3859.487180,4631.282051,3963.076924,4013.846153
99,4365.641025,4522.564102,4538.974358,4249.230769,4493.333333,4184.102564,4427.692307,4200.512820,4216.923076,4472.820512,3856.410257,4628.717948,3965.641026,4013.846153
100,4374.871794,4535.384615,4540.512820,4253.333333,4518.461538,4187.179487,4433.846153,4200.512820,4223.589743,4476.923076,3862.564103,4635.897435,3989.743590,4026.153846
101,4378.461538,4541.025641,4544.102564,4258.974358,4523.076923,4187.692307,4435.897435,4203.589743,4224.102564,4484.615384,3869.743590,4640.000000,3991.282052,4034.358974
102,4373.333333,4537.948717,4544.615384,4261.538461,4501.538461,4183.589743,4426.666666,4197.948717,4216.923076,4479.487179,3870.256411,4635.897435,3970.769231,4030.256410
103,4376.410256,4537.435897,4546.153846,4261.025641,4507.692307,4184.102564,4423.076923,4194.871794,4216.923076,4488.205128,3872.307693,4631.282051,3971.282052,4028.205128
104,4385.641025,4538.974358,4548.717948,4264.615384,4528.205128,4187.692307,4432.307692,4201.538461,4224.102564,4495.384615,3882.564103,4635.897435,3992.307693,4035.897435
105,4388.205128,4541.025641,4550.256410,4267.179487,4517.948717,4187.179487,4440.000000,4208.205128,4229.743589,4488.205128,3890.256411,4644.102564,3997.435898,4040.000000
106,4382.051282,4539.487179,4547.179487,4257.948717,4492.307692,4184.102564,4432.820512,4203.076923,4224.102564,4488.205128,3883.589744,4640.000000,3980.512821,4032.307692
107,4380.000000,4535.897435,4546.666666,4250.256410,4493.846153,4182.564102,4427.179487,4201.538461,4220.512820,4496.923076,3877.435898,4634.358974,3978.974359,4030.256410
108,4392.820512,4537.948717,4554.358974,4253.333333,4518.974358,4185.641025,4438.461538,4213.333333,4232.820512,4504.102564,3889.743590,4644.102564,3995.897436,4040.000000
109,4402.051282,4544.615384,4556.410256,4261.538461,4527.179487,4195.897435,4447.179487,4224.102564,4245.128205,4508.717948,3909.230770,4653.846153,4003.076923,4046.153846
110,4396.410256,4540.000000,4553.333333,4260.512820,4517.435897,4199.487179,4441.538461,4225.128205,4244.102564,4510.769230,3910.256411,4647.179487,4002.564102,4043.589743
111,4390.769230,4527.692307,4552.307692,4253.846153,4509.230769,4189.230769,4436.410256,4223.076923,4241.025641,4508.717948,3902.051283,4640.512820,3999.487180,4041.025641
112,4390.256410,4525.641025,4549.743589,4249.230769,4505.641025,4186.153846,4437.948717,4223.076923,4240.512820,4503.589743,3901.025642,4641.025641,3987.692308,4038.461538
113,4390.256410,4535.384615,4551.282051,4249.230769,4505.128205,4192.307692,4441.538461,4222.564102,4238.461538,4499.487179,3902.051283,4638.974358,3984.615385,4034.871794
114,4392.820512,4540.000000,4555.897435,4252.820512,4511.282051,4194.871794,4441.538461,4220.512820,4238.461538,4500.512820,3898.974359,4637.435897,3994.871795,4036.410256
115,4394.871794,4538.461538,4556.410256,4254.358974,4511.794871,4191.282051,4434.358974,4216.410256,4235.384615,4500.512820,3896.923077,4637.948717,3994.871795,4037.948717
116,4394.358974,4537.948717,4554.871794,4252.820512,4506.666666,4185.641025,4427.179487,4215.384615,4234.358974,4500.000000,3897.948718,4638.974358,3989.230770,4037.435897
117,4393.846153,4538.461538,4553.846153,4247.692307,4513.846153,4188.717948,4427.692307,4216.923076,4236.923076,4505.128205,3900.512821,4637.435897,3987.692308,4038.974358
118,4395.897435,4537.435897,4552.820512,4247.692307,4525.128205,4197.435897,4431.282051,4215.897435,4234.871794,4502.051282,3900.512821,4633.846153,3985.128206,4040.512820
119,4398.461538,4538.974358,4551.794871,4250.769230,4518.974358,4195.897435,4433.846153,4216.923076,4234.871794,4495.384615,3897.435898,4632.820512,3987.692308,4037.948717
120,4403.589743,4541.538461,4552.820512,4249.230769,4506.666666,4190.769230,4430.256410,4221.025641,4240.512820,4499.487179,3901.538462,4633.333333,3995.384616,4037.435897
121,4409.230769,4537.948717,4555.384615,4249.743589,4504.102564,4198.974358,4428.205128,4220.512820,4243.589743,4500.512820,3912.307693,4634.871794,3995.384616,4043.589743
122,4410.769230,4535.897435,4561.538461,4257.948717,4511.282051,4203.076923,4434.358974,4222.051282,4240.512820,4499.487179,3912.820513,4633.333333,3993.846154,4048.205128
123,4413.846153,4548.205128,4565.641025,4262.051282,4524.615384,4197.435897,4441.025641,4226.666666,4240.512820,4502.564102,3906.153847,4630.769230,3996.923077,4048.717948
124,4419.487179,4552.820512,4565.641025,4257.948717,4532.820512,4201.025641,4441.025641,4224.615384,4247.179487,4502.051282,3912.820513,4633.846153,3997.948718,4051.282051
125,4417.435897,4542.051282,4566.153846,4253.333333,4518.461538,4202.051282,4434.871794,4221.025641,4247.692307,4495.384615,3923.076924,4635.384615,3992.820513,4049.743589
126,4408.205128,4534.358974,4559.487179,4250.256410,4501.538461,4190.769230,4429.743589,4221.025641,4240.000000,4494.871794,3914.871795,4631.794871,3990.769231,4043.076923
127,4404.102564,4532.307692,4551.282051,4248.717948,4511.282051,4191.282051,4429.230769,4219.487179,4236.410256,4496.410256,3906.153847,4627.692307,3993.846154,4038.461538
128,4409.743589,4534.871794,4551.282051,4248.717948,4528.717948,4202.564102,4430.256410,4217.435897,4242.051282,4497.948717,3917.435898,4626.666666,3992.307693,4041.025641
129,4414.358974,4546.153846,4548.717948,4246.666666,4518.974358,4196.410256,4429.230769,4219.487179,4247.692307,4500.000000,3923.076924,4621.025641,3990.256411,4044.102564
130,4411.282051,4550.769230,4545.128205,4246.153846,4503.589743,4187.179487,4425.641025,4216.923076,4244.615384,4498.974358,3917.435898,4616.923076,3994.358975,4045.641025
131,4410.769230,4542.564102,4550.769230,4252.820512,4515.384615,4197.435897,4426.666666,4215.384615,4247.692307,4505.128205,3924.102565,4621.538461,4000.512820,4047.692307
132,4417.435897,4540.000000,4554.871794,4254.358974,4531.282051,4203.589743,4435.384615,4223.589743,4251.794871,4513.333333,3930.256411,4621.538461,3999.487180,4046.153846
133,4417.948717,4539.487179,4551.794871,4246.153846,4519.487179,4197.435897,4438.461538,4228.717948,4248.717948,4506.153846,3925.641026,4615.384615,3990.256411,4042.051282
134,4412.820512,4537.435897,4551.794871,4245.128205,4505.128205,4198.461538,4435.384615,4221.538461,4247.692307,4499.487179,3925.128206,4613.846153,3988.717949,4041.538461
135,4415.384615,4537.435897,4553.333333,4247.179487,4514.871794,4202.564102,4437.948717,4217.948717,4248.717948,4499.487179,3926.153847,4617.948717,3996.410257,4043.589743
136,4416.410256,4533.333333,4554.871794,4245.128205,4519.487179,4202.051282,4438.461538,4224.102564,4249.743589,4496.410256,3923.076924,4618.974358,3995.384616,4042.564102
137,4416.923076,4537.435897,4558.974358,4246.153846,4515.384615,4202.564102,4432.307692,4222.564102,4249.743589,4496.410256,3927.692308,4620.000000,3993.333334,4047.692307
138,4420.512820,4547.692307,4557.435897,4245.641025,4515.897435,4196.410256,4427.692307,4212.307692,4246.153846,4503.076923,3936.923077,4621.025641,3998.461539,4053.846153
139,4422.051282,4541.538461,4549.743589,4243.076923,4511.282051,4189.743589,4425.641025,4211.282051,4243.076923,4507.179487,3943.076924,4620.000000,3995.897436,4049.230769
140,4423.589743,4536.923076,4554.358974,4250.256410,4512.820512,4195.897435,4430.256410,4220.512820,4248.205128,4505.641025,3942.564103,4623.076923,3997.948718,4050.256410
141,4427.692307,4550.769230,4563.076923,4257.435897,4532.307692,4206.666666,4440.000000,4224.615384,4252.307692,4508.205128,3937.435898,4626.666666,4009.230769,4058.974358
142,4427.179487,4550.769230,4557.948717,4252.307692,4533.846153,4204.615384,4438.974358,4220.000000,4248.205128,4510.256410,3931.794872,4622.564102,4006.666666,4053.846153
143,4419.487179,4536.410256,4549.230769,4245.641025,4507.692307,4197.435897,4430.769230,4215.384615,4244.102564,4505.128205,3925.641026,4613.333333,3992.307693,4042.051282
144,4416.410256,4537.435897,4544.102564,4243.076923,4499.487179,4197.435897,4430.256410,4219.487179,4247.179487,4502.564102,3923.589744,4609.743589,3993.333334,4042.564102
145,4421.025641,4543.589743,4543.589743,4242.564102,4521.025641,4201.025641,4430.769230,4222.051282,4253.333333,4507.692307,3933.846154,4613.333333,4004.615384,4047.692307
146,4425.641025,4542.564102,4548.205128,4242.051282,4537.948717,4202.564102,4429.743589,4218.974358,4254.358974,4514.358974,3939.487180,4615.897435,4009.230769,4048.717948
147,4424.102564,4541.025641,4549.230769,4242.564102,4525.641025,4199.487179,4429.743589,4217.948717,4250.256410,4510.769230,3931.282052,4615.384615,4003.076923,4047.692307
148,4420.512820,4536.410256,4549.743589,4245.128205,4508.205128,4194.871794,4427.692307,4216.410256,4246.153846,4503.076923,3930.769231,4613.846153,3993.846154,4046.666666
149,4424.615384,4534.871794,4554.871794,4245.128205,4518.461538,4196.923076,4427.692307,4215.897435,4244.102564,4501.538461,3936.410257,4615.897435,3995.897436,4048.717948
150,4427.179487,4541.538461,4554.871794,4244.102564,4528.717948,4201.538461,4431.282051,4222.564102,4244.615384,4503.076923,3936.410257,4616.410256,3997.948718,4049.230769
151,4424.102564,4541.025641,4549.743589,4242.051282,4514.871794,4198.974358,4436.923076,4225.641025,4245.128205,4503.076923,3933.846154,4613.846153,3989.230770,4046.666666
152,4427.179487,4533.333333,4552.820512,4239.487179,4511.794871,4197.948717,4443.589743,4224.615384,4247.179487,4505.641025,3935.897436,4614.871794,3990.769231,4048.717948
153,4430.769230,4537.435897,4553.846153,4240.512820,4524.102564,4202.564102,4446.153846,4229.230769,4253.333333,4508.717948,3933.846154,4616.410256,3999.487180,4049.230769
154,4424.102564,4540.512820,4546.666666,4241.025641,4516.410256,4202.564102,4444.615384,4229.743589,4254.871794,4504.615384,3928.717949,4611.282051,3993.333334,4041.538461
155,4420.000000,4528.717948,4545.128205,4242.051282,4504.102564,4199.487179,4443.589743,4226.153846,4251.794871,4501.025641,3933.333334,4610.769230,3985.641026,4038.974358
156,4423.076923,4525.128205,4550.256410,4251.282051,4508.717948,4199.487179,4441.538461,4228.205128,4250.769230,4500.512820,3941.025642,4616.410256,3994.871795,4043.076923
157,4424.102564,4536.923076,4551.794871,4266.153846,4515.384615,4200.512820,4438.974358,4231.282051,4249.743589,4502.564102,3943.589744,4616.923076,4006.666666,4046.666666
158,4426.666666,4542.564102,4558.461538,4280.512820,4522.051282,4204.615384,4442.051282,4235.897435,4256.410256,4513.846153,3949.743590,4620.000000,4011.282051,4053.846153
159,4427.179487,4537.435897,4563.589743,4288.717948,4527.692307,4208.205128,4445.641025,4239.487179,4264.102564,4516.923076,3955.384616,4625.128205,4015.384615,4059.487179
160,4416.410256,4533.846153,4552.307692,4293.333333,4513.333333,4203.589743,4444.102564,4235.384615,4255.897435,4503.076923,3947.179488,4620.000000,4014.358974,4053.333333
161,4405.128205,4527.692307,4544.615384,4300.512820,4499.487179,4197.948717,4442.051282,4228.717948,4244.615384,4499.487179,3937.948718,4612.820512,4008.717948,4048.717948
162,4402.564102,4524.102564,4550.256410,4306.666666,4514.871794,4200.000000,4444.102564,4227.179487,4247.179487,4508.717948,3942.051283,4615.384615,4011.282051,4053.333333
163,4403.589743,4533.333333,4552.820512,4305.128205,4529.230769,4205.128205,4445.641025,4225.128205,4249.743589,4509.230769,3948.717949,4620.000000,4013.333333,4055.897435
164,4395.897435,4541.025641,4547.692307,4307.179487,4513.333333,4200.512820,4441.025641,4222.051282,4242.051282,4500.000000,3951.794872,4619.487179,4003.076923,4051.794871
165,4384.102564,4540.512820,4542.564102,4313.333333,4495.897435,4191.794871,4436.410256,4216.923076,4237.948717,4493.846153,3948.205129,4617.435897,3996.410257,4048.205128
166,4375.897435,4534.358974,4537.435897,4309.230769,4498.974358,4192.307692,4438.974358,4212.307692,4237.948717,4489.230769,3937.435898,4612.820512,4000.512820,4043.076923
167,4377.435897,4534.871794,4538.974358,4303.589743,4512.820512,4202.051282,4444.102564,4215.897435,4238.461538,4491.794871,3936.923077,4613.846153,4007.692307,4040.512820
168,4380.512820,4543.076923,4545.128205,4307.692307,4515.897435,4205.128205,4445.641025,4225.641025,4242.051282,4503.076923,3951.794872,4619.487179,4008.205128,4046.153846
169,4373.333333,4535.384615,4544.102564,4310.769230,4499.487179,4195.384615,4440.000000,4225.128205,4243.589743,4500.000000,3955.897436,4616.923076,3999.487180,4046.153846
170,4371.282051,4525.128205,4544.615384,4312.307692,4496.410256,4192.307692,4440.512820,4223.589743,4246.153846,4493.333333,3955.384616,4617.435897,3998.974359,4045.128205
171,4380.512820,4535.384615,4552.307692,4309.743589,4514.358974,4203.076923,4448.717948,4236.923076,4255.897435,4504.615384,3968.205129,4628.717948,4008.205128,4054.871794
172,4378.461538,4540.000000,4550.769230,4300.000000,4513.846153,4202.051282,4449.230769,4242.051282,4260.000000,4514.871794,3967.692308,4630.256410,4010.256410,4053.333333
173,4366.153846,4527.692307,4541.025641,4292.820512,4497.435897,4192.307692,4440.512820,4229.743589,4248.717948,4508.205128,3949.230770,4618.974358,4004.615384,4038.461538
174,4366.153846,4530.769230,4538.461538,4295.384615,4499.487179,4191.794871,4438.974358,4224.102564,4242.051282,4497.948717,3950.769231,4618.461538,4005.128205,4040.512820
175,4372.820512,4539.487179,4542.564102,4299.487179,4508.717948,4193.333333,4441.025641,4228.205128,4249.743589,4496.923076,3965.641026,4624.615384,4006.153846,4050.256410
176,4371.794871,4536.923076,4546.153846,4299.487179,4508.717948,4192.820512,4442.564102,4230.256410,4249.230769,4500.512820,3968.717949,4626.666666,4003.076923,4048.717948
177,4370.256410,4534.358974,4546.666666,4302.051282,4505.128205,4193.846153,4442.564102,4229.230769,4247.179487,4506.153846,3968.205129,4626.153846,4002.564102,4048.205128
178,4371.282051,4530.769230,4544.615384,4302.051282,4497.435897,4189.230769,4435.897435,4226.666666,4249.230769,4508.205128,3965.641026,4623.076923,4005.128205,4050.256410
179,4370.769230,4525.128205,4544.102564,4295.897435,4495.384615,4184.102564,4432.820512,4223.589743,4246.153846,4504.102564,3965.128206,4626.153846,4007.179487,4048.205128
180,4371.282051,4531.282051,4546.666666,4289.743589,4509.230769,4194.358974,4442.564102,4227.692307,4247.692307,4501.538461,3974.358975,4632.820512,4004.615384,4048.205128
181,4372.307692,4541.025641,4547.692307,4289.230769,4512.820512,4202.564102,4444.615384,4229.230769,4250.769230,4498.461538,3977.435898,4631.282051,4003.589743,4049.230769
182,4369.743589,4533.333333,4544.615384,4294.871794,4494.871794,4190.256410,4432.307692,4217.435897,4241.538461,4494.871794,3967.692308,4621.538461,4004.615384,4045.128205
183,4368.205128,4523.076923,4543.076923,4297.435897,4486.666666,4183.589743,4426.666666,4208.717948,4229.230769,4491.794871,3963.076924,4616.410256,3995.897436,4040.512820
184,4373.333333,4530.256410,4547.692307,4295.384615,4502.051282,4191.794871,4437.435897,4211.794871,4228.205128,4488.205128,3962.564103,4621.538461,3984.102565,4038.974358
185,4376.923076,4540.000000,4553.846153,4293.333333,4513.846153,4193.846153,4445.641025,4216.410256,4230.769230,4483.589743,3958.974359,4628.205128,3985.128206,4037.948717
186,4375.384615,4534.871794,4554.358974,4295.384615,4507.179487,4191.794871,4445.128205,4220.512820,4235.897435,4483.076923,3961.025642,4628.205128,3991.282052,4039.487179
187,4381.538461,4535.384615,4557.435897,4298.461538,4505.641025,4196.410256,4442.564102,4229.230769,4244.102564,4490.769230,3974.358975,4632.307692,3991.794872,4048.717948
188,4389.230769,4541.025641,4558.974358,4293.333333,4510.769230,4193.333333,4440.512820,4229.743589,4247.692307,4497.948717,3983.589744,4638.461538,3990.769231,4051.794871
189,4380.512820,4526.666666,4551.282051,4283.589743,4505.128205,4187.692307,4438.461538,4218.461538,4244.615384,4494.358974,3970.256411,4624.615384,3985.641026,4038.974358
190,4372.820512,4516.410256,4545.128205,4282.564102,4503.589743,4198.461538,4443.076923,4217.948717,4240.000000,4491.282051,3958.974359,4612.307692,3980.000000,4034.358974
191,4378.974358,4530.769230,4545.641025,4281.538461,4507.692307,4206.153846,4444.102564,4220.512820,4242.564102,4500.000000,3968.717949,4620.512820,3978.974359,4041.025641
192,4379.487179,4533.846153,4549.230769,4272.820512,4506.153846,4195.897435,4438.461538,4215.384615,4242.564102,4502.051282,3975.384616,4625.641025,3977.948718,4037.948717
193,4376.410256,4522.564102,4550.256410,4272.820512,4503.589743,4188.205128,4438.461538,4218.461538,4238.974358,4490.769230,3973.846154,4625.128205,3975.897436,4032.820512
194,4383.589743,4529.230769,4553.846153,4286.153846,4504.102564,4193.846153,4442.564102,4229.743589,4246.153846,4493.333333,3975.897436,4630.769230,3977.435898,4036.410256
195,4394.358974,4541.025641,4560.000000,4287.692307,4500.512820,4194.358974,4441.025641,4234.358974,4253.846153,4507.179487,3979.487180,4634.358974,3986.666667,4044.615384
196,4395.384615,4538.974358,4565.128205,4281.025641,4506.666666,4194.871794,4446.153846,4239.487179,4255.897435,4510.256410,3982.564103,4634.358974,3993.846154,4049.743589
197,4395.897435,4541.538461,4567.692307,4280.512820,4518.461538,4205.128205,4458.974358,4245.641025,4259.487179,4508.205128,3992.820513,4641.025641,3993.333334,4051.794871
198,4400.000000,4545.641025,4565.128205,4284.102564,4511.794871,4209.743589,4461.538461,4240.000000,4256.923076,4507.692307,3996.923077,4643.076923,3990.769231,4053.846153
199,4402.051282,4541.538461,4564.102564,4286.666666,4508.205128,4205.128205,4457.435897,4231.282051,4250.256410,4505.641025,3988.717949,4640.000000,3993.333334,4056.923076
200,4398.974358,4532.307692,4564.102564,4288.205128,4517.948717,4205.641025,4457.435897,4230.769230,4252.820512,4501.025641,3986.666667,4643.076923,3994.358975,4055.384615
201,4396.923076,4528.717948,4562.051282,4289.230769,4514.871794,4207.692307,4452.307692,4232.307692,4252.820512,4500.000000,3991.794872,4643.589743,3990.769231,4051.282051
202,4398.461538,4535.384615,4562.051282,4287.179487,4504.615384,4198.461538,4444.102564,4231.282051,4247.179487,4501.025641,3990.256411,4640.512820,3987.692308,4049.230769
203,4396.410256,4540.000000,4557.435897,4284.102564,4502.564102,4188.717948,4436.410256,4223.589743,4249.230769,4493.846153,3978.461539,4634.358974,3983.076924,4043.589743
204,4391.282051,4532.820512,4549.230769,4281.538461,4503.076923,4188.205128,4431.282051,4216.923076,4247.692307,4485.128205,3970.256411,4627.692307,3971.282052,4036.923076
205,4392.820512,4525.641025,4547.179487,4281.025641,4502.564102,4197.948717,4442.051282,4226.153846,4243.589743,4491.794871,3977.435898,4625.641025,3966.666667,4036.923076
206,4391.282051,4524.102564,4548.205128,4281.538461,4512.820512,4211.282051,4460.000000,4236.923076,4253.333333,4504.102564,3989.230770,4625.128205,3975.897436,4038.974358
207,4386.153846,4526.153846,4543.589743,4277.948717,4516.410256,4212.820512,4462.051282,4232.820512,4257.948717,4502.051282,3989.230770,4621.538461,3980.512821,4035.384615
208,4391.282051,4535.897435,4543.076923,4278.974358,4511.282051,4206.153846,4459.487179,4230.769230,4250.769230,4504.615384,3984.102565,4623.589743,3983.076924,4035.897435
209,4404.102564,4543.589743,4548.717948,4284.102564,4512.820512,4200.512820,4458.461538,4235.384615,4250.769230,4509.230769,3988.717949,4631.794871,3989.743590,4045.641025
210,4404.615384,4537.435897,4547.692307,4283.076923,4512.307692,4201.538461,4448.717948,4231.794871,4253.333333,4497.948717,3993.333334,4631.794871,3985.128206,4049.230769
211,4400.000000,4534.871794,4544.615384,4281.538461,4515.384615,4204.102564,4442.051282,4228.205128,4249.743589,4497.435897,3998.974359,4630.256410,3980.000000,4049.230769
212,4401.025641,4534.871794,4547.692307,4280.512820,4514.871794,4199.487179,4444.102564,4229.230769,4250.256410,4507.692307,4004.102564,4632.307692,3988.205129,4049.230769
213,4400.512820,4528.205128,4548.205128,4278.974358,4497.435897,4197.948717,4442.051282,4223.589743,4253.333333,4500.512820,3996.923077,4631.282051,3991.282052,4043.589743
214,4401.538461,4533.333333,4546.666666,4278.974358,4498.974358,4204.102564,4440.000000,4220.000000,4255.384615,4498.461538,3993.846154,4631.282051,3989.230770,4045.128205
215,4410.256410,4549.743589,4556.923076,4284.102564,4530.769230,4213.846153,4449.743589,4231.282051,4262.051282,4518.461538,4003.589743,4638.974358,3994.871795,4056.410256
216,4418.974358,4550.769230,4564.102564,4286.153846,4542.564102,4221.025641,4461.025641,4242.564102,4269.743589,4523.076923,4014.871794,4646.153846,3999.487180,4063.076923
217,4412.307692,4534.871794,4555.897435,4281.025641,4522.051282,4217.435897,4461.025641,4239.487179,4265.128205,4505.641025,4016.410256,4643.076923,3996.410257,4057.948717
218,4396.923076,4524.102564,4548.205128,4271.282051,4507.692307,4205.128205,4456.923076,4233.846153,4254.871794,4497.435897,4007.179487,4633.333333,3987.179488,4045.641025
219,4394.358974,4522.051282,4551.794871,4262.564102,4507.179487,4202.051282,4455.897435,4232.820512,4252.820512,4504.615384,3998.461539,4629.230769,3978.974359,4039.487179
220,4406.666666,4526.153846,4556.923076,4263.076923,4515.384615,4212.307692,4458.974358,4232.307692,4258.974358,4512.307692,4001.025641,4636.410256,3985.641026,4046.153846
221,4415.897435,4537.948717,4556.410256,4274.358974,4529.743589,4220.000000,4459.487179,4233.846153,4264.102564,4511.794871,4010.256410,4642.564102,3996.410257,4054.358974
222,4411.282051,4537.435897,4553.333333,4282.564102,4525.128205,4212.820512,4451.794871,4232.307692,4259.487179,4505.128205,4009.230769,4635.384615,3991.282052,4051.794871
223,4410.256410,4524.102564,4549.230769,4276.410256,4510.256410,4201.025641,4440.512820,4225.128205,4259.487179,4501.538461,4005.128205,4629.743589,3984.102565,4047.692307
224,4414.871794,4525.641025,4547.692307,4268.205128,4516.923076,4203.076923,4440.512820,4227.692307,4266.666666,4509.743589,4009.230769,4634.358974,3990.256411,4053.333333
225,4414.358974,4535.384615,4550.256410,4265.128205,4523.589743,4215.384615,4451.794871,4237.435897,4265.641025,4515.897435,4009.743589,4634.358974,3994.358975,4053.846153
226,4413.846153,4532.307692,4548.205128,4264.102564,4515.897435,4217.948717,4459.487179,4236.923076,4262.564102,4502.051282,4008.717948,4627.692307,3993.333334,4049.230769
227,4416.410256,4529.230769,4546.153846,4268.205128,4523.076923,4215.384615,4458.974358,4236.410256,4266.666666,4490.769230,4016.410256,4629.743589,3994.871795,4050.769230
228,4412.820512,4531.282051,4544.102564,4269.230769,4531.794871,4216.410256,4457.948717,4239.487179,4265.128205,4497.435897,4018.974358,4630.256410,3993.846154,4050.769230
229,4408.717948,4531.794871,4538.974358,4262.051282,4514.358974,4211.794871,4458.974358,4234.358974,4258.461538,4504.102564,4008.205128,4623.076923,3988.717949,4043.589743
230,4412.307692,4530.256410,4540.512820,4262.564102,4501.538461,4203.076923,4456.923076,4228.205128,4257.948717,4498.461538,4004.102564,4623.589743,3982.564103,4042.051282
231,4412.307692,4525.128205,4545.641025,4269.743589,4514.358974,4202.051282,4453.846153,4230.769230,4255.897435,4491.282051,4009.743589,4628.205128,3983.589744,4046.153846
232,4408.717948,4523.589743,4541.538461,4265.641025,4524.615384,4205.641025,4457.435897,4233.333333,4254.871794,4492.307692,4013.846153,4627.179487,3993.333334,4045.641025
233,4409.743589,4530.256410,4536.410256,4256.410256,4518.461538,4204.615384,4455.897435,4228.717948,4262.564102,4498.974358,4016.410256,4626.666666,3999.487180,4046.153846
234,4413.846153,4534.358974,4541.025641,4256.923076,4505.641025,4199.487179,4445.128205,4225.128205,4267.692307,4506.666666,4017.948717,4630.769230,4000.000000,4050.769230
235,4419.487179,4534.358974,4548.717948,4261.025641,4507.179487,4198.974358,4445.128205,4224.615384,4264.615384,4506.153846,4017.948717,4633.846153,3998.974359,4052.307692
236,4425.128205,4535.897435,4552.307692,4262.564102,4518.461538,4203.589743,4456.410256,4231.282051,4265.641025,4500.512820,4023.589743,4637.435897,3996.923077,4055.897435
237,4426.666666,4527.179487,4552.820512,4263.589743,4509.743589,4204.615384,4460.000000,4244.102564,4272.307692,4497.948717,4027.179487,4644.615384,3996.923077,4062.051282
238,4427.179487,4515.897435,4556.410256,4263.076923,4500.000000,4200.512820,4457.948717,4250.769230,4273.333333,4498.461538,4026.153846,4649.230769,4000.512820,4062.564102
239,4426.666666,4522.564102,4555.384615,4257.948717,4513.333333,4202.564102,4459.487179,4243.076923,4261.538461,4497.435897,4024.102564,4648.717948,3995.897436,4057.948717
240,4423.076923,4533.846153,4550.769230,4254.871794,4521.538461,4208.205128,4457.948717,4230.256410,4246.153846,4487.692307,4015.384615,4641.025641,3981.025642,4051.282051
241,4424.102564,4533.846153,4554.871794,4260.512820,4521.025641,4209.230769,4454.871794,4224.102564,4244.615384,4479.487179,4009.230769,4638.974358,3972.820513,4050.256410
242,4430.256410,4528.717948,4560.000000,4266.153846,4521.538461,4203.589743,4448.717948,4221.538461,4249.230769,4478.461538,4013.333333,4643.589743,3983.076924,4055.384615
243,4433.846153,4532.307692,4558.461538,4265.641025,4512.820512,4197.435897,4440.000000,4213.333333,4245.641025,4481.538461,4015.384615,4643.589743,3998.974359,4059.487179
244,4438.461538,4540.000000,4560.512820,4267.179487,4509.230769,4199.487179,4445.128205,4215.897435,4248.205128,4491.282051,4022.051282,4645.641025,3999.487180,4063.589743
245,4443.076923,4537.948717,4567.692307,4269.230769,4515.897435,4208.205128,4457.948717,4233.333333,4261.025641,4499.487179,4035.384615,4649.230769,3992.307693,4067.692307
246,4444.615384,4535.897435,4566.153846,4267.692307,4517.948717,4213.333333,4460.512820,4246.666666,4267.692307,4506.153846,4037.948717,4650.769230,3999.487180,4068.717948
247,4447.692307,4539.487179,4563.589743,4273.846153,4527.692307,4220.512820,4465.128205,4250.769230,4274.358974,4513.846153,4039.487179,4654.358974,4012.307692,4072.820512
248,4448.205128,4541.538461,4565.128205,4280.000000,4544.102564,4226.666666,4475.384615,4254.871794,4281.025641,4512.307692,4045.641025,4654.358974,4015.897435,4075.384615
249,4438.974358,4540.512820,4556.923076,4272.307692,4530.769230,4216.410256,4464.615384,4248.205128,4267.692307,4501.538461,4036.410256,4641.025641,4006.153846,4063.589743
250,4432.820512,4536.923076,4548.205128,4260.000000,4508.205128,4198.974358,4441.538461,4228.717948,4250.256410,4489.743589,4021.538461,4629.743589,3989.743590,4049.743589
251,4435.384615,4537.435897,4549.743589,4259.487179,4514.358974,4196.410256,4442.564102,4223.589743,4247.692307,4478.974358,4025.641025,4631.282051,3980.512821,4050.769230
252,4435.384615,4544.102564,4550.256410,4264.615384,4531.794871,4207.179487,4460.512820,4230.769230,4249.743589,4476.923076,4027.692307,4631.794871,3984.102565,4054.871794
253,4429.230769,4540.000000,4546.153846,4260.512820,4526.666666,4209.230769,4459.487179,4230.256410,4250.769230,4486.666666,4015.897435,4627.692307,3984.615385,4048.205128
254,4422.564102,4524.615384,4541.025641,4252.307692,4508.205128,4202.051282,4449.230769,4226.153846,4251.794871,4489.230769,4015.897435,4625.641025,3980.512821,4044.102564
255,4423.589743,4520.512820,4543.076923,4251.282051,4506.666666,4200.512820,4453.333333,4234.871794,4253.846153,4484.615384,4025.128205,4628.205128,3986.153847,4049.743589
256,4424.615384,4522.051282,4548.717948,4251.282051,4515.897435,4204.615384,4462.051282,4243.076923,4260.000000,4488.205128,4022.564102,4631.282051,3992.820513,4053.846153
257,4424.615384,4521.538461,4549.230769,4247.179487,4520.000000,4210.769230,4461.538461,4243.076923,4266.153846,4496.410256,4022.051282,4631.794871,3989.743590,4053.333333
258,4432.820512,4531.794871,4550.769230,4250.769230,4522.564102,4215.384615,4459.487179,4244.102564,4264.615384,4497.435897,4034.358974,4636.410256,3992.307693,4057.948717
259,4438.461538,4535.384615,4556.410256,4254.871794,4520.000000,4211.794871,4458.974358,4242.564102,4259.487179,4493.846153,4035.897435,4638.974358,3997.435898,4059.487179
