,AF3,F7,F3,FC5,T7,P7,O1,O2,P8,T8,FC6,F4,F8,AF4
0,4380.512820,4522.051282,4517.948717,4269.743589,4411.794871,4188.717948,4451.794871,4216.410256,4214.871794,4500.000000,4218.461538,4646.153846,3988.205129,4050.769230
1,4377.948717,4519.487179,4521.538461,4269.743589,4408.717948,4185.128205,4451.794871,4216.410256,4219.487179,4501.025641,4216.410256,4649.230769,3985.128206,4051.794871
2,4377.435897,4524.615384,4521.025641,4265.128205,4404.102564,4184.615384,4448.717948,4218.461538,4222.564102,4510.769230,4218.461538,4649.743589,3988.205129,4052.307692
3,4387.179487,4531.282051,4522.564102,4271.282051,4412.307692,4193.333333,4455.897435,4225.128205,4227.179487,4519.487179,4222.564102,4656.410256,3998.461539,4056.923076
4,4394.358974,4532.307692,4530.256410,4281.538461,4421.025641,4195.897435,4461.538461,4226.153846,4229.230769,4517.435897,4229.743589,4658.974358,3996.410257,4061.538461
5,4390.256410,4532.307692,4533.333333,4281.538461,4420.512820,4194.871794,4457.435897,4224.615384,4227.692307,4515.384615,4240.512820,4657.948717,3991.794872,4063.076923
6,4388.205128,4532.820512,4530.256410,4277.435897,4416.410256,4196.923076,4455.384615,4227.179487,4226.666666,4519.487179,4240.000000,4662.051282,4000.512820,4063.589743
7,4387.179487,4528.205128,4526.153846,4271.282051,4413.333333,4191.794871,4452.307692,4220.512820,4225.641025,4517.435897,4226.666666,4657.435897,3996.923077,4058.461538
8,4376.410256,4521.538461,4516.923076,4259.487179,4409.230769,4182.051282,4441.538461,4205.641025,4215.897435,4501.538461,4213.846153,4644.102564,3977.948718,4044.615384
9,4369.230769,4516.410256,4509.743589,4256.923076,4404.102564,4180.000000,4438.461538,4201.538461,4207.692307,4489.230769,4211.794871,4641.538461,3973.846154,4038.461538
10,4374.871794,4511.794871,4516.410256,4271.282051,4405.641025,4188.205128,4449.743589,4209.230769,4215.384615,4497.948717,4223.076923,4649.743589,3978.974359,4046.153846
11,4380.000000,4516.410256,4527.179487,4280.000000,4411.794871,4193.846153,4459.487179,4213.846153,4229.230769,4509.230769,4229.230769,4652.820512,3980.000000,4051.282051
12,4381.025641,4525.128205,4526.666666,4271.794871,4412.307692,4192.307692,4458.461538,4217.948717,4228.205128,4506.666666,4222.564102,4650.256410,3983.589744,4050.256410
13,4383.589743,4523.589743,4525.641025,4268.717948,4408.717948,4189.743589,4457.948717,4223.589743,4224.102564,4510.769230,4223.076923,4652.307692,3986.153847,4052.820512
14,4382.051282,4517.948717,4528.205128,4273.846153,4414.871794,4190.256410,4458.461538,4223.076923,4228.717948,4520.000000,4227.692307,4652.820512,3982.051283,4054.358974
15,4379.487179,4517.948717,4523.589743,4268.717948,4415.384615,4187.179487,4454.871794,4217.435897,4224.102564,4512.307692,4221.025641,4648.717948,3976.923077,4043.589743
16,4379.487179,4518.461538,4524.102564,4261.025641,4408.717948,4188.205128,4452.307692,4212.820512,4212.820512,4498.974358,4215.897435,4646.153846,3972.307693,4035.897435
17,4372.820512,4511.282051,4523.589743,4265.641025,4408.205128,4193.333333,4451.794871,4208.717948,4208.717948,4496.410256,4213.333333,4642.564102,3969.230770,4037.435897
18,4364.102564,4502.051282,4510.256410,4265.641025,4404.102564,4185.128205,4449.230769,4204.102564,4210.256410,4495.897435,4208.205128,4635.384615,3965.641026,4035.384615
19,4370.769230,4506.153846,4506.666666,4256.923076,4400.000000,4177.435897,4446.153846,4201.538461,4214.358974,4497.948717,4213.846153,4635.384615,3965.641026,4036.410256
20,4383.076923,4518.461538,4520.000000,4258.974358,4410.256410,4187.179487,4447.692307,4207.692307,4223.589743,4504.102564,4228.717948,4647.179487,3975.897436,4044.615384
21,4383.076923,4520.000000,4527.692307,4267.179487,4416.410256,4187.692307,4446.153846,4207.692307,4222.564102,4500.000000,4232.307692,4650.256410,3983.589744,4048.205128
22,4375.384615,4509.743589,4520.000000,4263.589743,4405.641025,4172.820512,4437.435897,4195.384615,4208.205128,4494.358974,4221.025641,4640.000000,3978.974359,4044.102564
23,4373.846153,4507.179487,4517.435897,4260.512820,4401.025641,4171.794871,4434.358974,4192.307692,4206.153846,4502.564102,4216.923076,4635.897435,3975.897436,4044.102564
24,4382.051282,4515.384615,4522.564102,4265.641025,4409.743589,4182.051282,4439.487179,4206.666666,4219.487179,4513.333333,4230.256410,4645.641025,3982.564103,4051.282051
25,4393.333333,4527.179487,4525.128205,4268.717948,4421.538461,4191.794871,4450.769230,4216.923076,4232.307692,4523.076923,4240.512820,4655.897435,3994.871795,4060.000000
26,4397.435897,4536.410256,4526.153846,4270.769230,4428.205128,4196.410256,4457.948717,4217.435897,4237.948717,4526.666666,4241.025641,4656.410256,4008.717948,4065.641025
27,4388.717948,4531.282051,4525.641025,4271.282051,4423.589743,4190.256410,4452.307692,4213.846153,4232.820512,4520.000000,4242.051282,4651.282051,4004.615384,4061.025641
28,4377.435897,4515.897435,4519.487179,4266.153846,4419.487179,4181.025641,4440.512820,4203.076923,4221.025641,4512.307692,4234.871794,4643.589743,3986.153847,4052.307692
29,4376.410256,4513.333333,4513.333333,4265.128205,4422.051282,4181.025641,4439.487179,4198.974358,4215.897435,4502.051282,4224.102564,4637.948717,3979.487180,4049.230769
30,4383.589743,4527.179487,4517.948717,4276.923076,4424.615384,4188.717948,4448.717948,4210.256410,4223.076923,4496.923076,4232.307692,4640.000000,3989.230770,4053.846153
31,4387.179487,4536.410256,4525.641025,4282.564102,4427.692307,4194.358974,4451.794871,4217.435897,4229.230769,4504.102564,4236.923076,4642.564102,3995.384616,4055.384615
32,4382.564102,4528.717948,4521.025641,4270.769230,4428.717948,4191.794871,4445.641025,4213.333333,4226.153846,4507.179487,4222.051282,4637.948717,3985.641026,4049.743589
33,4377.435897,4517.435897,4510.256410,4265.641025,4430.256410,4188.717948,4443.589743,4211.282051,4221.538461,4503.589743,4222.051282,4633.333333,3976.410257,4044.615384
34,4381.538461,4516.923076,4508.717948,4271.794871,4436.410256,4191.282051,4449.743589,4215.384615,4227.692307,4512.307692,4234.358974,4640.512820,3985.641026,4049.230769
35,4384.102564,4519.487179,4509.743589,4268.205128,4432.820512,4189.743589,4445.128205,4210.256410,4231.282051,4515.897435,4225.641025,4640.512820,3991.282052,4051.794871
36,4375.897435,4517.948717,4503.589743,4256.923076,4422.051282,4180.000000,4434.871794,4203.589743,4222.564102,4505.641025,4209.230769,4630.769230,3981.025642,4046.666666
37,4374.871794,4519.487179,4507.179487,4260.000000,4428.205128,4181.538461,4440.512820,4207.692307,4217.948717,4506.666666,4214.358974,4632.820512,3976.410257,4048.717948
38,4385.641025,4526.153846,4517.948717,4267.179487,4441.025641,4190.256410,4448.717948,4213.846153,4225.641025,4513.846153,4228.717948,4642.051282,3980.000000,4053.846153
39,4390.256410,4527.179487,4515.384615,4262.564102,4441.025641,4188.717948,4443.589743,4216.410256,4229.230769,4511.282051,4227.692307,4641.538461,3985.641026,4053.333333
40,4389.230769,4521.538461,4510.769230,4256.923076,4437.435897,4186.666666,4441.538461,4222.564102,4229.743589,4510.769230,4215.897435,4641.538461,3993.333334,4054.871794
41,4386.153846,4509.230769,4513.333333,4252.307692,4438.974358,4186.666666,4446.666666,4223.589743,4230.256410,4510.256410,4207.692307,4644.102564,3984.102565,4052.307692
42,4373.846153,4496.923076,4506.666666,4236.923076,4432.820512,4176.923076,4437.435897,4209.743589,4219.487179,4500.512820,4197.435897,4635.384615,3963.076924,4038.461538
43,4369.743589,4497.948717,4500.000000,4229.230769,4426.153846,4168.205128,4430.769230,4204.615384,4212.820512,4492.820512,4188.717948,4628.205128,3965.641026,4034.871794
44,4384.102564,4506.666666,4507.692307,4242.564102,4432.820512,4178.461538,4446.666666,4218.974358,4226.153846,4498.461538,4197.435897,4639.487179,3983.589744,4049.230769
45,4392.307692,4509.743589,4517.435897,4252.820512,4443.076923,4190.256410,4458.974358,4227.692307,4235.897435,4506.666666,4204.102564,4650.256410,3986.666667,4058.461538
46,4388.717948,4510.769230,4521.538461,4253.333333,4446.666666,4186.153846,4455.897435,4226.666666,4233.333333,4510.256410,4195.897435,4648.205128,3984.615385,4058.974358
47,4392.820512,4514.871794,4522.564102,4256.410256,4449.230769,4184.102564,4451.794871,4227.179487,4233.846153,4513.333333,4196.410256,4646.666666,3987.179488,4060.512820
48,4396.923076,4517.948717,4522.564102,4255.897435,4453.846153,4188.205128,4451.282051,4227.179487,4233.333333,4508.717948,4202.051282,4648.717948,3987.179488,4060.000000
49,4392.820512,4517.948717,4524.102564,4247.692307,4452.307692,4185.128205,4448.205128,4222.051282,4223.589743,4496.923076,4196.923076,4646.153846,3988.205129,4054.358974
50,4393.333333,4523.589743,4523.589743,4248.205128,4451.794871,4183.589743,4446.666666,4218.461538,4218.974358,4501.025641,4198.461538,4643.589743,3990.256411,4052.820512
51,4396.410256,4526.153846,4522.564102,4256.923076,4456.923076,4187.692307,4449.743589,4222.564102,4225.128205,4510.256410,4202.564102,4642.564102,3981.538462,4054.871794
52,4391.794871,4517.948717,4523.076923,4257.948717,4456.923076,4187.179487,4453.333333,4225.641025,4227.692307,4502.564102,4191.794871,4638.461538,3973.846154,4051.282051
53,4387.179487,4516.923076,4520.512820,4251.794871,4452.820512,4186.666666,4455.384615,4223.076923,4226.666666,4495.897435,4187.179487,4634.358974,3979.487180,4045.128205
54,4385.641025,4520.000000,4519.487179,4254.358974,4450.769230,4193.846153,4454.871794,4222.051282,4227.179487,4504.615384,4191.282051,4632.307692,3983.076924,4042.051282
55,4383.076923,4514.871794,4523.589743,4257.435897,4459.487179,4197.948717,4460.512820,4230.769230,4229.743589,4506.666666,4187.692307,4631.282051,3984.102565,4042.564102
56,4380.000000,4514.358974,4520.512820,4250.256410,4465.128205,4193.846153,4464.102564,4233.333333,4227.179487,4494.871794,4186.153846,4630.769230,3979.487180,4042.564102
57,4377.435897,4517.435897,4512.820512,4248.717948,4455.897435,4194.871794,4458.461538,4225.128205,4223.076923,4493.846153,4192.307692,4628.205128,3966.153847,4038.461538
58,4380.000000,4511.794871,4516.410256,4256.410256,4456.410256,4201.025641,4460.000000,4230.256410,4230.769230,4509.230769,4192.820512,4629.743589,3970.256411,4037.948717
59,4387.692307,4515.384615,4523.076923,4257.948717,4469.743589,4204.102564,4469.230769,4240.512820,4240.512820,4513.333333,4190.256410,4637.435897,3990.256411,4048.205128
60,4389.230769,4526.153846,4523.076923,4253.846153,4470.256410,4200.000000,4468.717948,4240.512820,4240.512820,4503.589743,4191.282051,4639.487179,3990.256411,4054.358974
61,4382.051282,4520.512820,4519.487179,4253.333333,4461.025641,4196.410256,4462.051282,4234.358974,4234.871794,4503.076923,4195.384615,4634.871794,3976.410257,4049.743589
62,4377.948717,4515.897435,4516.923076,4254.358974,4463.589743,4195.897435,4463.076923,4232.820512,4235.384615,4507.179487,4196.923076,4631.282051,3974.871795,4044.615384
63,4377.948717,4518.461538,4514.358974,4253.846153,4468.717948,4195.384615,4466.153846,4233.333333,4236.410256,4503.076923,4189.743589,4626.153846,3977.948718,4042.564102
64,4376.410256,4515.384615,4517.435897,4253.333333,4468.205128,4195.384615,4465.128205,4230.256410,4231.282051,4501.025641,4186.153846,4621.025641,3975.897436,4038.461538
65,4378.974358,4520.000000,4522.051282,4257.435897,4467.692307,4197.435897,4469.230769,4228.717948,4229.743589,4504.615384,4194.358974,4626.153846,3976.923077,4038.974358
66,4385.641025,4530.256410,4523.589743,4267.692307,4466.666666,4202.564102,4473.846153,4233.333333,4236.923076,4510.769230,4198.974358,4633.333333,3978.974359,4046.666666
67,4384.615384,4525.128205,4524.102564,4270.769230,4469.230769,4205.641025,4471.794871,4237.435897,4238.974358,4511.794871,4195.897435,4632.820512,3982.051283,4046.666666
68,4382.051282,4525.128205,4531.282051,4270.769230,4474.871794,4207.179487,4473.333333,4238.974358,4237.435897,4514.358974,4198.974358,4637.948717,3989.743590,4046.666666
69,4390.256410,4538.461538,4538.461538,4273.846153,4475.384615,4209.743589,4477.435897,4246.153846,4243.076923,4521.025641,4206.666666,4645.128205,3994.358975,4057.435897
70,4394.358974,4534.871794,4531.794871,4275.897435,4464.615384,4205.128205,4470.769230,4246.153846,4241.025641,4510.256410,4212.820512,4637.948717,3986.666667,4059.487179
71,4385.641025,4525.128205,4521.538461,4274.358974,4451.794871,4198.974358,4462.051282,4234.871794,4232.820512,4498.461538,4209.743589,4629.743589,3978.974359,4050.256410
72,4381.538461,4532.820512,4524.102564,4272.307692,4445.128205,4200.512820,4461.025641,4230.769230,4233.846153,4508.717948,4196.923076,4632.820512,3985.128206,4047.692307
73,4382.051282,4536.410256,4525.128205,4269.743589,4441.538461,4198.974358,4455.897435,4227.692307,4233.333333,4511.794871,4195.897435,4629.743589,3991.794872,4047.692307
74,4378.974358,4523.076923,4521.025641,4265.128205,4439.487179,4193.846153,4448.717948,4223.076923,4224.102564,4498.461538,4204.615384,4621.538461,3979.487180,4042.051282
75,4376.923076,4517.948717,4521.538461,4261.025641,4438.974358,4190.769230,4449.743589,4221.025641,4221.025641,4501.538461,4200.000000,4619.487179,3964.615385,4037.948717
76,4377.948717,4524.102564,4523.589743,4264.615384,4438.974358,4190.256410,4448.717948,4219.487179,4224.102564,4512.820512,4192.307692,4621.025641,3973.333334,4041.538461
77,4377.948717,4524.615384,4524.615384,4270.769230,4440.512820,4188.717948,4448.717948,4220.000000,4226.153846,4506.666666,4200.000000,4621.538461,3987.179488,4044.102564
78,4376.923076,4518.461538,4524.102564,4264.615384,4438.461538,4187.692307,4450.256410,4222.051282,4226.666666,4495.897435,4205.128205,4621.025641,3983.589744,4040.512820
79,4376.410256,4514.358974,4521.025641,4256.410256,4433.333333,4188.205128,4446.153846,4221.538461,4225.128205,4499.487179,4203.589743,4620.512820,3975.384616,4040.512820
80,4382.051282,4519.487179,4522.564102,4263.589743,4438.461538,4192.820512,4448.205128,4223.589743,4227.692307,4512.307692,4209.743589,4625.641025,3981.538462,4050.256410
81,4391.282051,4530.256410,4527.179487,4272.820512,4451.282051,4202.564102,4462.564102,4228.205128,4237.435897,4516.410256,4214.358974,4631.282051,3997.435898,4056.410256
82,4385.128205,4531.794871,4522.051282,4268.205128,4450.256410,4201.538461,4462.564102,4223.589743,4235.897435,4507.179487,4204.615384,4623.589743,3996.923077,4048.717948
83,4373.333333,4525.641025,4514.871794,4261.538461,4441.025641,4187.179487,4448.205128,4215.897435,4225.641025,4504.102564,4198.974358,4612.820512,3975.384616,4042.564102
84,4375.384615,4524.615384,4517.948717,4261.538461,4441.538461,4186.666666,4447.179487,4216.923076,4226.153846,4511.282051,4210.256410,4616.410256,3975.384616,4046.666666
85,4384.102564,4527.179487,4522.564102,4268.205128,4443.589743,4197.435897,4456.410256,4223.076923,4231.282051,4512.307692,4214.871794,4624.615384,4000.512820,4053.846153
86,4387.692307,4526.666666,4523.076923,4269.230769,4445.128205,4196.923076,4455.384615,4227.179487,4230.256410,4508.205128,4206.666666,4624.102564,4006.153846,4052.307692
87,4383.076923,4524.102564,4519.487179,4261.025641,4449.230769,4191.282051,4449.230769,4220.000000,4226.666666,4506.666666,4206.153846,4617.435897,3990.256411,4044.102564
88,4379.487179,4522.051282,4515.897435,4258.974358,4450.769230,4192.820512,4448.717948,4214.358974,4227.692307,4510.769230,4210.256410,4617.435897,3981.538462,4042.051282
89,4382.051282,4524.615384,4516.923076,4265.641025,4448.717948,4192.820512,4449.743589,4217.948717,4230.769230,4515.384615,4206.666666,4621.025641,3982.051283,4048.205128
90,4384.102564,4529.743589,4520.512820,4269.743589,4449.743589,4193.333333,4448.717948,4217.435897,4230.769230,4503.589743,4204.615384,4620.000000,3986.153847,4051.282051
91,4381.025641,4528.717948,4521.025641,4270.769230,4455.897435,4196.410256,4453.333333,4215.897435,4226.666666,4490.256410,4209.230769,4616.410256,3994.871795,4048.717948
92,4376.923076,4526.666666,4520.512820,4266.153846,4456.923076,4195.897435,4457.948717,4220.512820,4225.641025,4501.538461,4209.743589,4619.487179,3992.307693,4046.666666
93,4376.923076,4530.256410,4522.051282,4259.487179,4456.410256,4197.435897,4457.948717,4225.641025,4232.820512,4516.923076,4209.230769,4623.076923,3981.025642,4046.666666
94,4382.051282,4529.743589,4524.615384,4264.102564,4461.538461,4204.102564,4461.025641,4230.769230,4238.974358,4512.820512,4213.333333,4622.051282,3990.256411,4049.743589
95,4384.102564,4526.666666,4522.051282,4270.769230,4462.564102,4204.615384,4462.564102,4233.333333,4234.871794,4510.769230,4215.897435,4619.487179,4002.051282,4052.820512
96,4376.410256,4524.102564,4514.871794,4265.128205,4455.897435,4197.435897,4453.333333,4223.076923,4227.179487,4509.743589,4212.820512,4616.410256,3990.769231,4045.128205
97,4370.769230,4514.358974,4516.410256,4259.487179,4449.230769,4192.307692,4446.153846,4214.358974,4224.615384,4503.076923,4206.666666,4615.384615,3980.000000,4037.948717
98,4379.487179,4513.333333,4523.589743,4260.000000,4454.358974,4195.897435,4454.358974,4222.051282,4229.743589,4503.589743,4209.230769,4620.000000,3990.256411,4048.205128
99,4387.179487,4526.153846,4523.589743,4265.128205,4463.589743,4197.435897,4458.461538,4226.153846,4236.410256,4507.692307,4219.487179,4626.153846,4001.538461,4061.025641
100,4384.615384,4525.128205,4522.051282,4271.794871,4460.000000,4190.256410,4449.230769,4221.025641,4234.358974,4503.076923,4216.923076,4626.153846,3997.435898,4055.897435
101,4380.512820,4516.410256,4525.641025,4271.794871,4455.897435,4193.846153,4451.794871,4219.487179,4232.307692,4504.615384,4209.743589,4624.102564,3988.717949,4050.256410
102,4385.128205,4522.564102,4526.666666,4270.256410,4457.948717,4202.051282,4460.000000,4224.615384,4235.384615,4515.384615,4221.538461,4627.179487,3989.743590,4056.410256
103,4389.230769,4529.743589,4524.102564,4270.256410,4458.461538,4200.512820,4454.358974,4224.615384,4231.794871,4516.410256,4230.256410,4627.179487,3997.435898,4062.051282
104,4387.179487,4528.205128,4521.538461,4271.794871,4458.974358,4196.410256,4447.692307,4220.000000,4224.615384,4510.769230,4223.589743,4621.538461,3993.846154,4062.051282
105,4384.615384,4526.153846,4522.051282,4272.307692,4463.076923,4197.435897,4446.153846,4214.358974,4224.102564,4504.615384,4219.487179,4615.897435,3989.230770,4058.974358
106,4385.128205,4526.666666,4523.076923,4269.743589,4465.128205,4197.948717,4445.128205,4214.358974,4228.717948,4499.487179,4217.948717,4616.923076,3995.897436,4056.923076
107,4386.666666,4527.692307,4521.538461,4270.256410,4463.589743,4200.512820,4445.641025,4218.461538,4232.820512,4507.179487,4218.974358,4621.538461,3995.897436,4059.487179
108,4385.128205,4525.641025,4520.512820,4274.358974,4461.538461,4198.974358,4444.615384,4217.435897,4236.923076,4516.923076,4228.205128,4623.589743,3987.692308,4062.051282
109,4381.025641,4523.076923,4522.051282,4274.358974,4458.974358,4190.256410,4443.076923,4211.282051,4235.897435,4511.282051,4227.179487,4620.512820,3990.769231,4058.461538
110,4383.076923,4525.128205,4522.564102,4268.205128,4461.025641,4191.794871,4443.589743,4210.256410,4231.794871,4502.051282,4223.076923,4617.948717,4005.128205,4056.410256
111,4385.641025,4520.512820,4521.025641,4265.128205,4462.051282,4197.948717,4443.076923,4213.333333,4228.205128,4508.205128,4226.153846,4617.435897,4004.615384,4058.974358
112,4379.487179,4515.897435,4520.512820,4263.076923,4459.487179,4194.871794,4441.538461,4213.333333,4229.230769,4516.410256,4227.179487,4617.948717,3987.692308,4057.948717
113,4373.846153,4515.897435,4518.461538,4259.487179,4458.461538,4190.256410,4440.512820,4212.820512,4232.820512,4506.666666,4220.000000,4616.410256,3980.512821,4052.820512
114,4375.384615,4510.256410,4516.923076,4261.538461,4457.435897,4190.769230,4441.538461,4215.897435,4233.333333,4497.948717,4217.948717,4613.333333,3990.769231,4051.794871
115,4377.948717,4510.256410,4521.025641,4263.589743,4464.102564,4194.871794,4449.230769,4225.641025,4241.025641,4512.307692,4231.794871,4617.948717,4000.000000,4059.487179
116,4380.000000,4518.461538,4525.128205,4264.102564,4470.256410,4196.410256,4453.333333,4231.794871,4248.717948,4525.641025,4241.025641,4626.666666,4000.512820,4064.615384
117,4383.589743,4519.487179,4524.615384,4268.205128,4467.179487,4194.871794,4448.205128,4228.205128,4246.666666,4519.487179,4231.282051,4622.564102,4001.025641,4065.128205
118,4384.102564,4516.410256,4523.589743,4269.230769,4467.179487,4193.846153,4447.179487,4224.102564,4241.538461,4511.794871,4226.666666,4615.897435,3992.820513,4062.564102
119,4383.076923,4516.923076,4525.128205,4268.717948,4467.179487,4194.358974,4449.230769,4223.076923,4242.051282,4511.282051,4237.435897,4620.000000,3985.641026,4060.000000
120,4384.615384,4518.974358,4523.589743,4268.717948,4463.589743,4196.923076,4449.743589,4225.128205,4243.076923,4511.794871,4235.897435,4621.025641,3995.897436,4060.000000
121,4383.589743,4518.461538,4522.564102,4263.076923,4465.128205,4198.974358,4448.717948,4226.153846,4242.051282,4513.333333,4226.666666,4615.384615,4004.615384,4058.974358
122,4382.564102,4517.435897,4525.128205,4257.948717,4469.743589,4196.923076,4449.230769,4218.974358,4242.564102,4512.307692,4229.743589,4617.435897,3998.974359,4059.487179
123,4376.923076,4509.230769,4515.897435,4259.487179,4467.179487,4187.692307,4441.025641,4203.076923,4233.333333,4505.641025,4221.538461,4615.897435,3982.564103,4051.794871
124,4364.615384,4495.897435,4505.641025,4254.358974,4460.512820,4179.487179,4428.205128,4195.384615,4218.974358,4496.923076,4202.051282,4604.102564,3970.769231,4039.487179
125,4365.641025,4496.923076,4512.307692,4253.333333,4461.025641,4182.564102,4430.256410,4200.512820,4220.000000,4495.384615,4209.230769,4605.128205,3975.384616,4040.512820
126,4376.923076,4507.692307,4517.435897,4264.102564,4465.128205,4191.282051,4443.589743,4208.205128,4231.794871,4499.487179,4227.692307,4620.000000,3984.102565,4055.384615
127,4376.410256,4504.615384,4509.230769,4266.153846,4466.153846,4192.307692,4445.641025,4208.717948,4229.743589,4494.871794,4227.179487,4621.538461,3978.461539,4059.487179
128,4370.769230,4497.435897,4506.153846,4260.512820,4464.102564,4185.641025,4438.974358,4201.025641,4220.000000,4486.666666,4219.487179,4613.333333,3976.923077,4053.333333
129,4371.282051,4500.000000,4510.256410,4258.461538,4462.564102,4184.102564,4439.487179,4198.461538,4225.641025,4494.871794,4219.487179,4612.820512,3985.128206,4050.769230
130,4368.205128,4500.512820,4508.205128,4253.846153,4465.641025,4187.692307,4441.025641,4204.615384,4231.282051,4501.025641,4221.025641,4613.333333,3984.102565,4050.769230
131,4365.641025,4499.487179,4507.692307,4252.307692,4468.205128,4189.743589,4440.512820,4207.179487,4226.153846,4494.358974,4225.128205,4609.743589,3977.948718,4049.743589
132,4369.230769,4502.051282,4508.717948,4257.948717,4467.179487,4189.230769,4440.512820,4204.615384,4224.615384,4495.897435,4229.230769,4605.128205,3971.282052,4047.692307
133,4372.307692,4500.000000,4505.128205,4251.282051,4467.179487,4190.769230,4438.461538,4203.076923,4221.538461,4497.435897,4220.512820,4602.051282,3968.717949,4042.051282
134,4371.282051,4496.410256,4503.076923,4244.102564,4472.820512,4191.794871,4440.512820,4196.410256,4213.333333,4487.179487,4202.564102,4599.487179,3974.358975,4037.948717
135,4373.333333,4498.461538,4504.102564,4250.256410,4476.410256,4191.282051,4443.589743,4191.282051,4213.333333,4483.076923,4191.794871,4602.051282,3977.435898,4042.051282
136,4377.435897,4501.025641,4508.205128,4250.769230,4474.358974,4191.794871,4442.051282,4195.897435,4222.564102,4489.743589,4193.846153,4606.153846,3969.230770,4048.205128
137,4374.871794,4501.025641,4507.179487,4242.564102,4468.717948,4188.205128,4434.358974,4198.461538,4220.512820,4487.692307,4197.948717,4603.589743,3966.666667,4044.102564
138,4371.794871,4498.461538,4505.128205,4247.179487,4458.461538,4184.615384,4431.282051,4196.410256,4214.871794,4484.615384,4190.769230,4603.589743,3977.435898,4043.076923
139,4383.076923,4499.487179,4512.307692,4255.897435,4452.820512,4189.230769,4437.948717,4203.076923,4220.000000,4493.846153,4191.794871,4612.307692,3986.666667,4054.358974
140,4396.923076,4510.769230,4523.589743,4254.871794,4463.589743,4195.384615,4446.153846,4213.846153,4225.128205,4499.487179,4204.615384,4618.974358,3987.179488,4060.512820
141,4393.333333,4517.948717,4525.641025,4255.384615,4470.256410,4195.384615,4453.333333,4216.410256,4222.051282,4493.333333,4201.025641,4618.974358,3983.076924,4056.410256
142,4387.179487,4509.230769,4521.025641,4254.358974,4461.538461,4193.333333,4454.871794,4215.897435,4218.461538,4490.769230,4189.743589,4624.102564,3984.102565,4057.435897
143,4392.820512,4504.102564,4521.025641,4244.102564,4455.897435,4189.743589,4448.717948,4214.871794,4223.076923,4498.974358,4187.179487,4629.743589,3985.128206,4060.512820
144,4392.307692,4503.076923,4522.051282,4238.974358,4454.358974,4183.076923,4442.051282,4211.282051,4225.641025,4495.897435,4184.615384,4624.102564,3981.025642,4055.897435
145,4386.153846,4501.025641,4522.564102,4248.717948,4450.769230,4183.589743,4445.641025,4216.410256,4222.564102,4485.641025,4185.128205,4620.512820,3982.051283,4055.384615
146,4387.692307,4506.666666,4524.615384,4252.307692,4453.333333,4191.282051,4453.333333,4223.589743,4222.564102,4492.307692,4191.282051,4624.615384,3983.589744,4057.948717
147,4388.717948,4511.794871,4524.102564,4243.589743,4456.923076,4192.307692,4452.307692,4220.000000,4223.589743,4502.564102,4190.769230,4624.615384,3977.435898,4057.948717
148,4386.666666,4502.564102,4522.051282,4239.487179,4455.384615,4190.256410,4447.179487,4215.384615,4224.102564,4497.435897,4186.153846,4621.538461,3980.000000,4056.923076
149,4389.743589,4495.897435,4523.076923,4243.076923,4454.871794,4194.358974,4449.230769,4222.051282,4224.615384,4494.871794,4185.128205,4624.615384,3994.358975,4056.923076
150,4391.794871,4501.538461,4525.641025,4248.717948,4458.461538,4200.512820,4452.820512,4227.179487,4227.692307,4502.051282,4189.230769,4626.666666,3994.358975,4057.948717
151,4384.615384,4504.102564,4523.076923,4248.205128,4458.974358,4194.358974,4447.692307,4220.512820,4225.641025,4494.358974,4190.256410,4622.564102,3977.435898,4056.410256
152,4379.487179,4501.538461,4520.512820,4241.538461,4454.871794,4187.692307,4443.589743,4212.307692,4218.974358,4486.666666,4182.051282,4619.487179,3971.794872,4051.282051
153,4377.948717,4498.461538,4520.000000,4242.564102,4450.769230,4187.692307,4444.615384,4212.307692,4214.871794,4493.333333,4173.333333,4616.923076,3978.974359,4046.153846
154,4376.923076,4497.435897,4513.846153,4244.615384,4452.820512,4187.692307,4442.564102,4212.820512,4213.846153,4490.769230,4176.410256,4615.384615,3984.102565,4044.102564
155,4376.923076,4506.153846,4511.282051,4237.435897,4454.871794,4187.179487,4441.025641,4209.230769,4216.923076,4484.102564,4183.589743,4617.435897,3982.051283,4043.589743
156,4372.820512,4513.333333,4514.871794,4240.512820,4448.717948,4185.128205,4440.512820,4208.717948,4220.000000,4488.717948,4185.641025,4614.871794,3973.333334,4045.641025
157,4375.384615,4511.794871,4517.435897,4252.307692,4451.282051,4183.076923,4442.051282,4210.769230,4221.538461,4493.333333,4181.025641,4613.333333,3974.871795,4049.743589
158,4384.102564,4511.794871,4521.538461,4257.435897,4465.641025,4188.717948,4448.205128,4212.307692,4224.102564,4495.384615,4180.512820,4621.025641,3990.769231,4055.384615
159,4386.153846,4515.897435,4526.153846,4256.410256,4466.153846,4192.307692,4448.717948,4213.846153,4226.666666,4498.974358,4188.717948,4625.641025,3995.384616,4058.974358
160,4382.564102,4516.923076,4526.666666,4255.897435,4458.974358,4189.743589,4445.128205,4213.846153,4222.564102,4495.897435,4190.256410,4623.589743,3985.128206,4058.461538
161,4388.205128,4514.358974,4530.769230,4257.435897,4464.615384,4192.820512,4452.820512,4216.410256,4221.025641,4494.871794,4190.256410,4626.666666,3988.205129,4060.000000
162,4392.820512,4516.410256,4537.948717,4263.076923,4475.384615,4200.000000,4460.512820,4218.461538,4225.641025,4500.000000,4196.410256,4632.307692,3999.487180,4063.589743
163,4388.717948,4524.102564,4537.948717,4265.128205,4474.358974,4201.538461,4456.923076,4219.487179,4225.128205,4503.589743,4192.307692,4631.794871,3998.461539,4064.615384
164,4388.717948,4528.205128,4534.358974,4265.128205,4471.794871,4200.000000,4456.410256,4223.076923,4224.615384,4503.589743,4191.282051,4632.820512,3993.333334,4064.102564
165,4387.692307,4521.538461,4528.717948,4266.666666,4473.846153,4194.358974,4456.410256,4220.512820,4224.102564,4491.282051,4201.025641,4629.230769,3988.205129,4059.487179
166,4376.923076,4509.743589,4519.487179,4257.435897,4466.666666,4186.153846,4449.743589,4207.692307,4216.410256,4483.076923,4197.435897,4616.923076,3982.051283,4050.256410
167,4374.871794,4505.128205,4520.512820,4253.333333,4459.487179,4187.179487,4451.794871,4208.205128,4216.923076,4494.871794,4187.179487,4620.000000,3986.666667,4051.282051
168,4386.666666,4513.846153,4532.307692,4265.641025,4467.179487,4198.974358,4463.076923,4223.076923,4226.666666,4504.615384,4196.410256,4635.897435,3990.256411,4060.000000
169,4386.153846,4521.538461,4528.717948,4267.692307,4471.794871,4200.512820,4461.538461,4222.051282,4225.128205,4498.461538,4201.025641,4633.333333,3975.897436,4056.923076
170,4375.897435,4516.923076,4523.076923,4259.487179,4463.589743,4190.769230,4452.307692,4210.256410,4217.435897,4494.871794,4187.692307,4618.461538,3967.179488,4050.769230
171,4375.897435,4513.333333,4530.769230,4262.564102,4468.717948,4191.794871,4454.871794,4212.307692,4220.512820,4497.435897,4188.205128,4622.051282,3981.025642,4054.358974
172,4380.512820,4515.384615,4531.282051,4265.641025,4477.435897,4200.000000,4461.025641,4221.538461,4226.666666,4495.897435,4197.948717,4631.282051,3991.794872,4056.410256
173,4379.487179,4511.282051,4523.589743,4256.923076,4469.230769,4193.333333,4456.410256,4221.538461,4224.615384,4489.743589,4195.384615,4626.153846,3979.487180,4048.717948
174,4376.410256,4506.666666,4528.717948,4256.923076,4465.641025,4188.205128,4449.230769,4218.461538,4223.076923,4487.692307,4193.333333,4624.102564,3971.794872,4046.153846
175,4381.025641,4511.282051,4538.974358,4267.179487,4472.820512,4196.410256,4454.871794,4224.615384,4226.666666,4496.923076,4196.923076,4631.282051,3983.589744,4054.358974
176,4387.692307,4519.487179,4533.846153,4266.666666,4478.974358,4199.487179,4463.076923,4227.179487,4228.717948,4503.076923,4197.435897,4634.871794,3989.230770,4060.000000
177,4384.615384,4517.948717,4526.666666,4259.487179,4480.000000,4193.333333,4455.384615,4216.923076,4222.564102,4489.230769,4196.923076,4631.794871,3976.410257,4056.410256
178,4373.333333,4509.230769,4521.538461,4255.897435,4472.307692,4187.692307,4438.461538,4204.102564,4213.333333,4476.923076,4192.307692,4624.102564,3965.641026,4046.666666
179,4368.717948,4502.564102,4519.487179,4254.358974,4461.025641,4181.538461,4433.333333,4202.564102,4209.743589,4486.153846,4184.102564,4619.487179,3971.282052,4044.102564
180,4373.846153,4503.589743,4522.051282,4257.948717,4468.205128,4185.128205,4442.564102,4209.230769,4213.333333,4495.384615,4192.307692,4626.666666,3981.025642,4049.743589
181,4374.871794,4507.179487,4522.564102,4258.974358,4481.538461,4191.794871,4447.692307,4209.230769,4218.461538,4491.282051,4196.923076,4627.692307,3982.051283,4050.769230
182,4367.179487,4501.025641,4520.000000,4251.794871,4474.358974,4184.102564,4438.974358,4198.974358,4211.282051,4482.564102,4181.538461,4614.871794,3973.846154,4042.564102
183,4364.615384,4500.512820,4520.000000,4256.923076,4470.256410,4181.025641,4438.974358,4196.923076,4204.615384,4485.641025,4182.051282,4615.384615,3967.179488,4038.461538
184,4373.333333,4514.358974,4524.102564,4264.615384,4484.615384,4192.307692,4453.333333,4208.205128,4211.794871,4495.897435,4194.871794,4625.641025,3972.307693,4044.102564
185,4377.435897,4517.435897,4526.153846,4262.051282,4487.179487,4194.358974,4455.384615,4213.846153,4218.974358,4492.820512,4186.153846,4622.564102,3981.538462,4051.282051
186,4371.794871,4508.205128,4523.076923,4263.589743,4478.461538,4187.692307,4445.641025,4210.256410,4219.487179,4483.589743,4178.974358,4616.923076,3984.102565,4053.333333
187,4366.666666,4510.256410,4520.512820,4264.102564,4480.512820,4186.153846,4442.051282,4205.641025,4214.871794,4481.025641,4193.846153,4616.923076,3971.282052,4047.179487
188,4366.666666,4518.461538,4521.025641,4258.461538,4485.641025,4185.128205,4443.076923,4204.615384,4213.333333,4486.666666,4199.487179,4615.384615,3963.076924,4043.589743
189,4373.846153,4516.923076,4523.076923,4263.589743,4485.128205,4188.717948,4448.205128,4208.205128,4217.435897,4496.923076,4192.307692,4620.512820,3976.923077,4051.282051
190,4380.512820,4514.871794,4525.641025,4268.717948,4485.641025,4196.410256,4456.410256,4215.384615,4223.076923,4504.102564,4196.923076,4629.230769,3986.153847,4058.461538
191,4375.384615,4511.794871,4525.128205,4257.435897,4482.564102,4193.846153,4452.307692,4217.948717,4223.076923,4498.461538,4206.666666,4625.641025,3974.871795,4053.333333
192,4369.230769,4509.230769,4520.000000,4251.282051,4481.025641,4188.717948,4440.000000,4215.897435,4220.000000,4494.358974,4206.666666,4622.564102,3977.435898,4050.256410
193,4376.410256,4514.358974,4523.076923,4260.000000,4484.615384,4191.794871,4444.102564,4217.948717,4221.025641,4500.000000,4203.589743,4632.820512,3996.923077,4057.435897
194,4383.589743,4518.974358,4531.794871,4265.641025,4487.179487,4191.794871,4450.256410,4221.025641,4223.076923,4502.051282,4204.102564,4637.948717,3998.974359,4060.000000
195,4378.461538,4515.897435,4529.230769,4262.564102,4481.025641,4186.153846,4445.128205,4215.384615,4222.564102,4495.897435,4203.076923,4632.307692,3983.076924,4056.410256
196,4369.743589,4503.589743,4520.512820,4254.871794,4475.897435,4184.615384,4441.025641,4206.666666,4217.435897,4483.076923,4201.025641,4630.256410,3970.256411,4054.358974
197,4370.256410,4498.974358,4522.564102,4258.461538,4484.102564,4188.717948,4443.589743,4210.769230,4220.512820,4484.615384,4205.641025,4632.820512,3970.769231,4054.358974
198,4375.897435,4510.769230,4527.692307,4262.051282,4492.820512,4188.205128,4446.153846,4217.435897,4224.102564,4497.948717,4210.256410,4631.794871,3977.948718,4054.871794
199,4374.871794,4518.974358,4523.589743,4251.794871,4486.153846,4180.512820,4443.589743,4210.256410,4214.358974,4492.307692,4205.641025,4630.256410,3983.589744,4053.846153
200,4374.871794,4517.435897,4525.641025,4251.794871,4480.512820,4180.000000,4441.025641,4207.179487,4213.333333,4483.589743,4204.615384,4635.384615,3987.179488,4056.923076
201,4378.974358,4517.948717,4533.333333,4263.076923,4486.153846,4188.205128,4441.025641,4212.307692,4222.564102,4494.358974,4211.282051,4637.948717,3983.589744,4060.000000
202,4375.384615,4509.743589,4526.666666,4263.076923,4487.692307,4186.153846,4438.461538,4207.692307,4217.435897,4498.974358,4212.820512,4630.769230,3974.358975,4053.333333
203,4371.794871,4498.461538,4521.538461,4256.410256,4485.128205,4180.512820,4438.974358,4206.153846,4213.333333,4494.358974,4207.179487,4626.666666,3979.487180,4050.256410
204,4378.461538,4511.282051,4529.743589,4257.435897,4487.179487,4185.641025,4446.666666,4221.025641,4226.153846,4502.051282,4209.230769,4633.846153,3998.461539,4060.512820
205,4375.384615,4519.487179,4529.743589,4255.897435,4489.230769,4186.666666,4443.076923,4216.923076,4223.589743,4501.025641,4212.820512,4633.846153,3991.282052,4062.051282
206,4361.025641,4503.076923,4517.435897,4251.282051,4485.128205,4176.923076,4427.179487,4191.282051,4201.538461,4479.487179,4201.025641,4620.512820,3963.076924,4048.717948
207,4356.923076,4495.897435,4516.410256,4256.410256,4482.051282,4176.410256,4430.256410,4186.153846,4194.358974,4464.102564,4191.282051,4617.435897,3958.974359,4043.076923
208,4362.564102,4505.641025,4522.051282,4256.410256,4483.589743,4183.589743,4442.564102,4198.461538,4205.128205,4471.794871,4197.435897,4626.666666,3974.871795,4045.641025
209,4366.666666,4507.692307,4521.538461,4249.743589,4486.666666,4180.000000,4436.923076,4203.076923,4214.871794,4492.820512,4207.179487,4628.205128,3980.000000,4048.205128
210,4371.794871,4508.717948,4521.538461,4250.769230,4485.128205,4176.410256,4429.743589,4204.615384,4221.025641,4504.615384,4211.282051,4626.666666,3979.487180,4054.871794
211,4375.384615,4512.307692,4525.128205,4256.410256,4489.743589,4184.102564,4432.820512,4205.128205,4221.538461,4500.000000,4210.256410,4631.794871,3982.564103,4060.000000
212,4375.897435,4513.846153,4526.153846,4260.512820,4495.384615,4187.179487,4431.282051,4196.923076,4212.307692,4490.256410,4211.282051,4632.820512,3983.589744,4060.512820
213,4381.025641,4525.128205,4530.256410,4260.512820,4490.256410,4183.076923,4429.230769,4195.384615,4209.230769,4493.333333,4218.461538,4635.897435,3991.282052,4063.076923
214,4384.102564,4530.769230,4537.948717,4258.974358,4489.743589,4184.615384,4432.820512,4204.102564,4220.512820,4502.051282,4227.179487,4642.051282,3996.923077,4066.666666
215,4374.358974,4515.897435,4534.871794,4258.461538,4492.307692,4185.128205,4429.743589,4205.128205,4219.487179,4496.923076,4217.948717,4635.897435,3987.179488,4061.538461
216,4366.153846,4509.230769,4524.102564,4260.000000,4489.743589,4178.974358,4426.666666,4196.410256,4206.153846,4481.025641,4202.051282,4627.692307,3978.974359,4056.410256
217,4366.153846,4513.333333,4521.538461,4259.487179,4484.615384,4178.974358,4428.717948,4190.256410,4201.025641,4468.205128,4201.538461,4627.692307,3974.871795,4055.384615
218,4362.051282,4505.128205,4523.589743,4256.923076,4478.974358,4178.461538,4425.128205,4187.692307,4199.487179,4464.102564,4205.641025,4624.615384,3961.538462,4046.666666
219,4361.538461,4501.538461,4521.025641,4255.897435,4476.410256,4174.871794,4424.615384,4189.230769,4200.000000,4476.410256,4206.153846,4623.076923,3964.102565,4044.102564
220,4371.794871,4511.794871,4522.564102,4256.410256,4477.435897,4179.487179,4431.282051,4195.897435,4208.205128,4490.256410,4208.717948,4629.743589,3987.692308,4056.923076
221,4376.923076,4517.435897,4525.641025,4262.564102,4472.307692,4186.666666,4432.820512,4198.461538,4212.820512,4489.230769,4207.692307,4632.820512,3995.897436,4066.666666
222,4372.820512,4518.974358,4524.615384,4265.641025,4466.666666,4184.102564,4430.769230,4197.948717,4213.846153,4487.179487,4205.128205,4632.820512,3985.641026,4065.128205
223,4371.282051,4518.461538,4524.102564,4258.974358,4466.153846,4179.487179,4429.230769,4196.410256,4212.307692,4486.666666,4207.692307,4632.820512,3979.487180,4061.025641
224,4372.307692,4523.589743,4524.615384,4262.051282,4463.589743,4183.076923,4430.769230,4192.820512,4207.692307,4485.641025,4217.435897,4632.820512,3986.153847,4062.564102
225,4375.384615,4528.205128,4524.615384,4269.230769,4466.153846,4189.230769,4435.897435,4195.897435,4211.282051,4487.692307,4223.589743,4634.358974,3995.384616,4067.179487
226,4374.871794,4517.435897,4525.641025,4261.538461,4469.743589,4185.128205,4435.384615,4198.461538,4216.923076,4485.641025,4215.897435,4634.871794,3989.230770,4067.179487
227,4369.743589,4511.282051,4525.128205,4250.256410,4468.717948,4180.512820,4429.230769,4192.307692,4210.256410,4481.538461,4204.102564,4633.846153,3977.948718,4063.076923
228,4368.717948,4516.923076,4521.025641,4247.692307,4463.076923,4181.025641,4427.179487,4188.205128,4204.615384,4483.589743,4197.948717,4630.769230,3978.461539,4058.461538
229,4376.410256,4513.846153,4522.564102,4251.282051,4460.000000,4178.461538,4429.230769,4194.358974,4210.256410,4485.128205,4194.358974,4631.794871,3984.615385,4058.461538
230,4382.564102,4512.820512,4530.256410,4250.256410,4466.666666,4178.974358,4429.743589,4199.487179,4214.871794,4486.666666,4193.846153,4636.923076,3986.153847,4066.666666
231,4381.025641,4519.487179,4528.717948,4242.564102,4473.333333,4181.025641,4429.743589,4196.923076,4211.794871,4485.128205,4194.871794,4637.435897,3980.512821,4069.230769
232,4378.461538,4518.974358,4522.564102,4240.000000,4468.717948,4176.410256,4429.743589,4192.307692,4206.666666,4477.948717,4184.102564,4632.307692,3974.358975,4060.512820
233,4379.487179,4512.820512,4522.564102,4246.666666,4466.153846,4175.384615,4428.717948,4191.282051,4200.000000,4472.820512,4165.641025,4629.743589,3978.461539,4056.410256
234,4382.051282,4509.230769,4525.641025,4246.666666,4471.282051,4176.923076,4428.717948,4195.384615,4197.948717,4474.871794,4162.564102,4632.307692,3985.641026,4058.461538
235,4381.025641,4510.769230,4523.589743,4234.871794,4472.307692,4174.358974,4429.743589,4195.897435,4201.538461,4478.461538,4172.820512,4632.820512,3982.051283,4058.461538
236,4378.974358,4517.948717,4520.512820,4227.692307,4470.769230,4174.358974,4429.743589,4194.871794,4202.051282,4474.358974,4178.974358,4631.282051,3968.205129,4059.487179
237,4383.076923,4518.974358,4528.205128,4231.282051,4472.820512,4175.384615,4430.256410,4201.025641,4203.076923,4465.128205,4174.358974,4631.282051,3962.051283,4060.512820
238,4387.692307,4513.846153,4533.846153,4242.051282,4471.794871,4172.307692,4431.794871,4203.589743,4207.179487,4466.666666,4163.076923,4632.820512,3972.820513,4058.974358
239,4386.153846,4514.358974,4531.282051,4244.615384,4469.743589,4169.743589,4431.282051,4197.948717,4204.615384,4478.974358,4164.615384,4634.358974,3983.589744,4059.487179
240,4381.025641,4517.435897,4530.256410,4238.974358,4470.769230,4175.384615,4433.333333,4201.025641,4201.538461,4481.025641,4174.358974,4634.358974,3979.487180,4058.461538
241,4378.974358,4515.384615,4528.205128,4235.897435,4470.769230,4180.000000,4435.384615,4208.717948,4206.153846,4473.333333,4168.717948,4631.794871,3971.282052,4054.871794
242,4381.538461,4512.820512,4527.692307,4238.974358,4472.820512,4175.897435,4432.307692,4208.205128,4208.205128,4475.384615,4158.974358,4629.230769,3972.307693,4055.384615
243,4384.102564,4516.923076,4528.717948,4245.641025,4480.512820,4175.384615,4437.435897,4206.153846,4207.179487,4483.076923,4168.205128,4634.358974,3982.051283,4056.923076
244,4383.589743,4524.615384,4531.794871,4249.230769,4483.076923,4181.025641,4442.564102,4210.769230,4210.256410,4482.051282,4179.487179,4639.487179,3984.615385,4057.435897
245,4385.128205,4531.282051,4533.333333,4250.769230,4479.487179,4181.025641,4438.974358,4216.923076,4214.358974,4481.538461,4175.384615,4636.410256,3982.051283,4060.512820
246,4384.615384,4530.769230,4530.769230,4252.307692,4483.589743,4174.358974,4433.846153,4213.846153,4212.307692,4482.051282,4171.282051,4633.333333,3982.051283,4061.025641
247,4380.512820,4520.512820,4527.179487,4250.769230,4487.692307,4170.769230,4429.743589,4202.564102,4204.102564,4473.846153,4171.282051,4631.282051,3981.538462,4053.846153
248,4384.615384,4518.974358,4533.333333,4249.743589,4484.615384,4174.358974,4432.307692,4206.153846,4209.230769,4478.461538,4176.923076,4638.461538,3984.615385,4057.435897
249,4395.897435,4530.769230,4544.102564,4255.384615,4490.256410,4183.076923,4441.025641,4221.025641,4226.666666,4499.487179,4188.205128,4648.205128,3998.461539,4071.282051
250,4392.307692,4532.820512,4537.948717,4254.358974,4495.897435,4182.051282,4437.435897,4216.923076,4222.564102,4496.410256,4188.717948,4641.538461,3997.948718,4066.153846
251,4383.076923,4530.769230,4527.179487,4242.564102,4488.717948,4174.358974,4430.256410,4205.641025,4206.153846,4473.846153,4179.487179,4633.333333,3984.102565,4054.358974
252,4381.538461,4533.846153,4529.230769,4244.615384,4483.076923,4174.358974,4433.846153,4208.717948,4209.743589,4474.871794,4174.871794,4638.974358,3986.666667,4056.923076
253,4381.025641,4524.102564,4533.846153,4252.307692,4482.564102,4176.410256,4434.358974,4210.256410,4216.410256,4488.717948,4175.384615,4643.076923,3995.897436,4062.564102
254,4383.076923,4520.512820,4535.384615,4247.179487,4485.128205,4176.410256,4434.871794,4208.205128,4211.282051,4486.666666,4178.461538,4642.051282,3994.871795,4065.641025
255,4391.794871,4538.974358,4535.897435,4246.666666,4491.794871,4181.538461,4439.487179,4216.923076,4215.897435,4492.820512,4185.641025,4647.692307,4000.512820,4072.307692
256,4395.897435,4546.666666,4540.000000,4260.512820,4497.435897,4184.102564,4437.435897,4224.102564,4225.641025,4506.153846,4189.743589,4653.846153,4003.589743,4075.384615
257,4392.307692,4534.871794,4542.051282,4269.743589,4499.487179,4180.000000,4432.307692,4221.025641,4224.615384,4494.358974,4188.717948,4654.871794,3988.717949,4068.717948
258,4391.794871,4528.717948,4540.000000,4268.205128,4495.897435,4180.000000,4435.384615,4220.000000,4217.948717,4474.871794,4184.615384,4652.307692,3981.538462,4066.666666
259,4391.794871,4535.897435,4540.000000,4267.179487,4488.717948,4181.025641,4438.461538,4216.923076,4213.846153,4478.974358,4178.974358,4647.692307,3992.307693,4068.205128
