,AF3,F7,F3,FC5,T7,P7,O1,O2,P8,T8,FC6,F4,F8,AF4
0,4448.205128,4558.461538,4551.282051,4256.923076,4509.743589,4201.538461,4461.025641,4228.717948,4315.384615,4516.410256,4193.846153,4678.974358,4016.923076,4053.333333
1,4457.435897,4563.076923,4556.410256,4257.435897,4508.205128,4207.692307,4466.153846,4235.897435,4325.128205,4525.128205,4191.794871,4682.564102,4026.666666,4058.974358
2,4473.333333,4567.692307,4564.102564,4262.564102,4507.179487,4214.358974,4474.871794,4247.179487,4341.538461,4529.743589,4210.256410,4691.282051,4035.384615,4072.820512
3,4483.076923,4570.256410,4565.641025,4265.641025,4508.717948,4209.743589,4476.410256,4249.230769,4337.435897,4532.820512,4218.974358,4690.769230,4035.897435,4076.410256
4,4489.230769,4570.256410,4564.102564,4269.230769,4503.589743,4206.666666,4472.820512,4246.666666,4334.358974,4534.358974,4213.333333,4687.692307,4035.384615,4070.256410
5,4501.025641,4570.256410,4565.128205,4272.820512,4504.615384,4213.846153,4476.410256,4249.743589,4342.564102,4533.333333,4217.948717,4691.794871,4034.358974,4072.307692
6,4508.717948,4566.153846,4561.538461,4268.205128,4511.282051,4210.769230,4476.410256,4250.769230,4339.487179,4527.179487,4215.897435,4689.743589,4027.692307,4073.846153
7,4503.076923,4559.487179,4552.820512,4259.487179,4503.589743,4198.461538,4463.589743,4244.102564,4328.205128,4518.461538,4197.948717,4679.487179,4021.025641,4065.641025
8,4506.153846,4563.076923,4554.871794,4263.589743,4494.871794,4200.000000,4461.025641,4241.538461,4332.820512,4523.589743,4193.846153,4681.025641,4026.666666,4066.666666
9,4521.538461,4573.333333,4564.615384,4271.282051,4502.564102,4212.307692,4473.333333,4251.794871,4348.717948,4535.897435,4210.256410,4690.769230,4045.128205,4080.512820
10,4524.102564,4568.717948,4561.538461,4266.666666,4509.743589,4213.846153,4477.948717,4254.871794,4352.820512,4535.897435,4214.358974,4688.717948,4042.051282,4074.871794
11,4523.076923,4554.871794,4553.846153,4259.487179,4507.179487,4206.666666,4473.846153,4247.692307,4346.153846,4528.205128,4206.666666,4680.000000,4023.076923,4060.000000
12,4534.871794,4553.846153,4558.974358,4259.487179,4504.102564,4205.128205,4475.384615,4248.205128,4344.102564,4524.102564,4209.230769,4682.051282,4027.692307,4067.179487
13,4541.025641,4561.025641,4564.102564,4263.076923,4503.589743,4208.717948,4476.923076,4255.384615,4347.179487,4525.641025,4218.461538,4689.743589,4042.564102,4080.512820
14,4541.538461,4563.076923,4563.589743,4267.179487,4503.589743,4210.769230,4475.897435,4255.384615,4345.641025,4532.307692,4223.076923,4689.230769,4035.384615,4078.461538
15,4549.743589,4563.589743,4563.076923,4275.384615,4507.179487,4211.794871,4475.384615,4249.743589,4342.564102,4532.820512,4214.358974,4686.666666,4023.076923,4072.820512
16,4562.051282,4566.666666,4564.102564,4274.871794,4505.128205,4212.307692,4474.871794,4251.794871,4345.641025,4529.230769,4207.692307,4692.307692,4028.717948,4073.846153
17,4567.179487,4570.256410,4567.692307,4271.282051,4503.076923,4212.820512,4475.897435,4260.512820,4350.256410,4529.743589,4219.487179,4699.487179,4038.974358,4078.461538
18,4570.256410,4567.179487,4570.256410,4272.307692,4509.230769,4214.358974,4476.410256,4264.615384,4350.256410,4530.256410,4228.717948,4698.461538,4041.538461,4079.487179
19,4576.410256,4565.641025,4571.282051,4275.897435,4512.307692,4218.974358,4481.025641,4261.538461,4352.307692,4533.333333,4223.076923,4700.512820,4038.974358,4080.000000
20,4588.205128,4574.358974,4576.410256,4286.153846,4508.205128,4225.128205,4490.769230,4263.589743,4362.051282,4540.000000,4227.179487,4708.205128,4038.974358,4082.564102
21,4594.358974,4579.487179,4578.974358,4290.256410,4509.743589,4224.615384,4492.820512,4267.692307,4364.615384,4537.948717,4236.410256,4708.717948,4040.000000,4079.487179
22,4589.743589,4572.820512,4575.897435,4281.538461,4515.897435,4222.051282,4489.230769,4265.641025,4357.435897,4531.282051,4230.256410,4704.615384,4036.923076,4075.384615
23,4588.717948,4567.179487,4575.897435,4277.948717,4513.333333,4222.051282,4488.205128,4267.179487,4356.410256,4536.410256,4226.153846,4705.641025,4039.487179,4082.051282
24,4586.153846,4561.025641,4571.794871,4278.974358,4506.666666,4210.769230,4481.538461,4262.564102,4352.307692,4535.384615,4229.230769,4700.512820,4038.974358,4080.512820
25,4580.512820,4551.282051,4561.025641,4273.846153,4500.512820,4194.871794,4468.717948,4246.666666,4335.384615,4514.871794,4222.051282,4688.205128,4022.564102,4064.615384
26,4587.692307,4555.384615,4561.538461,4276.410256,4496.923076,4197.948717,4469.230769,4241.025641,4331.282051,4505.641025,4213.846153,4686.153846,4015.897435,4066.153846
27,4605.128205,4569.743589,4568.205128,4285.128205,4501.538461,4212.307692,4476.923076,4253.333333,4343.076923,4521.538461,4216.923076,4692.820512,4028.205128,4080.000000
28,4616.410256,4568.205128,4566.666666,4283.589743,4505.641025,4214.871794,4477.435897,4259.487179,4348.205128,4532.307692,4217.948717,4693.333333,4032.307692,4080.000000
29,4614.871794,4564.615384,4565.128205,4281.025641,4506.666666,4212.307692,4474.871794,4252.307692,4344.615384,4524.102564,4208.717948,4688.717948,4025.128205,4073.846153
30,4607.179487,4567.179487,4564.102564,4278.974358,4506.666666,4209.230769,4473.846153,4246.666666,4336.410256,4514.358974,4197.948717,4686.153846,4018.974358,4068.205128
31,4597.435897,4559.487179,4556.410256,4269.743589,4506.153846,4202.564102,4472.820512,4246.666666,4327.692307,4509.743589,4198.974358,4680.000000,4011.794871,4059.487179
32,4598.461538,4551.282051,4552.820512,4269.230769,4504.102564,4201.538461,4472.307692,4247.179487,4331.794871,4509.230769,4207.179487,4676.410256,4012.307692,4061.025641
33,4616.923076,4562.051282,4566.153846,4280.512820,4504.615384,4212.820512,4476.923076,4248.717948,4349.230769,4518.461538,4215.384615,4688.717948,4025.641025,4071.282051
34,4630.256410,4572.307692,4575.897435,4285.641025,4507.692307,4218.974358,4480.512820,4257.948717,4356.923076,4523.589743,4225.128205,4701.025641,4032.820512,4076.410256
35,4631.282051,4568.717948,4570.769230,4285.128205,4507.179487,4212.820512,4477.435897,4265.641025,4350.256410,4520.512820,4233.333333,4698.461538,4034.358974,4081.538461
36,4633.846153,4570.256410,4570.769230,4296.410256,4508.205128,4215.897435,4477.948717,4261.025641,4348.205128,4525.641025,4227.692307,4696.410256,4041.025641,4092.307692
37,4634.871794,4573.846153,4571.282051,4298.461538,4511.282051,4218.974358,4473.846153,4250.256410,4344.615384,4528.205128,4216.923076,4697.435897,4037.435897,4091.282051
38,4628.205128,4568.205128,4566.153846,4283.589743,4508.205128,4208.205128,4462.564102,4242.564102,4333.846153,4517.435897,4213.333333,4693.333333,4024.615384,4074.358974
39,4632.820512,4572.820512,4570.256410,4286.666666,4503.589743,4206.153846,4464.615384,4245.128205,4336.410256,4512.820512,4215.384615,4694.871794,4030.256410,4071.794871
40,4644.615384,4583.076923,4578.461538,4302.564102,4513.846153,4215.897435,4474.871794,4252.820512,4347.179487,4517.948717,4224.102564,4700.000000,4041.025641,4087.179487
41,4638.461538,4580.000000,4574.358974,4300.000000,4521.025641,4219.487179,4474.358974,4253.333333,4343.076923,4521.025641,4234.358974,4698.461538,4034.358974,4091.282051
42,4629.230769,4574.871794,4567.692307,4294.871794,4512.820512,4215.384615,4473.333333,4250.769230,4338.461538,4523.589743,4231.794871,4696.923076,4029.743589,4085.641025
43,4633.333333,4574.871794,4567.692307,4298.974358,4504.615384,4207.692307,4469.743589,4249.230769,4342.051282,4517.435897,4219.487179,4695.384615,4033.333333,4080.512820
44,4636.410256,4567.692307,4565.641025,4290.256410,4495.897435,4200.512820,4460.512820,4247.692307,4343.076923,4513.333333,4218.461538,4692.307692,4034.358974,4076.410256
45,4641.025641,4562.564102,4569.230769,4282.564102,4489.230769,4206.153846,4467.692307,4253.846153,4346.153846,4530.256410,4232.820512,4698.461538,4035.897435,4083.076923
46,4647.692307,4567.692307,4573.333333,4291.794871,4498.461538,4212.820512,4476.410256,4258.974358,4352.307692,4536.410256,4240.000000,4702.564102,4040.512820,4094.871794
47,4640.000000,4569.230769,4568.717948,4295.897435,4508.205128,4210.256410,4467.692307,4251.794871,4344.615384,4521.025641,4231.282051,4695.384615,4039.487179,4086.666666
48,4634.358974,4565.128205,4564.615384,4292.307692,4505.641025,4212.820512,4466.666666,4245.128205,4336.410256,4514.871794,4226.666666,4691.794871,4033.333333,4072.307692
49,4640.512820,4563.589743,4563.589743,4287.692307,4506.153846,4217.435897,4475.384615,4247.692307,4341.538461,4517.435897,4227.179487,4692.820512,4028.717948,4071.794871
50,4643.589743,4560.512820,4562.051282,4288.717948,4510.256410,4215.897435,4475.384615,4253.333333,4346.666666,4515.897435,4215.897435,4690.256410,4027.692307,4072.307692
51,4641.025641,4558.461538,4565.128205,4292.820512,4503.589743,4212.820512,4474.871794,4255.897435,4347.179487,4517.948717,4214.358974,4690.256410,4029.230769,4072.820512
52,4635.897435,4557.435897,4567.692307,4288.205128,4494.358974,4207.179487,4473.333333,4253.333333,4347.179487,4517.948717,4229.230769,4691.282051,4030.256410,4074.871794
53,4629.743589,4554.358974,4561.538461,4280.512820,4489.743589,4197.948717,4462.564102,4247.692307,4340.512820,4508.717948,4227.179487,4685.128205,4024.615384,4067.179487
54,4633.333333,4550.769230,4555.384615,4282.564102,4490.769230,4197.435897,4457.948717,4240.512820,4330.769230,4502.051282,4212.820512,4676.923076,4016.410256,4060.000000
55,4643.589743,4548.205128,4552.820512,4281.538461,4491.794871,4203.076923,4461.025641,4233.333333,4324.615384,4497.435897,4208.205128,4673.333333,4012.820512,4059.487179
56,4642.564102,4543.076923,4549.743589,4273.846153,4484.615384,4196.923076,4459.487179,4230.256410,4322.051282,4490.769230,4204.615384,4673.333333,4007.692307,4054.358974
57,4640.000000,4539.487179,4552.307692,4274.871794,4478.974358,4187.179487,4455.384615,4232.820512,4323.589743,4485.641025,4197.948717,4677.435897,4000.000000,4049.743589
58,4641.538461,4541.025641,4557.948717,4281.025641,4485.128205,4190.256410,4453.333333,4231.282051,4323.589743,4489.743589,4202.564102,4680.512820,4003.076923,4056.410256
59,4641.538461,4549.230769,4560.000000,4288.205128,4492.307692,4200.000000,4454.358974,4228.717948,4318.461538,4502.564102,4210.769230,4682.051282,4016.410256,4064.102564
60,4640.512820,4555.897435,4562.564102,4295.384615,4490.769230,4200.512820,4459.487179,4234.358974,4324.102564,4508.717948,4211.794871,4685.128205,4025.128205,4068.205128
61,4638.461538,4556.410256,4562.051282,4294.871794,4489.230769,4200.000000,4462.051282,4237.435897,4332.307692,4504.615384,4211.282051,4687.179487,4023.589743,4067.179487
62,4637.948717,4555.384615,4557.948717,4295.384615,4492.820512,4202.051282,4461.538461,4233.846153,4329.743589,4502.051282,4214.358974,4682.564102,4017.435897,4061.538461
63,4640.000000,4555.897435,4558.461538,4296.410256,4492.820512,4202.051282,4465.641025,4236.410256,4328.205128,4501.538461,4220.512820,4682.051282,4017.948717,4058.974358
64,4634.871794,4551.282051,4555.897435,4292.820512,4491.794871,4201.538461,4465.641025,4240.512820,4326.666666,4498.974358,4214.871794,4684.102564,4021.025641,4061.538461
65,4626.666666,4545.641025,4549.230769,4290.256410,4494.871794,4202.051282,4461.025641,4235.384615,4321.025641,4493.846153,4205.128205,4681.025641,4017.435897,4062.051282
66,4623.589743,4545.641025,4548.205128,4289.743589,4489.230769,4202.564102,4459.487179,4230.256410,4326.153846,4487.692307,4205.641025,4676.410256,4011.794871,4056.923076
67,4618.461538,4541.538461,4548.205128,4282.051282,4479.487179,4203.076923,4461.538461,4234.358974,4335.897435,4492.307692,4210.769230,4675.384615,4012.820512,4052.820512
68,4616.923076,4534.871794,4545.128205,4276.410256,4482.564102,4202.051282,4466.153846,4242.051282,4332.307692,4504.615384,4206.666666,4672.820512,4016.923076,4053.333333
69,4613.846153,4536.410256,4542.564102,4277.948717,4485.128205,4201.538461,4465.641025,4241.538461,4323.589743,4495.897435,4193.333333,4665.128205,4008.717948,4048.205128
70,4603.076923,4536.410256,4541.538461,4280.000000,4480.000000,4202.051282,4461.538461,4235.897435,4322.051282,4476.923076,4187.692307,4657.948717,3992.820513,4037.435897
71,4607.179487,4534.358974,4542.051282,4285.128205,4484.615384,4202.051282,4465.128205,4238.974358,4328.717948,4484.102564,4192.307692,4660.000000,3991.794872,4032.820512
72,4627.692307,4537.435897,4543.076923,4287.179487,4494.358974,4206.666666,4474.871794,4243.076923,4333.333333,4498.974358,4191.794871,4664.615384,3999.487180,4036.923076
73,4634.358974,4539.487179,4545.641025,4287.692307,4493.846153,4216.410256,4473.333333,4234.358974,4325.641025,4487.692307,4184.615384,4663.589743,4000.000000,4038.461538
74,4629.743589,4540.000000,4550.256410,4291.282051,4486.153846,4214.358974,4465.128205,4231.794871,4320.000000,4482.564102,4185.641025,4662.051282,3998.974359,4035.384615
75,4632.820512,4541.538461,4551.282051,4290.256410,4486.666666,4204.615384,4462.051282,4237.948717,4327.179487,4497.435897,4189.230769,4665.128205,4006.153846,4035.384615
76,4631.794871,4536.410256,4548.717948,4283.076923,4487.692307,4205.128205,4461.025641,4234.871794,4327.179487,4493.333333,4185.641025,4665.128205,4009.743589,4038.974358
77,4630.769230,4532.820512,4550.769230,4284.102564,4481.538461,4208.205128,4459.487179,4230.769230,4316.410256,4476.410256,4187.179487,4666.666666,4007.692307,4045.128205
78,4635.384615,4538.461538,4548.205128,4283.076923,4478.461538,4201.538461,4458.461538,4231.282051,4316.923076,4480.000000,4188.717948,4671.282051,4006.153846,4046.153846
79,4627.179487,4533.846153,4538.461538,4277.435897,4484.102564,4198.974358,4459.487179,4230.256410,4321.538461,4486.666666,4186.666666,4664.615384,4001.025641,4037.948717
80,4615.897435,4522.564102,4535.384615,4276.923076,4488.717948,4202.564102,4458.974358,4230.769230,4318.974358,4482.051282,4184.615384,4653.846153,3994.871795,4030.256410
81,4619.487179,4528.717948,4540.000000,4278.974358,4483.589743,4201.025641,4458.974358,4232.307692,4318.974358,4487.692307,4182.051282,4657.435897,4000.512820,4032.307692
82,4625.128205,4541.538461,4543.076923,4281.538461,4480.000000,4201.025641,4461.025641,4233.333333,4324.615384,4493.846153,4187.692307,4666.153846,4010.769230,4036.923076
83,4618.461538,4541.538461,4541.025641,4281.025641,4480.512820,4203.076923,4458.461538,4231.794871,4324.615384,4487.179487,4196.410256,4661.538461,4008.205128,4035.384615
84,4611.794871,4534.358974,4534.871794,4277.435897,4477.948717,4198.461538,4454.871794,4229.743589,4319.487179,4481.025641,4189.743589,4653.333333,4005.128205,4035.384615
85,4611.282051,4532.307692,4530.769230,4278.461538,4476.923076,4197.948717,4458.461538,4230.256410,4314.871794,4488.205128,4177.435897,4652.307692,4010.256410,4033.846153
86,4607.692307,4526.666666,4531.794871,4278.974358,4477.948717,4198.461538,4455.384615,4227.692307,4309.743589,4488.205128,4169.743589,4652.307692,4004.102564,4025.128205
87,4600.000000,4516.923076,4535.897435,4274.358974,4470.769230,4189.230769,4444.102564,4217.948717,4307.692307,4471.794871,4164.615384,4648.205128,3990.769231,4017.948717
88,4600.000000,4521.538461,4543.076923,4277.435897,4463.076923,4190.769230,4450.769230,4221.538461,4311.794871,4472.820512,4178.461538,4654.871794,3998.974359,4026.153846
89,4607.692307,4531.282051,4548.717948,4285.128205,4471.282051,4201.538461,4464.615384,4235.897435,4316.923076,4489.743589,4198.974358,4666.666666,4009.230769,4040.000000
90,4598.461538,4521.538461,4540.512820,4274.871794,4476.410256,4192.820512,4455.897435,4230.769230,4313.846153,4477.435897,4183.076923,4656.923076,3987.179488,4024.615384
91,4582.564102,4510.256410,4530.769230,4262.051282,4467.179487,4184.102564,4446.153846,4220.000000,4308.205128,4458.461538,4158.461538,4642.564102,3968.717949,4002.051282
92,4591.794871,4521.538461,4535.384615,4267.692307,4468.205128,4197.435897,4458.461538,4225.128205,4311.282051,4475.384615,4171.282051,4648.717948,3988.717949,4016.923076
93,4603.589743,4528.205128,4537.435897,4278.461538,4475.384615,4204.615384,4463.076923,4224.102564,4313.846153,4486.666666,4183.589743,4653.846153,4003.589743,4034.358974
94,4591.794871,4518.974358,4528.717948,4276.410256,4474.871794,4195.897435,4450.256410,4209.743589,4306.666666,4469.230769,4170.769230,4645.128205,3989.230770,4023.076923
95,4583.589743,4520.000000,4531.794871,4277.435897,4475.384615,4197.435897,4451.794871,4216.410256,4307.692307,4469.743589,4166.666666,4646.666666,3987.179488,4016.410256
96,4589.743589,4524.615384,4541.538461,4281.538461,4477.435897,4204.615384,4460.512820,4234.358974,4323.076923,4484.102564,4180.512820,4656.923076,4000.000000,4023.589743
97,4587.692307,4513.333333,4536.410256,4269.743589,4474.871794,4202.051282,4455.384615,4231.794871,4323.076923,4479.487179,4188.717948,4655.897435,3996.923077,4023.076923
98,4581.538461,4509.743589,4528.717948,4265.641025,4471.282051,4198.461538,4452.307692,4224.615384,4313.333333,4476.923076,4184.615384,4652.307692,3996.410257,4025.128205
99,4583.076923,4517.948717,4533.846153,4277.948717,4471.794871,4200.512820,4459.487179,4230.769230,4318.461538,4487.179487,4184.615384,4657.435897,4010.256410,4036.410256
100,4586.666666,4522.051282,4539.487179,4278.461538,4475.897435,4203.589743,4461.025641,4235.384615,4327.692307,4495.384615,4186.153846,4662.051282,4014.871794,4037.948717
101,4582.051282,4521.538461,4535.384615,4264.615384,4477.435897,4202.051282,4457.435897,4228.717948,4323.076923,4491.282051,4180.512820,4657.435897,4007.692307,4025.641025
102,4572.307692,4518.461538,4531.794871,4259.487179,4473.333333,4198.461538,4456.410256,4222.564102,4314.358974,4485.128205,4173.846153,4651.794871,4004.615384,4019.487179
103,4572.820512,4515.897435,4537.435897,4261.538461,4475.897435,4201.538461,4458.461538,4226.666666,4319.487179,4495.384615,4176.923076,4656.410256,4013.333333,4032.820512
104,4574.358974,4520.512820,4543.076923,4263.076923,4483.589743,4206.666666,4459.487179,4231.282051,4328.205128,4510.769230,4182.051282,4661.025641,4025.128205,4045.128205
105,4571.282051,4524.615384,4543.589743,4264.102564,4480.512820,4203.076923,4459.487179,4229.743589,4326.666666,4509.743589,4182.051282,4658.974358,4025.128205,4043.589743
106,4575.897435,4529.230769,4546.666666,4265.128205,4476.923076,4205.128205,4464.615384,4232.820512,4327.692307,4510.769230,4186.153846,4662.051282,4023.589743,4047.179487
107,4578.461538,4535.384615,4550.256410,4263.589743,4485.641025,4211.794871,4467.692307,4239.487179,4337.435897,4528.205128,4189.230769,4669.743589,4033.846153,4051.794871
108,4569.230769,4528.205128,4545.128205,4257.948717,4492.820512,4207.179487,4461.538461,4235.384615,4335.384615,4530.769230,4180.000000,4667.179487,4031.794871,4048.205128
109,4562.051282,4524.615384,4542.051282,4255.384615,4490.256410,4203.589743,4455.384615,4228.717948,4323.589743,4516.410256,4165.641025,4661.538461,4022.051282,4046.666666
110,4560.000000,4532.307692,4547.179487,4254.358974,4486.666666,4209.230769,4463.076923,4232.307692,4325.641025,4520.512820,4165.641025,4664.615384,4030.769230,4051.282051
111,4555.384615,4534.358974,4547.692307,4252.820512,4488.205128,4213.846153,4474.871794,4235.384615,4332.307692,4529.743589,4180.000000,4668.717948,4041.025641,4058.974358
112,4555.384615,4531.282051,4547.692307,4255.384615,4489.743589,4211.282051,4471.282051,4233.846153,4329.743589,4522.051282,4183.076923,4668.205128,4033.333333,4059.487179
113,4557.948717,4530.769230,4549.743589,4263.076923,4492.307692,4208.717948,4461.025641,4232.820512,4328.205128,4515.384615,4172.307692,4668.205128,4024.102564,4051.282051
114,4553.846153,4529.743589,4547.179487,4263.589743,4493.846153,4205.128205,4457.435897,4231.282051,4328.205128,4520.512820,4163.076923,4665.641025,4021.538461,4047.179487
115,4552.820512,4531.794871,4544.615384,4254.871794,4488.717948,4200.512820,4458.461538,4228.205128,4326.153846,4518.461538,4161.538461,4663.076923,4022.564102,4054.358974
116,4561.025641,4541.025641,4549.743589,4256.923076,4483.589743,4205.641025,4458.974358,4230.256410,4329.743589,4515.897435,4169.743589,4667.692307,4033.333333,4065.641025
117,4563.589743,4538.461538,4554.871794,4264.102564,4488.205128,4212.820512,4461.538461,4235.384615,4331.282051,4516.410256,4170.769230,4672.307692,4035.384615,4068.717948
118,4555.384615,4527.179487,4549.230769,4261.025641,4492.820512,4209.743589,4460.512820,4230.256410,4322.564102,4510.256410,4160.000000,4667.179487,4022.051282,4065.128205
119,4551.794871,4527.692307,4543.076923,4254.358974,4489.230769,4206.153846,4457.948717,4224.102564,4318.461538,4512.820512,4156.923076,4661.025641,4020.000000,4064.615384
120,4556.923076,4532.820512,4544.102564,4254.358974,4491.794871,4210.256410,4460.000000,4227.692307,4324.615384,4522.051282,4161.025641,4662.564102,4032.307692,4068.205128
121,4558.461538,4529.230769,4544.615384,4252.307692,4497.948717,4211.794871,4458.974358,4230.769230,4329.743589,4515.897435,4156.410256,4662.051282,4033.846153,4067.179487
122,4555.384615,4529.743589,4544.615384,4251.282051,4494.358974,4211.794871,4463.076923,4230.769230,4335.384615,4514.871794,4157.948717,4661.538461,4027.692307,4064.615384
123,4555.897435,4539.487179,4547.179487,4262.051282,4491.282051,4218.461538,4472.307692,4233.846153,4337.948717,4527.179487,4173.846153,4667.179487,4030.256410,4065.128205
124,4558.974358,4541.025641,4550.256410,4267.692307,4492.820512,4219.487179,4475.897435,4238.974358,4335.384615,4524.102564,4178.974358,4671.794871,4038.461538,4067.692307
125,4558.461538,4532.820512,4546.666666,4256.923076,4494.871794,4213.846153,4471.282051,4237.435897,4334.871794,4520.512820,4167.179487,4671.794871,4037.948717,4071.794871
126,4551.282051,4524.102564,4538.974358,4247.179487,4493.333333,4206.153846,4464.102564,4231.794871,4331.282051,4526.666666,4157.948717,4666.153846,4029.230769,4069.743589
127,4550.256410,4525.128205,4541.538461,4254.358974,4490.769230,4204.102564,4460.000000,4234.871794,4330.256410,4522.564102,4161.025641,4663.589743,4028.717948,4064.615384
128,4556.923076,4537.948717,4551.282051,4266.153846,4492.820512,4214.358974,4462.051282,4245.128205,4338.974358,4520.000000,4171.794871,4670.769230,4035.384615,4072.820512
129,4553.846153,4539.487179,4551.794871,4264.615384,4495.384615,4217.948717,4468.205128,4246.666666,4342.051282,4528.205128,4171.794871,4674.871794,4037.948717,4085.641025
130,4542.564102,4531.794871,4546.666666,4258.974358,4493.333333,4213.333333,4472.307692,4245.641025,4343.589743,4530.769230,4162.564102,4672.307692,4036.410256,4084.102564
131,4538.461538,4534.871794,4545.128205,4262.564102,4491.794871,4216.410256,4473.333333,4247.692307,4346.666666,4522.564102,4160.000000,4669.743589,4031.282051,4074.358974
132,4538.461538,4539.487179,4548.205128,4268.717948,4493.333333,4220.000000,4472.307692,4244.615384,4341.538461,4516.410256,4165.128205,4668.205128,4023.589743,4071.282051
133,4535.897435,4534.358974,4551.794871,4268.717948,4492.307692,4212.307692,4471.282051,4241.538461,4339.487179,4525.128205,4172.307692,4668.205128,4029.743589,4077.435897
134,4537.435897,4528.205128,4550.256410,4263.589743,4492.307692,4207.179487,4467.692307,4244.102564,4343.589743,4532.307692,4172.820512,4673.333333,4040.000000,4086.153846
135,4538.461538,4529.230769,4547.179487,4261.538461,4486.666666,4211.794871,4465.641025,4244.102564,4338.974358,4524.102564,4164.102564,4676.410256,4040.512820,4090.769230
136,4531.282051,4536.923076,4551.794871,4266.666666,4478.461538,4217.948717,4474.358974,4246.666666,4336.410256,4521.538461,4164.102564,4675.897435,4043.589743,4090.256410
137,4521.025641,4537.948717,4553.846153,4267.179487,4485.641025,4215.384615,4477.948717,4251.282051,4344.102564,4526.666666,4168.205128,4675.897435,4043.589743,4082.051282
138,4511.794871,4527.692307,4544.615384,4258.974358,4489.743589,4207.179487,4467.692307,4243.076923,4343.589743,4514.871794,4159.487179,4669.230769,4030.256410,4075.897435
139,4497.435897,4522.564102,4533.846153,4249.743589,4477.435897,4202.051282,4459.487179,4232.820512,4331.794871,4508.717948,4151.282051,4658.974358,4018.461538,4075.384615
140,4486.153846,4522.564102,4530.256410,4244.615384,4470.769230,4200.512820,4457.948717,4234.871794,4326.153846,4518.461538,4150.769230,4653.333333,4021.025641,4075.897435
141,4487.179487,4523.076923,4535.897435,4251.794871,4475.897435,4201.538461,4460.000000,4242.051282,4333.846153,4511.282051,4156.410256,4657.948717,4031.794871,4071.794871
142,4492.820512,4526.666666,4544.102564,4263.589743,4476.923076,4209.230769,4468.717948,4247.692307,4342.564102,4506.666666,4165.128205,4669.230769,4036.410256,4075.897435
143,4493.846153,4526.153846,4547.179487,4265.128205,4473.846153,4211.794871,4469.743589,4243.076923,4337.435897,4517.948717,4164.615384,4673.333333,4032.307692,4086.666666
144,4491.794871,4523.589743,4543.076923,4260.512820,4479.487179,4208.717948,4465.128205,4238.974358,4333.846153,4517.948717,4155.384615,4667.692307,4032.307692,4085.641025
145,4491.794871,4526.153846,4539.487179,4261.025641,4485.641025,4209.743589,4464.102564,4244.102564,4337.435897,4510.256410,4149.743589,4662.051282,4033.846153,4076.923076
146,4491.282051,4529.230769,4541.025641,4265.128205,4484.615384,4209.743589,4463.589743,4243.589743,4337.948717,4513.333333,4150.256410,4664.102564,4028.717948,4068.205128
147,4481.538461,4524.102564,4540.000000,4264.615384,4476.410256,4204.615384,4459.487179,4233.846153,4335.897435,4516.410256,4151.282051,4662.564102,4022.051282,4065.128205
148,4473.333333,4521.538461,4537.948717,4262.051282,4473.333333,4204.615384,4460.512820,4231.794871,4333.333333,4511.794871,4152.820512,4657.435897,4024.615384,4073.846153
149,4475.897435,4524.102564,4536.410256,4262.051282,4477.435897,4207.179487,4461.025641,4234.358974,4325.128205,4500.512820,4148.717948,4655.897435,4025.641025,4082.051282
150,4474.358974,4522.051282,4531.794871,4262.564102,4478.974358,4202.051282,4457.948717,4231.794871,4317.435897,4489.743589,4137.948717,4652.307692,4017.435897,4069.743589
151,4469.230769,4517.948717,4525.128205,4258.461538,4473.333333,4198.461538,4458.974358,4231.794871,4323.589743,4498.461538,4131.282051,4647.692307,4012.307692,4058.974358
152,4481.538461,4524.615384,4530.256410,4258.461538,4472.820512,4207.692307,4460.512820,4238.461538,4334.358974,4510.256410,4140.512820,4651.282051,4020.000000,4073.846153
153,4501.538461,4533.333333,4537.435897,4261.538461,4483.589743,4213.846153,4461.538461,4244.615384,4332.307692,4503.076923,4149.230769,4656.410256,4024.615384,4083.589743
154,4504.102564,4526.153846,4530.769230,4259.487179,4486.153846,4206.666666,4461.025641,4244.615384,4328.717948,4504.102564,4140.512820,4650.256410,4018.974358,4073.333333
155,4504.615384,4518.974358,4529.230769,4261.025641,4475.384615,4204.615384,4460.512820,4243.589743,4335.897435,4514.358974,4141.025641,4649.743589,4018.974358,4072.820512
156,4514.871794,4524.615384,4537.435897,4268.205128,4473.333333,4212.820512,4461.538461,4246.153846,4340.000000,4510.769230,4151.282051,4656.410256,4026.153846,4083.589743
157,4522.051282,4528.205128,4537.435897,4268.717948,4482.564102,4213.846153,4461.538461,4248.205128,4334.358974,4504.102564,4150.256410,4655.384615,4030.769230,4087.692307
158,4520.000000,4524.102564,4531.282051,4262.051282,4485.641025,4211.794871,4460.000000,4247.179487,4331.794871,4510.256410,4147.179487,4652.307692,4029.743589,4086.666666
159,4522.564102,4526.666666,4531.794871,4263.076923,4478.461538,4210.256410,4459.487179,4243.076923,4333.846153,4510.769230,4151.794871,4653.333333,4028.205128,4089.230769
160,4527.179487,4533.846153,4534.358974,4271.282051,4475.384615,4203.589743,4459.487179,4237.435897,4329.230769,4497.435897,4148.205128,4654.358974,4021.538461,4086.153846
161,4517.435897,4527.692307,4529.743589,4265.128205,4477.948717,4199.487179,4451.282051,4231.282051,4319.487179,4485.641025,4129.743589,4648.205128,4004.102564,4070.769230
162,4511.282051,4520.000000,4523.589743,4252.820512,4475.897435,4200.512820,4447.179487,4228.717948,4319.487179,4484.615384,4122.564102,4643.076923,3998.461539,4064.615384
163,4526.666666,4525.641025,4527.179487,4259.487179,4472.307692,4203.076923,4455.384615,4238.974358,4328.205128,4494.871794,4140.000000,4648.717948,4018.461538,4081.025641
164,4538.461538,4529.743589,4533.846153,4270.256410,4474.871794,4206.153846,4462.051282,4246.153846,4332.307692,4507.692307,4158.461538,4657.435897,4030.769230,4093.846153
165,4534.871794,4518.461538,4533.333333,4265.641025,4475.384615,4199.487179,4457.435897,4236.410256,4331.794871,4507.692307,4155.897435,4656.923076,4017.435897,4079.487179
166,4541.538461,4515.384615,4530.256410,4262.051282,4472.307692,4194.358974,4453.846153,4229.743589,4326.666666,4494.871794,4149.743589,4653.333333,4015.384615,4066.153846
167,4554.871794,4525.128205,4527.179487,4264.615384,4474.358974,4198.461538,4451.282051,4233.333333,4315.384615,4488.205128,4148.717948,4650.256410,4022.564102,4073.846153
168,4556.923076,4525.128205,4524.102564,4264.615384,4477.435897,4199.487179,4446.153846,4234.871794,4313.846153,4497.948717,4148.717948,4648.205128,4017.435897,4079.487179
169,4561.025641,4523.589743,4528.717948,4271.282051,4474.871794,4201.025641,4451.282051,4236.923076,4327.179487,4508.717948,4155.384615,4655.384615,4017.435897,4082.564102
170,4569.743589,4530.256410,4534.358974,4279.487179,4476.923076,4203.076923,4458.974358,4238.461538,4332.820512,4507.692307,4159.487179,4658.974358,4025.128205,4083.589743
171,4570.256410,4531.794871,4531.794871,4278.461538,4483.076923,4201.538461,4455.897435,4232.820512,4323.076923,4498.974358,4150.769230,4655.897435,4024.615384,4073.333333
172,4567.179487,4525.641025,4530.769230,4280.512820,4482.051282,4201.025641,4449.743589,4232.307692,4317.435897,4491.282051,4146.153846,4655.897435,4023.589743,4063.076923
173,4568.717948,4521.538461,4529.743589,4278.974358,4477.435897,4198.974358,4444.615384,4230.769230,4318.461538,4487.692307,4147.692307,4652.307692,4015.897435,4064.615384
174,4572.820512,4521.025641,4525.128205,4266.666666,4473.333333,4195.897435,4443.589743,4226.153846,4320.512820,4489.230769,4146.153846,4650.769230,4004.102564,4069.743589
175,4582.051282,4524.102564,4530.256410,4265.641025,4475.384615,4198.461538,4453.846153,4235.384615,4327.179487,4501.538461,4154.358974,4664.615384,4015.897435,4074.358974
176,4594.871794,4529.230769,4545.641025,4279.487179,4481.025641,4204.615384,4464.615384,4249.743589,4336.923076,4515.897435,4167.179487,4674.358974,4034.871794,4078.974358
177,4598.461538,4535.384615,4548.205128,4285.128205,4480.000000,4205.128205,4461.538461,4253.333333,4338.461538,4516.410256,4167.692307,4667.692307,4028.717948,4077.435897
178,4589.743589,4535.384615,4537.435897,4283.076923,4478.974358,4202.564102,4457.948717,4247.692307,4329.230769,4502.564102,4160.000000,4662.564102,4020.000000,4076.410256
179,4583.589743,4528.205128,4534.358974,4281.538461,4484.102564,4201.025641,4459.487179,4237.435897,4325.128205,4491.282051,4156.410256,4663.076923,4024.102564,4073.333333
180,4583.589743,4521.538461,4535.384615,4276.923076,4483.076923,4200.000000,4458.461538,4238.974358,4334.358974,4498.461538,4162.564102,4665.641025,4024.102564,4068.205128
181,4575.897435,4522.564102,4536.923076,4275.897435,4477.948717,4200.512820,4458.461538,4250.256410,4343.076923,4511.282051,4168.717948,4667.692307,4019.487179,4073.846153
182,4567.179487,4523.589743,4541.025641,4279.487179,4477.435897,4200.512820,4459.487179,4245.641025,4333.333333,4504.102564,4161.538461,4663.076923,4016.410256,4075.384615
183,4575.897435,4522.051282,4538.461538,4278.974358,4477.435897,4200.000000,4459.487179,4233.846153,4322.564102,4492.820512,4151.282051,4656.923076,4016.410256,4068.205128
184,4584.102564,4523.589743,4531.282051,4278.974358,4475.897435,4200.512820,4455.897435,4233.846153,4326.153846,4500.000000,4156.410256,4655.897435,4022.564102,4067.179487
185,4575.384615,4524.615384,4527.692307,4277.435897,4476.923076,4201.025641,4447.179487,4227.692307,4321.538461,4500.512820,4160.512820,4654.358974,4023.076923,4062.051282
186,4568.205128,4519.487179,4529.230769,4274.358974,4479.487179,4197.435897,4441.538461,4214.871794,4306.666666,4484.615384,4144.615384,4650.769230,4012.307692,4050.256410
187,4576.410256,4524.102564,4528.205128,4278.974358,4481.025641,4195.897435,4444.615384,4217.435897,4309.743589,4484.102564,4141.025641,4651.794871,4012.820512,4050.769230
188,4584.615384,4534.871794,4524.102564,4286.153846,4476.923076,4201.025641,4447.179487,4222.051282,4320.512820,4494.871794,4150.256410,4647.692307,4022.564102,4057.435897
189,4580.000000,4530.256410,4517.435897,4278.974358,4471.282051,4196.923076,4443.589743,4214.871794,4309.230769,4486.153846,4143.589743,4638.461538,4010.256410,4049.230769
190,4576.410256,4519.487179,4512.307692,4268.717948,4474.358974,4190.256410,4440.000000,4209.743589,4292.820512,4473.846153,4136.410256,4635.897435,3990.769231,4034.871794
191,4583.589743,4523.076923,4514.871794,4274.871794,4474.358974,4194.871794,4442.051282,4214.358974,4298.461538,4477.948717,4153.846153,4640.512820,3997.435898,4033.333333
192,4586.666666,4523.589743,4516.923076,4280.512820,4466.153846,4193.333333,4443.076923,4217.948717,4306.666666,4483.076923,4157.435897,4640.512820,4006.666666,4038.461538
193,4581.538461,4515.384615,4515.897435,4277.435897,4458.974358,4189.743589,4439.487179,4215.384615,4303.589743,4485.128205,4139.487179,4634.358974,3997.948718,4036.923076
194,4583.076923,4518.461538,4521.538461,4274.871794,4457.435897,4196.410256,4440.512820,4214.358974,4305.641025,4486.153846,4141.538461,4637.948717,4002.564102,4036.923076
195,4587.692307,4524.615384,4526.153846,4277.948717,4458.974358,4200.512820,4445.128205,4218.974358,4313.846153,4486.153846,4153.846153,4644.615384,4015.897435,4042.051282
196,4584.615384,4522.564102,4520.512820,4276.410256,4458.974358,4193.846153,4443.589743,4223.589743,4313.846153,4487.179487,4153.333333,4640.512820,4006.666666,4037.948717
197,4584.615384,4517.435897,4518.461538,4267.692307,4459.487179,4189.230769,4440.512820,4227.692307,4315.897435,4488.717948,4152.820512,4639.487179,3997.435898,4031.282051
198,4594.871794,4514.358974,4523.076923,4268.205128,4460.512820,4191.794871,4442.051282,4232.820512,4325.128205,4492.307692,4156.410256,4647.692307,4007.179487,4035.897435
199,4602.564102,4511.794871,4523.076923,4277.948717,4457.948717,4192.307692,4442.051282,4231.794871,4324.615384,4499.487179,4163.589743,4652.307692,4014.358974,4038.974358
200,4602.564102,4515.897435,4525.128205,4283.589743,4457.948717,4192.820512,4442.564102,4229.230769,4320.512820,4501.538461,4172.820512,4652.820512,4015.384615,4036.410256
201,4602.564102,4521.538461,4527.692307,4278.974358,4461.025641,4192.307692,4445.128205,4228.717948,4318.974358,4491.794871,4172.307692,4650.769230,4017.435897,4038.461538
202,4599.487179,4513.846153,4519.487179,4271.794871,4452.307692,4188.717948,4436.923076,4222.051282,4310.769230,4479.487179,4155.897435,4640.000000,4008.717948,4038.461538
203,4592.820512,4504.615384,4512.307692,4266.666666,4445.128205,4185.641025,4432.307692,4214.871794,4305.128205,4479.487179,4142.051282,4633.846153,3995.897436,4029.743589
204,4594.871794,4505.641025,4516.410256,4262.564102,4449.743589,4186.153846,4441.025641,4215.897435,4312.307692,4488.717948,4148.205128,4639.487179,3998.974359,4023.589743
205,4601.025641,4506.153846,4515.897435,4262.564102,4448.205128,4185.641025,4446.153846,4217.948717,4316.923076,4488.717948,4158.974358,4638.974358,4005.641025,4022.564102
206,4594.871794,4502.051282,4509.230769,4261.538461,4446.153846,4188.205128,4441.025641,4217.435897,4307.692307,4476.923076,4153.846153,4632.307692,3999.487180,4017.948717
207,4592.307692,4507.692307,4510.256410,4266.666666,4454.871794,4196.410256,4443.076923,4220.000000,4304.615384,4475.897435,4149.230769,4632.307692,3997.948718,4018.461538
208,4602.564102,4515.384615,4512.307692,4273.333333,4460.512820,4194.358974,4446.153846,4221.538461,4311.282051,4479.487179,4158.974358,4633.846153,4008.205128,4028.205128
209,4600.000000,4508.205128,4506.153846,4269.743589,4459.487179,4184.615384,4436.923076,4215.897435,4306.153846,4472.820512,4157.435897,4632.307692,4004.102564,4024.102564
210,4586.153846,4503.589743,4502.564102,4265.128205,4455.384615,4185.641025,4431.282051,4211.794871,4301.538461,4476.410256,4143.589743,4631.794871,3993.333334,4012.307692
211,4592.307692,4513.846153,4510.256410,4265.128205,4452.820512,4192.820512,4440.000000,4218.461538,4317.435897,4492.307692,4151.282051,4634.871794,4002.051282,4022.564102
212,4604.102564,4520.000000,4520.000000,4266.666666,4466.666666,4200.512820,4448.205128,4230.256410,4326.153846,4504.615384,4174.871794,4640.000000,4011.794871,4033.333333
213,4602.564102,4518.461538,4524.102564,4266.666666,4480.000000,4203.589743,4452.307692,4232.820512,4321.025641,4511.794871,4179.487179,4647.179487,4012.307692,4025.128205
214,4598.461538,4520.512820,4528.205128,4264.102564,4474.358974,4200.512820,4453.333333,4232.307692,4327.692307,4505.641025,4165.128205,4652.820512,4017.435897,4018.974358
215,4593.846153,4515.384615,4527.179487,4256.923076,4471.282051,4197.948717,4446.666666,4233.333333,4330.256410,4495.897435,4153.846153,4650.769230,4016.410256,4018.974358
216,4586.666666,4509.743589,4525.128205,4251.282051,4475.897435,4198.974358,4442.564102,4229.743589,4317.435897,4507.179487,4153.333333,4647.692307,4010.769230,4026.666666
217,4586.666666,4516.410256,4529.230769,4248.717948,4472.307692,4200.512820,4447.179487,4228.205128,4312.307692,4522.564102,4151.794871,4649.743589,4012.820512,4035.897435
218,4589.743589,4520.512820,4530.256410,4247.692307,4471.794871,4199.487179,4444.615384,4232.307692,4318.461538,4516.410256,4145.128205,4651.794871,4013.333333,4028.205128
219,4585.128205,4519.487179,4527.692307,4253.846153,4480.000000,4198.974358,4445.641025,4232.307692,4315.897435,4505.641025,4138.461538,4651.282051,4008.205128,4019.487179
220,4578.461538,4517.435897,4527.692307,4258.461538,4480.000000,4202.564102,4457.948717,4228.717948,4308.717948,4503.589743,4138.461538,4646.666666,4009.743589,4027.179487
221,4574.871794,4515.384615,4530.256410,4252.307692,4474.358974,4205.128205,4461.025641,4229.743589,4312.820512,4506.153846,4143.589743,4645.128205,4011.794871,4033.333333
222,4572.307692,4514.358974,4529.743589,4244.615384,4472.307692,4200.000000,4456.410256,4236.410256,4325.641025,4515.897435,4148.205128,4649.743589,4011.282051,4030.256410
223,4575.897435,4521.538461,4531.794871,4246.666666,4474.358974,4205.128205,4460.000000,4244.615384,4332.820512,4525.641025,4151.794871,4657.948717,4020.000000,4036.923076
224,4583.589743,4532.820512,4535.897435,4254.871794,4483.589743,4217.948717,4464.102564,4249.230769,4330.769230,4524.102564,4157.948717,4662.564102,4025.641025,4046.666666
225,4584.102564,4534.871794,4534.358974,4253.333333,4491.282051,4211.282051,4460.512820,4244.615384,4328.205128,4518.974358,4156.923076,4662.051282,4022.051282,4045.641025
226,4578.974358,4528.205128,4528.717948,4247.179487,4487.692307,4201.538461,4458.974358,4241.025641,4329.230769,4521.538461,4148.205128,4656.923076,4023.076923,4042.564102
227,4582.564102,4529.743589,4530.256410,4255.384615,4482.051282,4212.307692,4465.641025,4248.205128,4333.846153,4533.333333,4155.384615,4658.974358,4033.846153,4052.307692
228,4588.205128,4541.538461,4537.435897,4267.179487,4488.717948,4221.025641,4473.846153,4253.333333,4338.974358,4540.512820,4171.794871,4668.205128,4040.512820,4062.051282
229,4586.153846,4540.000000,4538.974358,4265.641025,4492.307692,4215.384615,4471.794871,4250.256410,4341.538461,4538.461538,4174.871794,4669.230769,4038.461538,4057.948717
230,4579.487179,4534.871794,4536.410256,4262.051282,4488.205128,4212.820512,4464.615384,4248.717948,4345.128205,4535.384615,4165.128205,4663.589743,4037.948717,4049.743589
231,4567.179487,4536.923076,4530.256410,4261.538461,4490.256410,4211.282051,4459.487179,4249.743589,4339.487179,4529.743589,4152.820512,4660.512820,4037.435897,4044.102564
232,4567.692307,4537.948717,4528.205128,4261.025641,4493.333333,4210.769230,4457.948717,4248.717948,4326.666666,4517.435897,4151.794871,4658.974358,4037.948717,4048.205128
233,4584.615384,4540.000000,4534.871794,4265.128205,4488.205128,4217.435897,4469.230769,4253.846153,4331.282051,4518.461538,4168.205128,4663.076923,4043.076923,4061.538461
234,4590.256410,4542.564102,4538.461538,4268.717948,4485.641025,4222.564102,4480.000000,4262.051282,4345.641025,4535.897435,4174.358974,4670.256410,4043.589743,4064.615384
235,4576.410256,4537.435897,4531.282051,4259.487179,4490.256410,4215.384615,4467.179487,4255.897435,4336.923076,4533.333333,4158.974358,4663.076923,4029.743589,4049.743589
236,4572.820512,4534.358974,4526.153846,4255.897435,4493.333333,4205.641025,4453.333333,4238.461538,4316.410256,4510.769230,4153.846153,4650.256410,4016.410256,4044.615384
237,4587.692307,4545.641025,4535.384615,4269.743589,4490.256410,4208.205128,4456.923076,4235.897435,4319.487179,4509.743589,4164.102564,4658.461538,4024.615384,4055.897435
238,4595.897435,4553.333333,4546.153846,4275.384615,4485.641025,4216.923076,4459.487179,4247.692307,4332.820512,4526.666666,4168.205128,4673.846153,4040.000000,4062.051282
239,4595.897435,4549.743589,4548.205128,4269.230769,4486.666666,4216.410256,4457.435897,4250.256410,4331.794871,4526.153846,4169.743589,4673.846153,4042.051282,4062.564102
240,4592.307692,4547.692307,4547.692307,4269.743589,4485.641025,4211.794871,4461.538461,4246.153846,4328.717948,4519.487179,4170.256410,4670.769230,4036.923076,4064.615384
241,4580.000000,4545.128205,4543.589743,4267.179487,4483.589743,4217.948717,4462.564102,4249.230769,4332.307692,4523.076923,4158.974358,4669.743589,4031.794871,4059.487179
242,4566.666666,4535.897435,4533.846153,4256.923076,4486.153846,4217.948717,4458.461538,4248.205128,4329.230769,4523.076923,4144.615384,4658.974358,4021.025641,4043.589743
243,4570.256410,4532.820512,4527.692307,4261.025641,4488.205128,4204.615384,4457.948717,4243.589743,4324.615384,4517.948717,4147.692307,4650.769230,4013.333333,4038.974358
244,4574.358974,4538.974358,4530.256410,4267.692307,4489.230769,4206.153846,4458.974358,4246.666666,4327.179487,4516.923076,4160.000000,4654.871794,4023.076923,4053.846153
245,4567.179487,4533.846153,4533.846153,4258.974358,4485.641025,4215.897435,4458.974358,4247.179487,4325.641025,4516.923076,4166.153846,4661.025641,4032.307692,4057.948717
246,4572.307692,4527.179487,4532.820512,4258.974358,4484.102564,4210.256410,4459.487179,4240.000000,4317.948717,4514.871794,4171.282051,4663.589743,4028.205128,4046.153846
247,4585.128205,4531.794871,4529.743589,4266.666666,4488.717948,4203.589743,4456.923076,4237.435897,4317.948717,4515.384615,4170.769230,4664.102564,4024.102564,4041.538461
248,4586.666666,4537.948717,4533.333333,4265.641025,4486.153846,4207.692307,4455.897435,4244.615384,4329.743589,4522.051282,4167.692307,4666.666666,4033.333333,4044.615384
249,4582.051282,4537.948717,4541.025641,4267.179487,4482.564102,4212.820512,4467.692307,4256.923076,4342.051282,4527.179487,4181.538461,4671.282051,4042.051282,4046.666666
250,4580.000000,4537.435897,4536.923076,4270.769230,4487.179487,4213.333333,4472.820512,4260.512820,4341.538461,4521.025641,4193.333333,4669.230769,4035.897435,4053.846153
251,4578.974358,4537.948717,4527.692307,4266.153846,4485.641025,4207.692307,4461.538461,4251.794871,4329.743589,4513.333333,4180.000000,4662.051282,4027.179487,4061.538461
252,4580.512820,4537.948717,4534.871794,4269.743589,4473.333333,4205.641025,4456.410256,4248.717948,4329.230769,4515.384615,4172.820512,4666.153846,4031.282051,4058.461538
253,4588.205128,4540.512820,4548.205128,4279.487179,4472.820512,4210.769230,4461.538461,4252.820512,4337.435897,4522.564102,4184.102564,4678.461538,4035.897435,4049.743589
254,4596.923076,4542.564102,4553.846153,4278.974358,4480.000000,4214.358974,4463.589743,4252.307692,4337.435897,4527.692307,4186.666666,4681.538461,4034.358974,4050.769230
255,4601.538461,4540.512820,4554.871794,4278.461538,4478.974358,4211.794871,4462.564102,4247.692307,4334.871794,4525.128205,4180.000000,4680.000000,4030.769230,4056.410256
256,4603.076923,4533.333333,4549.743589,4274.871794,4477.435897,4206.153846,4463.076923,4246.666666,4333.846153,4512.820512,4177.435897,4678.461538,4025.641025,4054.871794
257,4604.615384,4530.256410,4545.128205,4265.641025,4483.076923,4206.666666,4463.076923,4247.692307,4332.307692,4510.769230,4175.384615,4671.282051,4023.076923,4047.692307
258,4599.487179,4530.769230,4546.153846,4265.128205,4487.179487,4212.307692,4464.102564,4247.692307,4331.282051,4517.435897,4169.230769,4666.666666,4018.461538,4038.974358
259,4590.256410,4528.717948,4545.128205,4270.769230,4482.564102,4209.743589,4465.128205,4247.692307,4331.794871,4509.743589,4170.769230,4669.230769,4010.256410,4033.333333
