,AF3,F7,F3,FC5,T7,P7,O1,O2,P8,T8,FC6,F4,F8,AF4
0,4394.358974,4585.128205,4530.256410,4257.948717,4514.358974,4256.923076,4444.615384,4227.692307,4230.769230,4493.333333,4209.230769,4647.692307,4007.692307,4056.410256
1,4399.487179,4586.153846,4535.897435,4264.615384,4514.358974,4257.948717,4444.615384,4228.717948,4230.769230,4494.358974,4216.410256,4652.307692,4012.307692,4065.128205
2,4401.025641,4585.128205,4538.461538,4263.589743,4515.384615,4258.461538,4446.666666,4227.179487,4230.256410,4492.307692,4222.564102,4652.307692,4024.102564,4067.692307
3,4399.487179,4582.051282,4536.410256,4261.538461,4515.897435,4257.948717,4445.641025,4230.769230,4234.358974,4495.384615,4225.641025,4653.333333,4020.000000,4064.102564
4,4400.000000,4587.692307,4535.897435,4263.589743,4514.358974,4258.974358,4445.128205,4234.358974,4241.025641,4503.076923,4221.025641,4654.358974,4008.717948,4064.615384
5,4400.512820,4595.384615,4536.410256,4261.538461,4513.333333,4257.435897,4446.666666,4229.743589,4239.487179,4503.076923,4214.871794,4651.794871,4016.923076,4066.666666
6,4400.000000,4591.794871,4533.333333,4260.000000,4512.820512,4255.384615,4446.153846,4223.589743,4230.256410,4494.871794,4216.923076,4651.794871,4027.692307,4065.128205
7,4398.461538,4588.717948,4532.820512,4264.102564,4507.692307,4253.333333,4442.051282,4223.076923,4228.205128,4490.769230,4222.051282,4654.871794,4018.461538,4065.128205
8,4397.435897,4588.205128,4535.384615,4268.205128,4506.153846,4252.307692,4440.000000,4223.076923,4231.794871,4493.333333,4221.538461,4655.897435,4008.717948,4069.743589
9,4400.000000,4590.769230,4536.923076,4265.641025,4512.820512,4256.410256,4443.589743,4225.641025,4235.384615,4496.410256,4222.051282,4656.923076,4013.846153,4071.282051
10,4404.102564,4598.461538,4538.974358,4262.564102,4517.948717,4262.564102,4447.692307,4232.307692,4237.435897,4500.512820,4227.179487,4660.512820,4024.102564,4073.333333
11,4401.025641,4597.435897,4535.384615,4265.128205,4517.435897,4263.076923,4447.692307,4229.743589,4238.974358,4502.564102,4221.538461,4658.974358,4022.564102,4072.307692
12,4393.333333,4586.666666,4524.102564,4264.615384,4511.794871,4253.846153,4443.589743,4217.435897,4231.794871,4493.333333,4211.794871,4650.769230,4008.717948,4062.051282
13,4394.358974,4584.102564,4523.589743,4260.000000,4508.205128,4250.256410,4441.025641,4212.307692,4220.000000,4483.589743,4210.256410,4648.205128,4003.076923,4057.948717
14,4399.487179,4592.820512,4533.333333,4262.051282,4511.794871,4256.923076,4441.025641,4219.487179,4221.025641,4483.589743,4209.743589,4653.333333,4010.256410,4064.102564
15,4396.923076,4593.846153,4533.333333,4264.615384,4515.897435,4261.025641,4442.051282,4221.538461,4227.692307,4489.230769,4206.666666,4653.333333,4013.333333,4063.076923
16,4395.384615,4589.743589,4533.333333,4264.615384,4513.846153,4260.512820,4443.076923,4223.076923,4226.666666,4494.871794,4213.846153,4650.256410,4015.897435,4061.538461
17,4399.487179,4590.769230,4537.948717,4268.717948,4516.923076,4260.000000,4444.102564,4226.153846,4227.692307,4490.769230,4226.666666,4654.871794,4023.076923,4069.743589
18,4400.000000,4593.333333,4530.256410,4271.282051,4520.000000,4263.076923,4444.102564,4223.589743,4232.307692,4488.205128,4221.538461,4655.384615,4019.487179,4070.769230
19,4395.384615,4597.435897,4522.564102,4264.102564,4517.948717,4264.615384,4443.076923,4222.564102,4233.846153,4498.974358,4208.717948,4650.256410,4015.384615,4065.128205
20,4394.871794,4597.435897,4526.153846,4258.974358,4515.897435,4261.025641,4441.538461,4227.692307,4239.487179,4508.717948,4208.717948,4651.282051,4027.692307,4066.153846
21,4397.435897,4592.307692,4526.666666,4263.076923,4515.897435,4258.461538,4442.051282,4233.333333,4243.589743,4508.717948,4218.974358,4654.358974,4032.307692,4070.769230
22,4397.948717,4593.333333,4526.666666,4266.666666,4516.923076,4260.000000,4445.128205,4235.897435,4237.948717,4507.179487,4227.179487,4652.820512,4020.512820,4072.307692
23,4395.384615,4596.923076,4528.205128,4259.487179,4516.410256,4260.512820,4445.641025,4230.769230,4227.692307,4504.615384,4223.589743,4649.743589,4019.487179,4064.615384
24,4389.743589,4591.282051,4524.615384,4253.333333,4512.307692,4258.461538,4444.615384,4224.102564,4223.589743,4496.410256,4211.282051,4647.179487,4031.282051,4056.923076
25,4390.769230,4583.076923,4523.076923,4256.923076,4512.307692,4260.000000,4448.717948,4227.692307,4228.717948,4489.743589,4209.743589,4646.666666,4028.205128,4060.000000
26,4397.435897,4587.179487,4528.717948,4262.564102,4515.897435,4260.512820,4451.794871,4231.282051,4232.307692,4489.743589,4219.487179,4648.205128,4017.948717,4064.615384
27,4397.948717,4592.820512,4533.846153,4261.025641,4514.871794,4260.000000,4449.743589,4226.153846,4228.205128,4496.410256,4217.435897,4649.743589,4023.076923,4063.076923
28,4396.923076,4597.948717,4536.923076,4260.512820,4513.333333,4261.025641,4448.205128,4228.205128,4229.743589,4504.615384,4212.307692,4651.794871,4033.333333,4061.025641
29,4401.025641,4601.538461,4537.435897,4263.589743,4515.897435,4259.487179,4448.205128,4236.923076,4236.410256,4500.512820,4219.487179,4653.846153,4029.743589,4062.564102
30,4399.487179,4588.717948,4536.923076,4262.051282,4513.846153,4256.410256,4445.128205,4234.358974,4231.282051,4488.717948,4224.102564,4652.820512,4019.487179,4066.153846
31,4396.410256,4578.974358,4538.461538,4261.025641,4510.256410,4254.871794,4442.051282,4223.076923,4224.615384,4488.717948,4221.025641,4650.769230,4019.487179,4068.717948
32,4402.564102,4590.769230,4538.974358,4264.102564,4510.769230,4253.333333,4441.538461,4223.589743,4227.179487,4495.897435,4220.512820,4653.846153,4030.256410,4067.179487
33,4405.128205,4601.538461,4539.487179,4263.589743,4513.333333,4252.820512,4442.564102,4229.743589,4230.769230,4496.410256,4224.615384,4655.897435,4034.358974,4066.666666
34,4394.358974,4593.333333,4533.333333,4260.000000,4513.333333,4254.871794,4443.589743,4226.153846,4232.820512,4492.307692,4221.025641,4651.282051,4026.153846,4063.589743
35,4387.692307,4581.538461,4523.589743,4254.358974,4506.666666,4252.820512,4443.589743,4220.512820,4233.333333,4489.743589,4211.282051,4643.076923,4022.051282,4055.897435
36,4385.641025,4578.974358,4521.025641,4250.256410,4504.102564,4249.230769,4441.025641,4219.487179,4226.666666,4486.153846,4209.230769,4640.512820,4020.512820,4052.820512
37,4387.179487,4588.717948,4523.589743,4256.923076,4511.794871,4254.871794,4440.512820,4222.051282,4221.025641,4486.153846,4217.435897,4641.538461,4013.333333,4056.410256
38,4391.282051,4600.512820,4523.076923,4262.051282,4516.410256,4262.051282,4445.128205,4224.615384,4224.102564,4489.743589,4223.076923,4641.538461,4016.410256,4059.487179
39,4384.102564,4584.615384,4517.435897,4251.282051,4512.307692,4257.948717,4440.000000,4220.000000,4221.025641,4482.051282,4210.769230,4635.384615,4023.076923,4056.923076
40,4373.333333,4564.615384,4515.897435,4240.000000,4511.794871,4253.333333,4433.333333,4216.923076,4219.487179,4475.384615,4198.461538,4629.743589,4014.358974,4049.743589
41,4381.025641,4578.974358,4525.641025,4248.205128,4516.410256,4258.461538,4441.538461,4225.128205,4232.820512,4487.692307,4216.923076,4637.948717,4008.205128,4054.358974
42,4390.769230,4596.410256,4537.435897,4255.897435,4515.384615,4259.487179,4443.589743,4231.794871,4240.000000,4500.000000,4241.025641,4648.205128,4020.000000,4066.666666
43,4386.153846,4585.641025,4536.923076,4249.230769,4511.794871,4252.307692,4428.717948,4224.102564,4232.307692,4496.410256,4229.743589,4643.076923,4029.230769,4064.102564
44,4387.179487,4580.512820,4536.410256,4247.692307,4512.307692,4253.846153,4425.128205,4221.025641,4232.820512,4493.333333,4213.333333,4642.564102,4029.743589,4060.512820
45,4393.846153,4591.282051,4537.435897,4258.461538,4515.897435,4261.538461,4435.897435,4229.230769,4238.974358,4499.487179,4223.589743,4650.769230,4026.666666,4066.153846
46,4384.615384,4591.282051,4528.717948,4257.948717,4513.846153,4259.487179,4434.871794,4230.769230,4235.897435,4501.025641,4231.794871,4647.179487,4017.435897,4062.051282
47,4374.871794,4583.076923,4520.512820,4241.538461,4510.256410,4254.358974,4428.205128,4226.666666,4233.846153,4496.923076,4222.564102,4636.923076,4014.358974,4050.769230
48,4377.435897,4579.487179,4524.102564,4238.974358,4509.743589,4254.871794,4428.717948,4224.615384,4227.179487,4487.179487,4209.743589,4634.871794,4017.435897,4051.794871
49,4382.564102,4583.589743,4530.769230,4246.153846,4510.769230,4256.410256,4431.282051,4225.128205,4216.923076,4477.435897,4203.076923,4638.461538,4013.333333,4055.897435
50,4385.128205,4586.666666,4535.384615,4249.743589,4506.153846,4253.846153,4431.282051,4217.948717,4219.487179,4482.564102,4209.230769,4643.589743,4008.717948,4056.410256
51,4386.153846,4585.128205,4537.948717,4255.384615,4505.128205,4250.769230,4428.717948,4213.333333,4224.615384,4490.256410,4217.948717,4643.589743,4019.487179,4060.512820
52,4382.051282,4586.153846,4536.923076,4255.897435,4508.717948,4249.230769,4425.641025,4217.435897,4218.461538,4484.615384,4212.820512,4637.948717,4025.641025,4058.974358
53,4377.435897,4587.179487,4536.410256,4248.205128,4505.641025,4249.743589,4425.128205,4214.358974,4214.358974,4478.461538,4203.076923,4634.358974,4013.333333,4051.794871
54,4380.512820,4582.564102,4537.435897,4244.615384,4503.076923,4252.307692,4426.666666,4211.282051,4218.974358,4483.589743,4206.153846,4637.948717,4015.897435,4050.256410
55,4387.179487,4580.512820,4536.410256,4255.384615,4510.769230,4255.384615,4425.641025,4218.461538,4219.487179,4491.282051,4216.410256,4642.051282,4030.256410,4057.435897
56,4390.256410,4588.717948,4537.435897,4261.538461,4517.948717,4259.487179,4431.794871,4230.256410,4226.666666,4491.794871,4224.615384,4645.641025,4024.615384,4063.589743
57,4387.179487,4589.743589,4542.051282,4253.333333,4514.358974,4263.589743,4443.589743,4235.384615,4236.923076,4493.846153,4222.564102,4646.666666,4020.512820,4063.076923
58,4381.025641,4575.384615,4538.461538,4249.743589,4514.358974,4262.564102,4446.153846,4231.282051,4232.307692,4498.974358,4212.820512,4641.025641,4024.102564,4056.410256
59,4377.948717,4562.564102,4529.743589,4255.384615,4517.948717,4261.025641,4442.564102,4229.743589,4229.230769,4501.538461,4213.333333,4634.871794,4012.307692,4051.794871
60,4379.487179,4564.102564,4532.307692,4254.871794,4512.307692,4259.487179,4444.615384,4233.333333,4235.897435,4494.871794,4220.512820,4637.948717,4004.102564,4054.358974
61,4382.051282,4567.692307,4541.025641,4247.179487,4507.692307,4257.948717,4447.179487,4234.871794,4232.820512,4484.102564,4216.923076,4643.076923,4011.794871,4058.461538
62,4380.000000,4560.000000,4536.410256,4247.179487,4510.256410,4257.435897,4441.025641,4229.230769,4223.076923,4487.692307,4205.641025,4638.974358,4009.743589,4057.435897
63,4371.282051,4548.205128,4521.538461,4247.692307,4507.692307,4250.769230,4430.256410,4220.000000,4217.435897,4493.846153,4196.923076,4632.307692,3995.897436,4051.282051
64,4370.769230,4548.717948,4518.974358,4244.615384,4503.076923,4245.641025,4427.692307,4214.358974,4214.871794,4482.564102,4197.435897,4632.820512,3994.871795,4048.205128
65,4378.974358,4555.897435,4531.282051,4248.205128,4508.205128,4252.820512,4436.410256,4218.974358,4218.974358,4473.333333,4207.692307,4638.461538,4007.179487,4055.384615
66,4382.564102,4556.923076,4538.974358,4253.846153,4512.820512,4261.025641,4443.589743,4228.717948,4231.282051,4493.333333,4214.358974,4647.692307,4014.871794,4065.128205
67,4380.512820,4554.871794,4539.487179,4253.846153,4511.282051,4257.948717,4444.615384,4232.307692,4237.948717,4513.333333,4215.384615,4648.205128,4010.769230,4066.666666
68,4381.025641,4554.871794,4535.384615,4248.205128,4506.153846,4252.820512,4437.948717,4230.769230,4234.871794,4500.000000,4218.461538,4643.589743,4006.153846,4062.051282
69,4380.000000,4549.230769,4530.256410,4247.179487,4503.589743,4252.307692,4432.820512,4228.205128,4226.666666,4485.641025,4217.435897,4643.589743,4009.230769,4061.538461
70,4376.410256,4542.564102,4526.666666,4248.717948,4508.205128,4254.871794,4438.974358,4228.717948,4223.589743,4492.307692,4212.307692,4645.641025,4014.358974,4061.538461
71,4377.435897,4550.256410,4527.692307,4247.692307,4509.743589,4260.000000,4449.230769,4233.333333,4231.282051,4497.435897,4211.794871,4644.102564,4013.846153,4058.974358
72,4376.410256,4554.358974,4525.128205,4245.641025,4506.153846,4256.923076,4442.051282,4228.717948,4231.282051,4483.589743,4207.692307,4636.923076,4008.717948,4055.384615
73,4372.307692,4545.641025,4523.589743,4247.179487,4505.641025,4249.230769,4429.230769,4221.538461,4223.589743,4477.948717,4206.666666,4635.384615,4007.692307,4053.846153
74,4374.358974,4547.692307,4529.743589,4250.769230,4506.666666,4252.307692,4433.846153,4227.179487,4226.153846,4492.820512,4213.333333,4644.615384,4013.333333,4056.410256
75,4378.974358,4558.974358,4534.871794,4250.256410,4506.666666,4255.384615,4442.564102,4237.435897,4235.384615,4502.564102,4214.358974,4648.717948,4014.358974,4058.974358
76,4382.051282,4556.410256,4536.410256,4253.333333,4510.256410,4255.384615,4444.102564,4241.538461,4240.000000,4502.051282,4212.820512,4646.666666,4017.948717,4064.615384
77,4384.615384,4550.256410,4538.974358,4262.564102,4512.307692,4261.538461,4441.538461,4241.538461,4240.000000,4497.948717,4218.461538,4648.717948,4029.230769,4069.743589
78,4386.153846,4558.461538,4538.974358,4266.666666,4512.307692,4264.615384,4438.461538,4244.102564,4243.076923,4502.051282,4224.615384,4654.871794,4029.230769,4071.282051
79,4384.615384,4564.615384,4537.435897,4264.102564,4515.384615,4261.538461,4433.846153,4243.589743,4246.153846,4507.179487,4225.641025,4655.897435,4021.025641,4070.256410
80,4382.051282,4559.487179,4538.461538,4265.128205,4513.333333,4258.974358,4430.769230,4237.948717,4242.564102,4498.974358,4224.615384,4652.307692,4023.076923,4068.205128
81,4375.897435,4554.358974,4535.897435,4260.512820,4507.692307,4252.820512,4429.743589,4231.282051,4233.846153,4484.102564,4214.871794,4646.666666,4025.641025,4061.025641
82,4366.153846,4549.230769,4524.102564,4243.076923,4500.512820,4242.564102,4426.153846,4223.589743,4225.128205,4485.641025,4201.025641,4636.923076,4010.769230,4051.794871
83,4360.000000,4537.948717,4518.974358,4238.461538,4497.948717,4240.512820,4425.128205,4220.000000,4224.615384,4499.487179,4198.974358,4629.230769,3998.461539,4048.205128
84,4361.025641,4534.871794,4523.589743,4245.641025,4497.948717,4243.076923,4426.153846,4225.128205,4229.743589,4501.538461,4202.564102,4630.769230,4008.717948,4046.666666
85,4366.666666,4543.589743,4525.641025,4244.102564,4497.435897,4241.025641,4426.153846,4231.794871,4228.205128,4493.846153,4201.538461,4635.384615,4016.410256,4047.692307
86,4367.692307,4542.564102,4522.051282,4239.487179,4501.025641,4241.538461,4426.153846,4231.282051,4224.102564,4490.769230,4200.512820,4631.794871,4007.179487,4050.769230
87,4363.076923,4532.307692,4522.564102,4236.410256,4500.512820,4243.076923,4425.641025,4229.743589,4229.230769,4491.794871,4196.923076,4627.692307,4003.589743,4046.666666
88,4360.000000,4539.487179,4521.538461,4236.410256,4498.461538,4244.615384,4423.589743,4224.615384,4228.205128,4486.666666,4189.230769,4628.205128,4011.282051,4041.025641
89,4360.512820,4549.230769,4510.769230,4238.461538,4496.923076,4243.076923,4419.487179,4213.846153,4213.846153,4480.000000,4186.153846,4621.538461,4006.153846,4038.461538
90,4360.000000,4541.538461,4509.743589,4241.538461,4495.897435,4239.487179,4417.435897,4213.333333,4210.769230,4485.641025,4193.846153,4618.974358,3990.769231,4038.461538
91,4360.000000,4541.025641,4520.000000,4243.076923,4496.410256,4240.000000,4418.461538,4218.461538,4227.179487,4493.846153,4202.051282,4626.666666,3992.307693,4040.512820
92,4362.564102,4547.692307,4523.076923,4241.538461,4496.923076,4241.025641,4418.974358,4219.487179,4235.384615,4494.871794,4199.487179,4628.717948,4008.205128,4042.051282
93,4363.589743,4544.102564,4518.461538,4237.948717,4497.948717,4241.538461,4422.051282,4216.410256,4227.692307,4493.333333,4193.846153,4628.205128,4012.307692,4040.512820
94,4363.589743,4544.102564,4520.000000,4235.384615,4496.410256,4241.538461,4425.128205,4214.871794,4219.487179,4492.307692,4196.410256,4630.769230,4002.564102,4040.512820
95,4363.076923,4550.769230,4522.051282,4237.948717,4495.897435,4241.538461,4422.051282,4217.435897,4217.948717,4485.128205,4204.102564,4632.820512,3999.487180,4042.564102
96,4361.538461,4543.589743,4520.000000,4235.897435,4495.384615,4238.461538,4417.435897,4221.538461,4223.589743,4480.000000,4204.615384,4634.358974,4005.641025,4040.512820
97,4361.025641,4532.820512,4520.512820,4230.256410,4495.897435,4235.384615,4412.307692,4216.923076,4226.666666,4480.512820,4198.974358,4636.923076,4008.205128,4038.461538
98,4361.025641,4535.897435,4523.076923,4231.794871,4493.333333,4234.358974,4405.128205,4209.230769,4221.538461,4483.076923,4199.487179,4637.435897,4008.717948,4042.051282
99,4358.974358,4537.435897,4519.487179,4236.923076,4486.153846,4230.769230,4405.128205,4209.743589,4218.974358,4482.564102,4194.358974,4634.871794,4004.102564,4043.076923
100,4357.435897,4535.384615,4515.897435,4238.974358,4489.230769,4232.820512,4411.794871,4208.205128,4221.025641,4476.923076,4185.128205,4629.230769,3993.846154,4036.923076
101,4357.948717,4537.435897,4514.871794,4235.384615,4492.820512,4235.384615,4412.307692,4204.102564,4215.897435,4467.692307,4187.692307,4622.564102,3993.333334,4034.358974
102,4355.897435,4539.487179,4509.743589,4231.794871,4489.230769,4231.794871,4411.794871,4204.615384,4213.846153,4466.666666,4195.897435,4620.512820,4004.102564,4036.410256
103,4355.384615,4537.435897,4508.205128,4234.358974,4487.692307,4230.769230,4414.871794,4207.692307,4229.230769,4478.974358,4195.384615,4624.102564,4010.769230,4039.487179
104,4361.538461,4543.589743,4518.461538,4242.564102,4493.333333,4237.948717,4417.435897,4213.333333,4239.487179,4490.256410,4197.435897,4633.333333,4016.410256,4049.743589
105,4368.717948,4555.897435,4529.230769,4252.307692,4498.974358,4244.102564,4416.410256,4220.000000,4237.435897,4490.256410,4206.153846,4641.538461,4019.487179,4056.410256
106,4363.589743,4552.820512,4522.051282,4251.282051,4496.410256,4243.076923,4414.358974,4218.974358,4234.871794,4485.128205,4199.487179,4633.846153,4008.205128,4045.641025
107,4353.333333,4542.564102,4508.717948,4239.487179,4491.282051,4240.512820,4418.974358,4213.333333,4231.282051,4481.538461,4184.102564,4623.589743,3997.948718,4037.435897
108,4350.769230,4542.051282,4511.794871,4233.333333,4490.769230,4237.948717,4427.179487,4212.307692,4231.282051,4482.564102,4182.564102,4628.717948,4001.025641,4043.076923
109,4350.256410,4541.538461,4520.512820,4233.846153,4491.282051,4234.871794,4423.589743,4208.205128,4231.282051,4478.461538,4193.846153,4631.282051,4001.025641,4040.000000
110,4346.153846,4531.282051,4514.871794,4230.256410,4485.128205,4230.769230,4412.820512,4202.564102,4220.000000,4471.794871,4194.871794,4624.615384,3994.871795,4029.743589
111,4345.128205,4528.717948,4505.641025,4225.128205,4480.000000,4229.743589,4411.282051,4202.051282,4215.384615,4472.307692,4175.897435,4622.564102,4000.512820,4031.282051
112,4345.128205,4530.256410,4507.692307,4225.128205,4479.487179,4229.230769,4413.333333,4201.025641,4224.615384,4471.794871,4167.692307,4621.538461,4002.564102,4033.333333
113,4340.512820,4526.666666,4508.205128,4222.564102,4478.461538,4225.641025,4411.794871,4197.435897,4225.128205,4462.564102,4177.435897,4617.948717,3989.743590,4027.179487
114,4341.025641,4529.743589,4502.564102,4223.589743,4481.025641,4224.615384,4415.897435,4202.051282,4220.512820,4467.692307,4180.512820,4620.512820,3991.794872,4028.205128
115,4350.256410,4537.948717,4507.692307,4232.820512,4485.641025,4231.282051,4422.051282,4214.358974,4229.743589,4488.717948,4182.051282,4630.769230,4008.717948,4040.512820
116,4351.282051,4541.538461,4516.923076,4236.410256,4487.692307,4235.897435,4417.948717,4213.333333,4238.974358,4490.256410,4191.794871,4635.384615,4010.256410,4042.564102
117,4343.076923,4533.333333,4511.282051,4229.230769,4485.128205,4230.769230,4410.256410,4203.076923,4232.307692,4473.333333,4189.230769,4628.717948,3996.923077,4034.358974
118,4342.051282,4528.205128,4504.615384,4223.589743,4481.538461,4227.179487,4410.769230,4201.538461,4223.589743,4470.256410,4180.000000,4622.051282,3994.358975,4031.794871
119,4344.615384,4526.153846,4503.589743,4222.051282,4481.538461,4227.692307,4411.794871,4201.025641,4221.538461,4473.846153,4187.692307,4621.025641,3997.948718,4032.307692
120,4337.948717,4518.974358,4498.974358,4217.948717,4480.000000,4224.615384,4409.230769,4196.923076,4223.076923,4468.717948,4193.846153,4622.051282,3999.487180,4028.205128
121,4340.000000,4521.538461,4500.000000,4221.025641,4480.000000,4226.666666,4411.282051,4200.512820,4231.794871,4475.897435,4194.871794,4627.179487,4005.641025,4033.846153
122,4350.769230,4536.410256,4509.230769,4230.769230,4483.076923,4231.794871,4416.410256,4203.589743,4236.410256,4488.205128,4195.384615,4633.846153,4003.076923,4042.564102
123,4346.666666,4538.461538,4509.230769,4233.333333,4481.025641,4226.153846,4412.307692,4196.923076,4226.666666,4481.025641,4188.205128,4628.717948,4000.512820,4040.000000
124,4343.589743,4531.794871,4502.564102,4230.769230,4478.461538,4221.538461,4411.282051,4200.512820,4222.564102,4477.435897,4186.666666,4624.102564,4010.769230,4035.897435
125,4357.435897,4543.589743,4507.692307,4236.410256,4487.179487,4236.923076,4422.564102,4214.358974,4237.435897,4492.820512,4200.512820,4635.897435,4021.538461,4043.076923
126,4367.692307,4557.435897,4524.102564,4246.666666,4497.435897,4250.769230,4431.794871,4222.051282,4253.846153,4504.615384,4209.230769,4648.717948,4026.153846,4056.923076
127,4371.282051,4562.564102,4536.923076,4256.923076,4502.051282,4247.692307,4427.692307,4227.692307,4257.948717,4503.589743,4214.358974,4650.256410,4036.410256,4064.615384
128,4376.923076,4568.717948,4531.794871,4263.076923,4504.615384,4246.153846,4424.615384,4228.717948,4257.948717,4508.205128,4221.538461,4649.230769,4042.051282,4064.102564
129,4373.333333,4563.076923,4522.564102,4256.410256,4504.102564,4250.769230,4429.230769,4222.051282,4255.897435,4514.358974,4215.384615,4645.128205,4030.769230,4058.974358
130,4362.564102,4550.256410,4522.564102,4244.102564,4500.000000,4248.205128,4424.615384,4212.307692,4241.538461,4504.102564,4197.435897,4636.923076,4023.589743,4047.692307
131,4365.128205,4553.846153,4524.102564,4242.564102,4496.923076,4244.615384,4418.461538,4208.205128,4230.256410,4487.692307,4189.230769,4631.794871,4021.538461,4040.000000
132,4369.743589,4562.051282,4521.025641,4247.692307,4498.974358,4247.692307,4424.102564,4210.256410,4236.923076,4488.205128,4194.871794,4635.384615,4018.461538,4043.589743
133,4363.076923,4556.410256,4513.333333,4241.538461,4498.461538,4244.615384,4424.102564,4208.205128,4238.461538,4490.256410,4198.461538,4634.871794,4017.948717,4047.179487
134,4355.897435,4549.743589,4507.692307,4236.923076,4493.333333,4237.435897,4415.897435,4199.487179,4222.564102,4478.461538,4188.717948,4629.230769,4015.897435,4040.512820
135,4352.820512,4552.307692,4507.179487,4238.461538,4493.846153,4240.000000,4417.948717,4193.333333,4216.923076,4475.384615,4179.487179,4629.230769,4010.256410,4036.923076
136,4350.769230,4554.871794,4507.692307,4237.948717,4496.410256,4241.538461,4425.641025,4196.923076,4225.128205,4483.076923,4185.128205,4630.769230,4007.692307,4038.974358
137,4354.358974,4555.384615,4511.794871,4240.512820,4494.871794,4238.461538,4424.615384,4204.615384,4226.153846,4482.564102,4194.871794,4633.333333,4012.307692,4043.076923
138,4361.025641,4555.384615,4521.025641,4247.692307,4499.487179,4244.615384,4425.641025,4210.769230,4226.153846,4482.564102,4200.000000,4640.512820,4022.051282,4051.282051
139,4363.589743,4557.435897,4524.615384,4250.256410,4507.692307,4251.794871,4430.769230,4216.410256,4233.333333,4492.307692,4208.717948,4647.692307,4034.358974,4060.512820
140,4365.128205,4566.666666,4525.641025,4247.692307,4505.641025,4249.230769,4431.794871,4224.102564,4243.076923,4503.076923,4213.846153,4649.230769,4040.512820,4063.076923
141,4365.128205,4565.641025,4525.128205,4244.102564,4501.025641,4247.692307,4429.230769,4221.025641,4242.051282,4495.384615,4207.692307,4644.615384,4035.897435,4056.923076
142,4356.923076,4552.307692,4518.974358,4240.000000,4503.076923,4246.666666,4426.666666,4207.179487,4232.307692,4481.025641,4198.974358,4638.461538,4031.794871,4049.230769
143,4354.358974,4551.794871,4518.974358,4242.051282,4502.564102,4244.615384,4428.717948,4208.205128,4236.410256,4491.282051,4203.589743,4640.000000,4034.358974,4051.794871
144,4360.512820,4560.512820,4525.641025,4248.717948,4496.923076,4248.205128,4430.769230,4221.538461,4244.615384,4506.153846,4210.769230,4646.153846,4033.846153,4057.948717
145,4357.435897,4556.410256,4521.025641,4246.666666,4498.974358,4249.230769,4428.717948,4219.487179,4234.358974,4497.435897,4204.102564,4640.512820,4027.692307,4051.794871
146,4353.846153,4547.692307,4508.717948,4242.564102,4502.051282,4244.102564,4426.153846,4205.641025,4218.974358,4482.564102,4196.410256,4632.307692,4027.179487,4044.102564
147,4358.461538,4555.384615,4505.641025,4244.615384,4498.461538,4240.512820,4425.128205,4205.641025,4222.564102,4480.512820,4202.051282,4634.358974,4028.717948,4046.153846
148,4357.948717,4564.102564,4510.769230,4248.205128,4493.846153,4243.589743,4425.641025,4210.769230,4227.692307,4483.589743,4206.153846,4636.410256,4024.615384,4047.179487
149,4353.333333,4555.897435,4509.743589,4246.153846,4496.410256,4247.179487,4426.666666,4210.256410,4224.615384,4483.076923,4192.307692,4630.256410,4023.589743,4044.102564
150,4355.897435,4545.128205,4502.564102,4243.076923,4501.538461,4246.153846,4427.692307,4210.256410,4223.589743,4477.948717,4184.102564,4627.692307,4023.076923,4047.692307
151,4364.102564,4553.846153,4511.794871,4246.666666,4498.974358,4243.589743,4426.666666,4209.230769,4221.538461,4481.538461,4198.461538,4636.923076,4026.153846,4054.871794
152,4371.282051,4572.307692,4529.743589,4256.923076,4496.410256,4246.153846,4428.205128,4209.743589,4225.128205,4495.897435,4209.743589,4646.153846,4035.897435,4056.923076
153,4372.307692,4572.307692,4531.794871,4261.538461,4498.974358,4248.205128,4432.307692,4213.333333,4228.717948,4492.307692,4206.153846,4647.692307,4032.820512,4058.461538
154,4364.615384,4558.461538,4524.102564,4254.871794,4497.948717,4241.025641,4432.307692,4213.846153,4224.102564,4478.974358,4201.025641,4645.641025,4024.615384,4058.461538
155,4356.410256,4551.794871,4517.948717,4247.179487,4494.358974,4238.461538,4430.769230,4209.230769,4217.948717,4479.487179,4200.000000,4640.512820,4027.179487,4053.846153
156,4354.358974,4548.717948,4515.384615,4246.153846,4495.897435,4244.102564,4431.282051,4206.666666,4220.000000,4482.051282,4198.974358,4633.333333,4020.512820,4047.692307
157,4357.435897,4544.615384,4517.948717,4246.666666,4498.461538,4244.102564,4429.743589,4207.692307,4217.435897,4475.384615,4196.410256,4632.820512,4005.641025,4047.179487
158,4363.589743,4546.153846,4524.102564,4245.128205,4495.897435,4241.538461,4434.358974,4210.769230,4215.384615,4473.846153,4193.333333,4637.948717,4014.871794,4052.820512
159,4365.128205,4548.205128,4525.128205,4244.102564,4495.897435,4245.128205,4445.128205,4221.538461,4231.794871,4489.743589,4200.000000,4640.512820,4031.282051,4059.487179
160,4360.512820,4542.564102,4524.615384,4243.589743,4500.000000,4249.230769,4445.128205,4223.076923,4238.974358,4500.000000,4214.358974,4642.051282,4024.615384,4061.025641
161,4356.410256,4533.333333,4526.153846,4242.051282,4501.025641,4245.128205,4436.923076,4215.897435,4224.615384,4486.666666,4210.769230,4640.000000,4012.307692,4058.461538
162,4357.948717,4528.717948,4522.564102,4241.538461,4498.461538,4241.538461,4431.794871,4215.384615,4215.897435,4472.820512,4189.743589,4635.897435,4015.384615,4055.384615
163,4364.102564,4533.846153,4519.487179,4243.589743,4496.923076,4243.076923,4429.743589,4220.000000,4224.615384,4484.102564,4185.128205,4637.948717,4026.666666,4058.974358
164,4365.641025,4537.948717,4521.538461,4247.179487,4496.923076,4243.589743,4427.179487,4223.589743,4228.717948,4497.948717,4202.564102,4646.666666,4031.794871,4067.179487
165,4361.538461,4531.282051,4525.128205,4248.205128,4497.948717,4241.538461,4426.153846,4218.974358,4225.641025,4485.128205,4210.256410,4648.205128,4025.641025,4069.743589
166,4361.538461,4528.205128,4525.641025,4246.666666,4498.974358,4242.051282,4426.666666,4214.871794,4228.717948,4472.820512,4203.076923,4642.051282,4022.051282,4065.128205
167,4363.589743,4537.435897,4524.615384,4250.769230,4499.487179,4245.128205,4430.769230,4218.461538,4228.717948,4484.102564,4196.410256,4640.000000,4029.743589,4065.128205
168,4358.974358,4537.948717,4524.102564,4249.743589,4498.461538,4246.666666,4432.820512,4218.974358,4223.076923,4492.820512,4191.282051,4639.487179,4031.282051,4063.076923
169,4353.846153,4529.230769,4521.538461,4239.487179,4500.512820,4245.128205,4430.256410,4215.897435,4221.538461,4483.589743,4186.666666,4635.384615,4020.512820,4055.384615
170,4355.897435,4525.128205,4521.025641,4238.461538,4496.923076,4244.615384,4427.692307,4218.461538,4221.025641,4477.435897,4190.769230,4633.333333,4015.897435,4053.333333
171,4352.820512,4524.102564,4516.923076,4245.641025,4491.282051,4241.538461,4427.179487,4217.435897,4216.923076,4472.820512,4188.717948,4631.282051,4016.410256,4050.769230
172,4342.564102,4521.538461,4508.717948,4240.512820,4492.820512,4235.897435,4427.179487,4206.153846,4215.897435,4466.153846,4172.820512,4626.153846,4005.128205,4043.076923
173,4338.974358,4521.025641,4507.179487,4230.256410,4490.256410,4234.358974,4426.153846,4203.589743,4215.384615,4466.153846,4168.717948,4624.615384,3997.435898,4038.974358
174,4344.615384,4519.487179,4511.794871,4231.794871,4488.717948,4238.974358,4426.666666,4214.871794,4215.384615,4465.641025,4176.410256,4627.179487,4011.282051,4043.589743
175,4345.128205,4514.871794,4508.205128,4233.333333,4492.307692,4238.461538,4429.230769,4218.974358,4216.410256,4462.564102,4181.538461,4623.076923,4016.410256,4046.153846
176,4341.025641,4514.871794,4505.641025,4233.846153,4491.282051,4236.410256,4427.692307,4211.794871,4212.307692,4468.717948,4185.128205,4620.000000,4000.512820,4044.615384
177,4345.128205,4519.487179,4515.384615,4238.974358,4486.666666,4236.923076,4424.102564,4213.333333,4214.358974,4479.487179,4190.256410,4629.743589,3999.487180,4050.769230
178,4354.871794,4528.205128,4525.641025,4241.538461,4490.256410,4239.487179,4432.307692,4223.589743,4227.179487,4480.512820,4198.974358,4642.051282,4015.897435,4060.000000
179,4353.846153,4532.307692,4525.128205,4237.435897,4499.487179,4244.102564,4445.128205,4224.102564,4225.641025,4475.384615,4203.589743,4642.051282,4017.435897,4058.461538
180,4340.512820,4518.461538,4514.871794,4233.333333,4497.948717,4243.589743,4440.000000,4217.435897,4210.256410,4464.102564,4189.230769,4630.256410,4001.025641,4046.153846
181,4333.333333,4506.153846,4505.128205,4231.794871,4489.743589,4238.974358,4427.692307,4213.333333,4209.230769,4457.435897,4175.384615,4622.564102,3992.307693,4036.923076
182,4338.461538,4515.384615,4510.769230,4229.230769,4489.743589,4239.487179,4428.205128,4212.820512,4216.923076,4466.666666,4185.128205,4627.692307,4000.512820,4041.538461
183,4349.743589,4529.743589,4525.128205,4231.794871,4497.435897,4242.564102,4431.794871,4212.820512,4221.025641,4480.000000,4198.974358,4636.923076,4010.769230,4053.333333
184,4355.897435,4534.358974,4528.205128,4241.538461,4498.461538,4244.615384,4431.282051,4216.410256,4223.589743,4485.641025,4201.538461,4643.076923,4016.410256,4058.461538
185,4352.820512,4534.358974,4524.615384,4251.794871,4499.487179,4248.717948,4432.820512,4220.512820,4225.641025,4484.102564,4194.871794,4644.102564,4022.051282,4057.435897
186,4347.179487,4527.179487,4524.615384,4250.256410,4504.615384,4248.717948,4432.820512,4216.410256,4221.538461,4476.923076,4183.076923,4639.487179,4024.102564,4055.897435
187,4345.641025,4519.487179,4525.128205,4238.974358,4502.051282,4244.615384,4426.666666,4209.743589,4215.384615,4473.333333,4186.153846,4632.307692,4011.794871,4053.333333
188,4353.333333,4533.846153,4527.692307,4237.435897,4498.974358,4245.128205,4431.282051,4215.897435,4225.641025,4484.102564,4206.666666,4638.974358,4013.846153,4054.871794
189,4358.974358,4549.743589,4529.743589,4249.230769,4502.564102,4248.205128,4441.538461,4224.615384,4242.051282,4494.358974,4213.333333,4650.256410,4035.384615,4061.538461
190,4350.769230,4539.487179,4524.615384,4249.230769,4501.538461,4249.743589,4436.410256,4217.435897,4235.384615,4486.153846,4198.974358,4642.564102,4034.358974,4060.000000
191,4340.000000,4526.153846,4515.897435,4235.897435,4497.948717,4246.153846,4429.230769,4211.794871,4216.410256,4474.871794,4190.256410,4628.717948,4016.923076,4049.230769
192,4336.923076,4530.256410,4511.282051,4227.692307,4498.974358,4243.589743,4433.333333,4213.846153,4217.948717,4472.820512,4188.717948,4629.230769,4012.307692,4042.564102
193,4333.333333,4536.410256,4506.153846,4227.179487,4499.487179,4243.589743,4434.358974,4209.230769,4220.512820,4471.282051,4180.512820,4632.307692,4008.205128,4041.025641
194,4331.794871,4533.333333,4507.692307,4232.307692,4495.897435,4244.615384,4433.846153,4205.128205,4209.230769,4469.743589,4175.384615,4629.230769,4008.205128,4041.538461
195,4339.487179,4529.743589,4518.974358,4239.487179,4497.435897,4247.692307,4441.538461,4212.307692,4213.333333,4470.256410,4186.666666,4632.820512,4020.000000,4044.102564
196,4345.641025,4532.820512,4525.128205,4237.435897,4503.589743,4250.256410,4444.615384,4217.948717,4228.205128,4473.846153,4199.487179,4640.000000,4020.512820,4050.256410
197,4343.589743,4537.948717,4522.051282,4230.256410,4504.102564,4246.666666,4440.000000,4216.410256,4224.102564,4480.512820,4194.871794,4640.512820,4010.769230,4053.333333
198,4343.076923,4538.461538,4522.051282,4233.333333,4497.435897,4244.102564,4441.538461,4216.923076,4215.897435,4482.564102,4192.820512,4640.512820,4016.923076,4052.307692
199,4342.564102,4536.923076,4525.128205,4241.538461,4497.948717,4246.153846,4444.102564,4216.923076,4223.076923,4482.564102,4202.564102,4644.615384,4029.230769,4053.333333
200,4343.589743,4538.974358,4529.743589,4237.948717,4506.153846,4248.717948,4438.461538,4216.410256,4228.717948,4485.641025,4208.717948,4646.666666,4030.769230,4059.487179
201,4350.256410,4538.461538,4534.871794,4234.871794,4507.692307,4249.743589,4432.820512,4220.512820,4224.615384,4492.820512,4210.769230,4645.128205,4024.102564,4065.128205
202,4354.358974,4540.000000,4531.794871,4241.025641,4504.102564,4251.794871,4438.974358,4224.102564,4227.179487,4494.358974,4209.743589,4648.205128,4020.512820,4063.076923
203,4349.230769,4539.487179,4522.564102,4245.128205,4504.102564,4250.769230,4443.589743,4222.051282,4235.384615,4493.846153,4204.102564,4650.256410,4027.692307,4055.897435
204,4341.025641,4530.769230,4520.512820,4239.487179,4498.461538,4246.153846,4432.820512,4215.897435,4231.282051,4490.256410,4195.897435,4642.564102,4035.384615,4050.769230
205,4338.974358,4529.230769,4523.589743,4233.846153,4492.307692,4243.076923,4425.641025,4211.794871,4220.000000,4483.076923,4191.282051,4637.435897,4025.641025,4050.256410
206,4343.589743,4541.025641,4522.564102,4235.384615,4499.487179,4244.615384,4437.435897,4218.974358,4221.025641,4489.230769,4199.487179,4643.076923,4016.923076,4052.307692
207,4351.794871,4550.256410,4524.615384,4240.512820,4505.641025,4248.205128,4445.641025,4226.666666,4233.333333,4498.974358,4214.358974,4649.230769,4028.205128,4057.435897
208,4354.358974,4543.076923,4529.230769,4246.666666,4497.948717,4247.179487,4435.897435,4221.538461,4238.461538,4497.948717,4214.358974,4648.717948,4038.461538,4060.000000
209,4350.769230,4538.461538,4528.717948,4247.692307,4497.435897,4245.641025,4431.794871,4216.923076,4235.384615,4497.435897,4200.512820,4645.128205,4035.897435,4056.410256
210,4349.230769,4547.179487,4523.076923,4243.076923,4507.692307,4248.205128,4440.512820,4222.051282,4233.846153,4496.923076,4198.974358,4642.564102,4030.256410,4056.410256
211,4348.205128,4551.282051,4522.051282,4242.564102,4510.769230,4252.820512,4444.102564,4220.000000,4229.230769,4487.692307,4206.666666,4640.512820,4027.179487,4058.974358
212,4345.641025,4547.179487,4526.153846,4248.717948,4507.692307,4252.307692,4440.512820,4213.846153,4225.128205,4490.256410,4211.282051,4643.589743,4030.769230,4060.000000
213,4341.538461,4543.589743,4527.179487,4247.692307,4503.076923,4244.615384,4437.948717,4218.974358,4232.820512,4504.102564,4211.282051,4645.128205,4035.384615,4060.512820
214,4332.820512,4540.512820,4523.589743,4235.384615,4497.435897,4240.000000,4433.846153,4222.051282,4236.410256,4497.948717,4203.076923,4637.948717,4029.230769,4053.333333
215,4326.153846,4532.820512,4521.538461,4227.692307,4495.897435,4239.487179,4433.333333,4216.410256,4226.666666,4482.564102,4194.358974,4632.820512,4016.923076,4043.076923
216,4327.179487,4532.820512,4524.102564,4231.794871,4499.487179,4243.076923,4440.000000,4217.435897,4221.538461,4483.589743,4192.820512,4637.948717,4010.769230,4043.589743
217,4329.230769,4535.897435,4521.538461,4236.410256,4500.512820,4246.666666,4445.128205,4221.025641,4226.666666,4490.256410,4196.923076,4641.538461,4017.435897,4046.666666
218,4326.666666,4530.769230,4514.358974,4237.435897,4498.461538,4242.564102,4438.974358,4212.307692,4224.102564,4484.102564,4197.435897,4634.871794,4024.615384,4040.512820
219,4323.076923,4523.589743,4516.410256,4230.256410,4498.974358,4239.487179,4429.230769,4204.615384,4214.871794,4474.871794,4187.179487,4627.692307,4014.871794,4035.384615
220,4323.589743,4530.769230,4522.564102,4225.128205,4499.487179,4243.076923,4433.333333,4212.820512,4217.435897,4481.538461,4181.025641,4632.820512,4005.128205,4039.487179
221,4328.717948,4543.076923,4525.128205,4233.846153,4497.948717,4246.153846,4444.102564,4222.564102,4228.205128,4495.384615,4191.794871,4641.538461,4015.384615,4045.128205
222,4330.769230,4541.025641,4524.102564,4242.051282,4498.974358,4244.615384,4444.102564,4222.051282,4232.307692,4498.461538,4202.564102,4642.051282,4024.615384,4047.179487
223,4329.230769,4534.871794,4524.615384,4240.000000,4505.128205,4247.179487,4440.000000,4217.435897,4224.615384,4494.358974,4204.102564,4641.538461,4022.564102,4045.641025
224,4330.256410,4539.487179,4528.717948,4237.435897,4505.128205,4249.230769,4441.025641,4220.512820,4220.512820,4488.717948,4200.512820,4646.153846,4024.102564,4047.179487
225,4333.846153,4545.128205,4537.948717,4237.948717,4500.000000,4246.153846,4443.076923,4225.641025,4227.692307,4488.717948,4197.435897,4649.230769,4030.769230,4054.358974
226,4336.923076,4547.692307,4538.461538,4240.000000,4501.538461,4246.666666,4443.589743,4225.128205,4232.307692,4494.871794,4205.641025,4651.282051,4032.820512,4056.923076
227,4337.948717,4552.820512,4526.666666,4244.615384,4504.615384,4253.333333,4442.564102,4221.538461,4224.615384,4493.846153,4216.923076,4650.769230,4031.282051,4054.358974
228,4337.948717,4552.307692,4526.666666,4251.282051,4508.205128,4256.923076,4441.025641,4221.025641,4217.948717,4491.794871,4209.230769,4647.179487,4031.794871,4052.820512
229,4342.051282,4544.102564,4536.410256,4252.307692,4509.230769,4252.820512,4443.589743,4220.000000,4223.589743,4496.923076,4191.794871,4645.128205,4029.230769,4049.743589
230,4343.076923,4547.179487,4531.794871,4246.666666,4507.179487,4250.256410,4444.102564,4214.871794,4226.153846,4490.256410,4191.794871,4642.564102,4025.641025,4047.179487
231,4338.461538,4558.461538,4521.025641,4246.153846,4506.666666,4251.794871,4436.923076,4214.358974,4218.461538,4476.923076,4204.102564,4641.025641,4031.282051,4051.282051
232,4334.871794,4557.435897,4523.076923,4249.743589,4506.666666,4249.230769,4430.256410,4215.384615,4213.846153,4482.564102,4206.153846,4642.051282,4031.794871,4052.307692
233,4332.820512,4545.128205,4525.128205,4247.692307,4501.538461,4246.666666,4427.692307,4210.256410,4219.487179,4487.692307,4190.769230,4640.000000,4024.102564,4047.179487
234,4328.205128,4542.564102,4518.461538,4241.025641,4498.461538,4248.205128,4427.692307,4205.128205,4220.000000,4476.410256,4185.641025,4635.897435,4024.615384,4045.641025
235,4323.589743,4546.153846,4519.487179,4241.538461,4502.051282,4247.179487,4427.692307,4203.589743,4212.307692,4474.358974,4195.897435,4635.384615,4025.128205,4044.615384
236,4325.128205,4546.153846,4522.051282,4246.153846,4501.025641,4246.153846,4428.205128,4204.615384,4211.794871,4484.102564,4194.871794,4635.384615,4019.487179,4043.076923
237,4332.820512,4545.641025,4522.564102,4250.769230,4496.923076,4249.230769,4435.384615,4209.743589,4220.000000,4489.743589,4191.794871,4641.025641,4027.692307,4049.743589
238,4340.000000,4552.307692,4527.692307,4253.846153,4503.589743,4251.282051,4443.589743,4217.435897,4227.692307,4486.153846,4200.000000,4648.717948,4039.487179,4056.410256
239,4341.025641,4557.435897,4536.410256,4248.717948,4510.769230,4253.333333,4442.564102,4220.512820,4231.794871,4486.666666,4204.102564,4647.179487,4037.948717,4055.897435
240,4341.025641,4555.384615,4538.461538,4247.179487,4508.205128,4256.923076,4441.538461,4221.025641,4231.282051,4494.358974,4208.205128,4646.153846,4037.948717,4058.461538
241,4344.102564,4556.410256,4530.769230,4252.820512,4506.666666,4254.871794,4443.589743,4223.589743,4229.230769,4496.923076,4219.487179,4649.743589,4042.564102,4060.000000
242,4340.512820,4556.410256,4524.102564,4253.846153,4508.205128,4249.230769,4435.897435,4220.512820,4225.128205,4488.717948,4210.769230,4646.666666,4038.974358,4053.846153
243,4336.923076,4548.205128,4523.589743,4245.128205,4503.076923,4247.692307,4425.128205,4209.230769,4216.923076,4486.153846,4186.153846,4637.435897,4038.461538,4046.153846
244,4340.000000,4550.256410,4523.589743,4240.000000,4499.487179,4248.205128,4426.666666,4206.153846,4218.974358,4493.846153,4187.179487,4635.384615,4038.974358,4045.641025
245,4342.051282,4562.051282,4524.102564,4246.153846,4501.538461,4247.692307,4434.358974,4214.358974,4229.743589,4496.410256,4212.307692,4642.051282,4029.743589,4052.820512
246,4341.025641,4557.948717,4525.641025,4252.307692,4506.666666,4249.230769,4433.333333,4216.410256,4226.153846,4487.179487,4226.153846,4646.153846,4029.230769,4056.410256
247,4340.512820,4550.256410,4524.615384,4252.307692,4507.179487,4254.358974,4430.769230,4212.307692,4221.025641,4486.153846,4210.769230,4643.589743,4045.128205,4055.384615
248,4342.564102,4560.000000,4525.128205,4249.230769,4506.153846,4256.923076,4437.435897,4217.948717,4230.769230,4497.948717,4192.820512,4644.102564,4055.384615,4055.897435
249,4346.153846,4564.102564,4535.384615,4249.743589,4506.666666,4253.846153,4445.641025,4224.615384,4235.384615,4496.923076,4205.641025,4649.230769,4045.128205,4060.000000
250,4344.102564,4554.871794,4537.948717,4251.282051,4506.666666,4247.692307,4440.512820,4219.487179,4224.102564,4484.615384,4223.589743,4647.179487,4030.256410,4059.487179
251,4334.871794,4547.179487,4527.179487,4245.128205,4498.461538,4245.128205,4431.282051,4209.230769,4213.333333,4484.102564,4211.282051,4638.461538,4030.256410,4053.333333
252,4332.820512,4546.666666,4522.051282,4240.000000,4493.333333,4245.641025,4434.358974,4206.153846,4208.717948,4487.692307,4189.743589,4633.333333,4037.435897,4049.743589
253,4335.897435,4541.538461,4524.102564,4241.025641,4497.435897,4246.153846,4439.487179,4209.230769,4210.769230,4481.538461,4192.307692,4635.384615,4034.358974,4047.179487
254,4335.897435,4544.615384,4525.641025,4242.564102,4496.923076,4247.692307,4438.974358,4210.256410,4215.897435,4474.358974,4204.615384,4637.948717,4027.179487,4045.641025
255,4336.410256,4551.794871,4523.589743,4242.564102,4495.897435,4248.205128,4437.948717,4210.769230,4222.051282,4480.512820,4203.589743,4635.897435,4027.179487,4046.153846
256,4334.871794,4543.076923,4525.128205,4245.128205,4500.000000,4247.179487,4441.538461,4216.923076,4227.692307,4487.692307,4194.871794,4635.384615,4029.743589,4047.179487
257,4335.384615,4538.974358,4530.769230,4248.205128,4501.538461,4249.743589,4443.076923,4221.025641,4228.205128,4480.512820,4195.897435,4640.000000,4032.820512,4051.282051
258,4343.589743,4554.358974,4531.794871,4247.179487,4503.076923,4254.358974,4444.102564,4221.538461,4225.128205,4473.333333,4203.589743,4642.051282,4034.358974,4053.333333
259,4346.153846,4558.974358,4526.666666,4243.589743,4507.179487,4253.333333,4446.153846,4223.589743,4225.128205,4478.974358,4201.538461,4638.461538,4027.179487,4046.666666
