,AF3,F7,F3,FC5,T7,P7,O1,O2,P8,T8,FC6,F4,F8,AF4
0,4343.076923,4410.769230,4490.256410,4279.487179,4445.128205,4137.435897,4407.692307,4182.051282,4195.384615,4490.769230,4149.230769,4585.641025,3919.487180,4005.128205
1,4346.153846,4417.948717,4492.820512,4292.307692,4444.615384,4141.025641,4407.179487,4186.153846,4195.897435,4499.487179,4162.051282,4593.333333,3941.025642,4018.461538
2,4346.666666,4418.461538,4492.307692,4295.384615,4445.128205,4137.435897,4401.025641,4181.025641,4189.230769,4489.743589,4170.256410,4593.333333,3952.820513,4022.051282
3,4350.769230,4414.358974,4492.307692,4286.153846,4446.153846,4136.923076,4402.564102,4172.307692,4185.128205,4478.461538,4161.538461,4589.743589,3946.666667,4019.487179
4,4352.307692,4415.384615,4486.666666,4279.487179,4444.102564,4139.487179,4406.666666,4169.230769,4188.717948,4485.641025,4161.025641,4589.230769,3943.076924,4022.564102
5,4345.128205,4418.974358,4481.538461,4276.410256,4443.076923,4137.948717,4402.051282,4169.230769,4188.717948,4491.794871,4161.538461,4584.102564,3938.974359,4018.974358
6,4340.512820,4416.923076,4481.538461,4279.487179,4445.128205,4135.384615,4401.025641,4171.794871,4190.256410,4491.282051,4156.923076,4578.974358,3936.923077,4012.820512
7,4342.564102,4412.307692,4484.102564,4288.717948,4446.666666,4137.435897,4406.153846,4177.948717,4193.846153,4498.461538,4158.974358,4584.615384,3942.051283,4015.897435
8,4345.128205,4412.307692,4486.153846,4289.743589,4448.205128,4140.512820,4409.743589,4184.102564,4193.846153,4502.564102,4163.589743,4587.179487,3941.025642,4013.846153
9,4343.076923,4418.461538,4481.538461,4283.589743,4448.205128,4140.512820,4410.256410,4185.641025,4191.282051,4493.333333,4157.948717,4583.589743,3938.974359,4007.692307
10,4337.435897,4419.487179,4477.948717,4274.358974,4444.102564,4136.923076,4404.102564,4176.923076,4186.153846,4480.000000,4150.256410,4584.102564,3945.128206,4008.717948
11,4340.512820,4415.384615,4484.102564,4273.333333,4443.076923,4136.923076,4402.051282,4170.769230,4187.692307,4482.051282,4152.820512,4585.641025,3941.025642,4014.871794
12,4346.666666,4414.871794,4492.307692,4283.076923,4447.692307,4142.051282,4409.230769,4179.487179,4195.384615,4498.461538,4162.564102,4587.179487,3931.794872,4014.871794
13,4341.025641,4416.923076,4493.333333,4290.256410,4449.743589,4143.076923,4409.743589,4186.666666,4196.410256,4505.641025,4169.230769,4591.282051,3939.487180,4007.179487
14,4337.435897,4416.923076,4486.153846,4292.307692,4445.128205,4138.974358,4397.435897,4182.564102,4190.769230,4496.410256,4172.307692,4592.307692,3948.717949,4007.692307
15,4342.564102,4414.871794,4481.538461,4287.179487,4441.025641,4135.384615,4392.820512,4177.948717,4188.717948,4487.179487,4167.692307,4586.666666,3941.538462,4015.384615
16,4342.564102,4412.307692,4486.153846,4278.974358,4442.564102,4134.358974,4397.948717,4176.410256,4188.205128,4483.076923,4148.205128,4585.128205,3931.282052,4014.358974
17,4338.974358,4409.743589,4490.256410,4283.589743,4442.564102,4133.846153,4396.410256,4176.923076,4192.307692,4484.102564,4145.128205,4586.666666,3930.256411,4005.128205
18,4338.974358,4412.820512,4485.641025,4297.435897,4441.025641,4135.384615,4395.897435,4182.564102,4200.512820,4488.717948,4165.641025,4590.256410,3938.461539,4010.256410
19,4346.153846,4424.102564,4489.743589,4300.512820,4449.230769,4141.025641,4403.589743,4188.205128,4197.435897,4495.897435,4172.820512,4593.333333,3947.179488,4026.153846
20,4348.205128,4426.666666,4494.871794,4292.820512,4455.897435,4141.025641,4402.564102,4182.051282,4186.153846,4499.487179,4165.641025,4592.307692,3942.564103,4026.666666
21,4337.948717,4413.333333,4483.589743,4285.128205,4448.205128,4135.384615,4386.666666,4169.743589,4181.025641,4490.769230,4158.974358,4584.615384,3930.256411,4010.256410
22,4333.846153,4404.102564,4473.846153,4276.923076,4440.512820,4134.358974,4383.076923,4165.128205,4174.358974,4475.384615,4145.641025,4574.871794,3928.717949,4005.128205
23,4339.487179,4411.282051,4475.897435,4278.974358,4440.000000,4133.846153,4390.256410,4162.051282,4168.205128,4473.846153,4134.358974,4573.846153,3934.871795,4013.333333
24,4335.897435,4419.487179,4476.923076,4289.230769,4438.461538,4131.794871,4390.256410,4160.000000,4178.974358,4482.051282,4142.051282,4577.435897,3934.358975,4013.846153
25,4336.923076,4421.025641,4477.948717,4293.333333,4440.000000,4131.794871,4392.307692,4165.128205,4193.846153,4487.692307,4158.461538,4578.974358,3928.205129,4009.743589
26,4348.205128,4418.974358,4478.974358,4286.666666,4445.641025,4136.923076,4395.897435,4167.692307,4186.153846,4486.666666,4163.076923,4579.487179,3929.230770,4009.743589
27,4338.461538,4408.717948,4470.769230,4279.487179,4441.025641,4134.871794,4388.717948,4155.384615,4164.615384,4475.384615,4150.256410,4574.871794,3930.769231,4002.564102
28,4322.564102,4399.487179,4466.666666,4277.435897,4432.307692,4125.641025,4384.102564,4148.205128,4161.025641,4467.692307,4146.153846,4568.717948,3929.230770,3993.333334
29,4332.307692,4407.692307,4473.846153,4275.897435,4438.461538,4129.230769,4390.256410,4160.512820,4175.384615,4476.923076,4156.923076,4573.846153,3930.769231,3997.435898
30,4337.435897,4413.846153,4473.846153,4277.435897,4440.512820,4132.820512,4388.205128,4168.205128,4182.051282,4477.948717,4151.282051,4577.435897,3924.102565,3997.948718
31,4325.128205,4405.128205,4469.230769,4278.461538,4429.743589,4123.076923,4378.974358,4160.000000,4173.846153,4467.179487,4134.871794,4568.717948,3913.846154,3986.666667
32,4322.051282,4400.000000,4470.769230,4275.897435,4430.256410,4117.948717,4375.897435,4151.794871,4164.102564,4468.717948,4137.435897,4565.128205,3914.871795,3980.000000
33,4327.692307,4406.153846,4475.384615,4276.410256,4437.435897,4123.076923,4383.076923,4154.871794,4163.076923,4472.307692,4143.589743,4574.358974,3916.410257,3984.102565
34,4335.897435,4413.333333,4475.384615,4282.051282,4434.871794,4129.230769,4396.923076,4165.128205,4172.820512,4471.794871,4142.051282,4582.051282,3911.282052,3994.358975
35,4339.487179,4415.897435,4476.923076,4280.000000,4436.923076,4131.282051,4404.102564,4175.384615,4186.666666,4483.076923,4148.717948,4585.128205,3915.384616,4002.564102
36,4335.897435,4416.410256,4483.589743,4281.025641,4444.102564,4130.256410,4400.512820,4176.923076,4192.820512,4496.410256,4149.743589,4587.179487,3930.256411,4005.641025
37,4338.461538,4419.487179,4486.153846,4289.230769,4443.589743,4132.820512,4397.948717,4169.743589,4188.205128,4492.820512,4142.051282,4584.615384,3932.820513,4006.666666
38,4341.025641,4421.025641,4478.974358,4286.666666,4441.025641,4136.923076,4398.461538,4165.641025,4181.538461,4484.102564,4149.743589,4578.461538,3918.974359,4007.692307
39,4335.897435,4412.307692,4475.384615,4279.487179,4437.435897,4130.256410,4394.358974,4169.743589,4178.461538,4485.128205,4159.487179,4576.410256,3914.871795,4008.717948
40,4335.897435,4408.205128,4478.461538,4278.974358,4434.358974,4125.128205,4391.794871,4176.410256,4180.000000,4487.692307,4152.820512,4581.538461,3928.717949,4008.205128
41,4335.897435,4415.384615,4476.410256,4277.435897,4438.461538,4134.871794,4394.358974,4175.897435,4185.128205,4489.230769,4148.717948,4584.615384,3929.743590,4006.153846
42,4330.256410,4414.871794,4474.358974,4279.487179,4443.076923,4141.538461,4395.897435,4176.410256,4188.205128,4491.282051,4152.307692,4580.512820,3918.974359,4005.128205
43,4332.307692,4411.282051,4477.948717,4284.102564,4438.461538,4135.897435,4396.410256,4181.538461,4188.717948,4489.743589,4153.333333,4575.384615,3918.974359,4008.205128
44,4332.307692,4409.230769,4475.897435,4280.512820,4434.358974,4126.666666,4391.794871,4177.435897,4183.589743,4480.000000,4155.384615,4570.769230,3918.461539,4000.000000
45,4325.128205,4406.153846,4470.769230,4275.897435,4434.358974,4125.128205,4387.692307,4171.282051,4178.461538,4479.487179,4152.307692,4567.692307,3915.384616,3989.743590
46,4331.282051,4411.794871,4471.794871,4278.461538,4438.461538,4131.282051,4393.333333,4181.025641,4184.615384,4492.307692,4150.769230,4574.358974,3924.102565,3998.461539
47,4332.820512,4416.923076,4475.897435,4278.461538,4442.051282,4133.846153,4398.974358,4189.743589,4190.769230,4496.923076,4162.564102,4577.948717,3933.846154,4006.666666
48,4323.076923,4411.794871,4476.410256,4280.000000,4443.589743,4134.871794,4394.358974,4178.974358,4186.153846,4489.743589,4168.717948,4572.307692,3930.769231,3996.410257
49,4328.717948,4408.717948,4475.384615,4286.666666,4445.641025,4137.948717,4391.282051,4172.307692,4180.512820,4482.564102,4157.948717,4571.794871,3921.538462,3987.179488
50,4340.512820,4413.846153,4477.948717,4292.820512,4443.589743,4136.923076,4395.897435,4176.923076,4182.051282,4485.641025,4150.256410,4579.487179,3921.025642,3993.333334
51,4337.948717,4413.846153,4480.000000,4287.179487,4438.974358,4132.307692,4394.871794,4177.948717,4181.538461,4488.717948,4152.307692,4578.974358,3923.589744,3996.923077
52,4327.692307,4407.179487,4475.897435,4272.820512,4435.384615,4126.153846,4384.615384,4170.769230,4176.410256,4483.589743,4155.384615,4568.717948,3918.461539,3987.692308
53,4323.076923,4403.076923,4470.769230,4270.769230,4429.743589,4122.564102,4380.512820,4160.512820,4174.871794,4477.435897,4150.256410,4564.615384,3911.794872,3973.846154
54,4327.179487,4404.102564,4474.358974,4282.564102,4428.717948,4125.641025,4387.179487,4163.076923,4175.384615,4481.538461,4142.564102,4568.717948,3908.717949,3973.846154
55,4328.205128,4404.102564,4472.820512,4283.589743,4434.358974,4126.153846,4390.769230,4165.128205,4170.256410,4482.564102,4140.512820,4564.102564,3900.000000,3981.538462
56,4316.410256,4395.384615,4462.564102,4269.743589,4433.333333,4121.025641,4387.692307,4154.871794,4159.487179,4465.641025,4135.897435,4553.846153,3891.794872,3977.435898
57,4316.923076,4396.923076,4466.666666,4266.666666,4428.717948,4123.076923,4393.333333,4158.461538,4163.589743,4462.564102,4131.794871,4558.461538,3902.564103,3977.948718
58,4333.333333,4411.282051,4480.000000,4275.897435,4437.435897,4133.846153,4405.128205,4178.461538,4179.487179,4480.000000,4141.538461,4572.307692,3913.333334,3990.256411
59,4331.282051,4414.358974,4478.461538,4281.025641,4446.666666,4140.512820,4409.743589,4185.128205,4186.153846,4487.179487,4153.846153,4572.820512,3907.179488,3992.820513
60,4323.589743,4408.717948,4473.333333,4277.435897,4445.641025,4141.025641,4410.256410,4180.512820,4188.717948,4485.128205,4153.846153,4568.205128,3902.564103,3989.743590
61,4330.256410,4407.692307,4476.923076,4273.846153,4444.615384,4136.410256,4408.717948,4184.102564,4191.794871,4490.769230,4153.333333,4570.769230,3909.230770,3991.282052
62,4332.820512,4409.230769,4475.897435,4275.384615,4442.564102,4130.769230,4405.641025,4184.615384,4187.692307,4494.358974,4152.820512,4570.769230,3915.897436,3991.282052
63,4333.333333,4415.897435,4475.384615,4281.025641,4440.512820,4137.948717,4409.230769,4186.666666,4188.205128,4497.435897,4150.256410,4571.282051,3919.487180,3996.923077
64,4336.923076,4421.538461,4478.974358,4284.615384,4448.205128,4147.692307,4416.410256,4200.000000,4201.025641,4504.615384,4153.333333,4573.846153,3923.589744,4003.076923
65,4330.769230,4413.333333,4477.435897,4279.487179,4448.717948,4140.512820,4415.384615,4203.076923,4204.615384,4501.538461,4163.076923,4573.333333,3923.589744,3994.871795
66,4325.128205,4406.153846,4476.923076,4278.461538,4443.076923,4136.410256,4411.282051,4197.435897,4197.435897,4498.461538,4168.717948,4571.794871,3921.538462,3987.179488
67,4328.717948,4406.153846,4475.384615,4282.564102,4446.153846,4142.564102,4411.794871,4193.333333,4192.307692,4499.487179,4158.974358,4569.743589,3915.384616,3985.128206
68,4328.717948,4402.564102,4469.743589,4276.923076,4444.615384,4137.948717,4410.256410,4187.179487,4185.128205,4487.179487,4147.692307,4566.666666,3905.641026,3977.948718
69,4328.717948,4403.589743,4472.820512,4274.871794,4440.000000,4133.333333,4408.717948,4183.589743,4184.615384,4486.666666,4147.179487,4567.179487,3915.897436,3977.435898
70,4330.256410,4405.641025,4472.307692,4279.487179,4446.153846,4141.538461,4410.769230,4186.153846,4189.743589,4496.923076,4147.692307,4567.179487,3929.230770,3978.461539
71,4324.102564,4388.717948,4462.564102,4267.692307,4443.076923,4135.897435,4407.179487,4184.615384,4186.153846,4490.256410,4145.128205,4558.974358,3922.051283,3968.717949
72,4322.564102,4373.846153,4464.102564,4257.435897,4428.717948,4124.102564,4403.589743,4182.051282,4183.589743,4486.666666,4153.333333,4557.948717,3918.461539,3967.179488
73,4330.769230,4382.051282,4469.230769,4270.256410,4433.333333,4131.794871,4408.205128,4185.641025,4190.256410,4496.923076,4155.384615,4568.205128,3930.256411,3973.333334
74,4331.282051,4389.230769,4468.205128,4273.846153,4440.000000,4134.871794,4407.692307,4186.153846,4189.230769,4495.384615,4138.974358,4571.794871,3938.974359,3972.307693
75,4328.717948,4385.128205,4467.179487,4268.205128,4434.871794,4126.153846,4400.000000,4184.615384,4187.179487,4493.333333,4137.435897,4568.205128,3941.025642,3974.358975
76,4329.743589,4382.564102,4467.692307,4272.307692,4438.974358,4131.794871,4398.974358,4182.564102,4186.666666,4491.282051,4150.256410,4568.205128,3944.102565,3980.000000
77,4321.538461,4380.512820,4462.564102,4264.615384,4442.564102,4135.897435,4397.948717,4172.307692,4175.384615,4476.410256,4143.589743,4566.153846,3940.000000,3973.333334
78,4316.923076,4375.897435,4462.051282,4255.384615,4435.384615,4130.256410,4397.948717,4168.205128,4170.769230,4478.974358,4131.794871,4564.615384,3935.384616,3969.230770
79,4329.743589,4377.948717,4469.230769,4266.153846,4438.461538,4133.333333,4405.128205,4179.487179,4180.000000,4503.589743,4136.410256,4569.230769,3941.025642,3981.538462
80,4337.435897,4386.153846,4474.871794,4276.923076,4445.128205,4140.000000,4406.153846,4189.230769,4193.333333,4504.102564,4147.692307,4571.282051,3949.743590,3992.820513
81,4330.256410,4391.282051,4476.410256,4273.333333,4437.948717,4132.820512,4398.974358,4185.641025,4200.000000,4487.692307,4148.205128,4569.743589,3948.205129,3986.666667
82,4327.179487,4387.692307,4472.820512,4268.205128,4432.307692,4126.153846,4399.487179,4174.358974,4185.128205,4488.717948,4138.974358,4568.205128,3933.846154,3974.358975
83,4329.743589,4385.128205,4473.846153,4271.282051,4436.923076,4131.282051,4403.589743,4174.871794,4170.769230,4491.794871,4138.974358,4568.205128,3928.717949,3975.384616
84,4329.743589,4393.333333,4477.435897,4274.871794,4441.025641,4134.358974,4401.025641,4183.589743,4179.487179,4488.205128,4145.641025,4570.769230,3943.589744,3983.589744
85,4329.743589,4396.923076,4477.435897,4268.717948,4440.512820,4131.794871,4397.948717,4178.461538,4181.025641,4491.282051,4137.948717,4572.307692,3948.717949,3982.051283
86,4326.666666,4388.205128,4472.307692,4262.564102,4433.846153,4127.179487,4397.435897,4167.179487,4168.205128,4490.769230,4134.871794,4568.717948,3929.230770,3966.666667
87,4320.512820,4382.051282,4463.589743,4264.615384,4425.641025,4122.564102,4391.282051,4167.179487,4169.743589,4482.051282,4145.641025,4561.538461,3914.358975,3956.410257
88,4313.333333,4381.025641,4458.461538,4255.897435,4424.102564,4119.487179,4382.564102,4164.102564,4168.205128,4473.846153,4135.897435,4553.846153,3917.948718,3954.358975
89,4307.179487,4376.923076,4458.461538,4247.179487,4426.153846,4114.871794,4378.974358,4153.333333,4159.487179,4466.153846,4123.589743,4550.769230,3917.435898,3951.794872
90,4310.769230,4374.871794,4460.000000,4251.282051,4425.641025,4113.333333,4382.051282,4156.923076,4168.205128,4471.282051,4137.948717,4562.051282,3916.410257,3952.820513
91,4318.974358,4375.384615,4461.538461,4248.717948,4422.564102,4115.897435,4380.512820,4164.102564,4173.846153,4485.128205,4143.589743,4568.717948,3922.564103,3953.333334
92,4320.512820,4374.358974,4460.000000,4247.179487,4418.974358,4114.871794,4377.435897,4158.461538,4161.025641,4484.615384,4130.256410,4561.538461,3923.589744,3956.923077
93,4316.923076,4378.461538,4460.000000,4252.307692,4419.487179,4112.307692,4381.538461,4153.846153,4159.487179,4475.897435,4132.307692,4558.974358,3923.589744,3960.512821
94,4309.743589,4380.512820,4460.000000,4249.230769,4423.076923,4114.358974,4381.538461,4152.820512,4165.641025,4475.384615,4134.871794,4560.000000,3925.641026,3960.512821
95,4307.692307,4372.307692,4457.435897,4246.666666,4421.025641,4114.358974,4373.333333,4149.743589,4156.410256,4473.846153,4126.153846,4556.410256,3920.000000,3955.897436
96,4318.461538,4372.307692,4458.974358,4256.923076,4420.512820,4114.871794,4373.846153,4151.794871,4156.410256,4475.384615,4131.794871,4556.923076,3916.410257,3956.923077
97,4321.025641,4380.512820,4462.564102,4256.410256,4423.076923,4118.461538,4378.461538,4153.333333,4166.153846,4476.923076,4137.435897,4559.487179,3922.051283,3957.948718
98,4308.205128,4374.871794,4453.333333,4243.589743,4417.435897,4114.358974,4372.820512,4144.615384,4155.897435,4465.641025,4118.974358,4551.282051,3916.923077,3947.179488
99,4308.205128,4368.717948,4450.256410,4248.717948,4410.256410,4107.179487,4368.717948,4142.564102,4142.051282,4461.538461,4110.256410,4549.230769,3909.230770,3944.102565
100,4320.512820,4383.589743,4466.666666,4265.128205,4415.897435,4110.769230,4377.435897,4156.410256,4154.358974,4474.871794,4127.179487,4558.461538,3914.871795,3952.820513
101,4322.051282,4389.230769,4471.794871,4268.717948,4424.102564,4116.923076,4384.102564,4164.102564,4169.743589,4477.435897,4135.897435,4560.512820,3911.794872,3955.384616
102,4316.410256,4380.000000,4464.102564,4260.512820,4422.564102,4116.410256,4379.487179,4160.000000,4162.564102,4467.179487,4130.769230,4554.871794,3906.666667,3949.743590
103,4314.871794,4382.051282,4464.102564,4254.871794,4421.025641,4114.358974,4375.384615,4156.410256,4153.846153,4469.230769,4127.179487,4553.846153,3913.333334,3953.333334
104,4315.384615,4386.153846,4463.589743,4254.358974,4421.538461,4112.820512,4377.435897,4154.358974,4154.871794,4475.384615,4123.076923,4556.923076,3909.743590,3957.948718
105,4313.333333,4375.897435,4455.384615,4251.794871,4415.384615,4109.743589,4374.358974,4146.153846,4149.743589,4464.615384,4120.512820,4548.717948,3891.794872,3949.230770
106,4308.205128,4371.282051,4452.307692,4253.333333,4414.358974,4108.205128,4366.666666,4136.410256,4135.384615,4451.794871,4119.487179,4536.923076,3888.717949,3945.128206
107,4306.666666,4381.538461,4456.923076,4260.512820,4421.538461,4112.307692,4368.205128,4135.384615,4130.769230,4454.358974,4119.487179,4543.076923,3904.615385,3952.307693
108,4312.820512,4384.102564,4460.000000,4261.025641,4422.564102,4114.358974,4373.846153,4138.974358,4140.512820,4463.589743,4123.589743,4556.410256,3915.897436,3958.461539
109,4312.820512,4374.358974,4458.461538,4248.717948,4419.487179,4110.256410,4370.769230,4141.025641,4145.128205,4464.615384,4129.743589,4553.846153,3909.743590,3954.871795
110,4313.846153,4375.384615,4455.897435,4244.102564,4417.948717,4108.717948,4368.717948,4147.692307,4147.692307,4469.230769,4131.794871,4552.307692,3905.128206,3955.897436
111,4320.512820,4390.256410,4461.538461,4258.461538,4415.384615,4107.692307,4373.846153,4158.974358,4163.076923,4487.179487,4135.897435,4564.615384,3913.333334,3966.666667
112,4315.384615,4391.282051,4462.051282,4262.051282,4413.846153,4106.666666,4371.794871,4157.435897,4167.179487,4486.153846,4136.410256,4562.564102,3914.871795,3968.717949
113,4307.692307,4380.000000,4452.820512,4252.307692,4416.410256,4108.717948,4366.153846,4140.512820,4146.666666,4464.615384,4123.589743,4545.128205,3902.564103,3962.564103
114,4308.717948,4376.410256,4445.641025,4246.666666,4415.897435,4109.230769,4367.692307,4132.307692,4134.871794,4463.076923,4114.871794,4537.435897,3893.333334,3955.897436
115,4304.102564,4373.846153,4445.641025,4243.076923,4415.384615,4108.717948,4371.282051,4135.897435,4143.076923,4472.820512,4117.435897,4542.564102,3893.846154,3949.230770
116,4298.974358,4373.846153,4445.641025,4236.923076,4413.846153,4107.692307,4369.230769,4135.384615,4141.025641,4467.179487,4117.948717,4544.102564,3897.948718,3944.102565
117,4302.051282,4381.538461,4443.589743,4232.820512,4411.282051,4106.153846,4366.153846,4129.743589,4133.846153,4461.538461,4116.923076,4540.000000,3897.948718,3943.076924
118,4300.512820,4383.589743,4445.641025,4243.076923,4414.358974,4105.641025,4369.230769,4129.743589,4140.512820,4462.564102,4120.512820,4543.589743,3891.794872,3945.128206
119,4295.384615,4371.794871,4447.692307,4249.743589,4412.307692,4103.589743,4366.666666,4129.230769,4142.051282,4456.410256,4115.384615,4545.128205,3887.692308,3939.487180
120,4295.897435,4362.564102,4444.615384,4243.589743,4409.743589,4101.025641,4355.897435,4121.538461,4130.256410,4455.384615,4101.538461,4541.025641,3887.692308,3930.256411
121,4297.948717,4373.333333,4445.128205,4242.051282,4413.846153,4105.128205,4358.461538,4124.102564,4132.307692,4461.538461,4109.230769,4546.153846,3893.333334,3936.410257
122,4302.564102,4388.717948,4450.256410,4248.717948,4413.333333,4104.615384,4366.666666,4133.846153,4144.615384,4460.512820,4128.717948,4554.358974,3901.025642,3950.256411
123,4306.153846,4387.692307,4449.743589,4249.743589,4410.769230,4099.487179,4363.076923,4135.897435,4141.025641,4460.512820,4130.769230,4554.358974,3902.564103,3947.179488
124,4302.051282,4378.461538,4446.153846,4246.666666,4412.820512,4102.051282,4361.025641,4133.333333,4134.871794,4467.179487,4120.000000,4547.692307,3898.461539,3933.333334
125,4297.435897,4376.923076,4445.128205,4248.717948,4412.307692,4104.615384,4366.666666,4137.435897,4144.615384,4465.128205,4118.461538,4548.205128,3889.230770,3934.358975
126,4298.974358,4380.000000,4445.641025,4250.769230,4409.743589,4101.538461,4369.230769,4140.000000,4150.769230,4461.538461,4120.000000,4550.769230,3890.256411,3944.615385
127,4297.948717,4377.948717,4445.641025,4245.128205,4412.820512,4102.051282,4365.128205,4136.923076,4141.538461,4466.666666,4113.846153,4546.153846,3894.871795,3942.051283
128,4294.358974,4372.820512,4442.564102,4234.871794,4412.307692,4106.153846,4363.589743,4135.384615,4133.846153,4465.128205,4104.615384,4537.948717,3880.512821,3929.743590
129,4294.871794,4371.794871,4439.487179,4233.333333,4412.820512,4109.743589,4368.205128,4134.871794,4135.897435,4453.846153,4104.102564,4535.897435,3868.205129,3927.179488
130,4299.487179,4378.461538,4447.179487,4246.153846,4417.435897,4113.846153,4375.897435,4137.948717,4136.410256,4452.307692,4118.974358,4542.051282,3884.102565,3941.025642
131,4300.512820,4381.025641,4452.820512,4250.256410,4415.384615,4112.820512,4376.410256,4140.000000,4138.461538,4458.461538,4128.717948,4547.692307,3899.487180,3946.666667
132,4301.025641,4376.410256,4448.205128,4246.666666,4411.282051,4106.666666,4371.794871,4137.435897,4151.282051,4458.974358,4120.000000,4548.717948,3893.846154,3940.000000
133,4308.717948,4377.948717,4451.794871,4249.743589,4413.333333,4107.179487,4372.820512,4137.948717,4153.333333,4458.461538,4112.307692,4545.128205,3887.692308,3939.487180
134,4310.769230,4382.051282,4455.897435,4244.102564,4416.410256,4112.307692,4371.794871,4139.487179,4136.410256,4454.871794,4116.923076,4540.512820,3887.179488,3945.641026
135,4299.487179,4375.384615,4445.641025,4235.384615,4410.769230,4109.743589,4363.076923,4128.717948,4122.051282,4449.230769,4114.358974,4537.435897,3882.051283,3940.000000
136,4292.820512,4373.333333,4444.615384,4242.051282,4410.256410,4107.692307,4364.102564,4124.615384,4131.282051,4457.948717,4110.769230,4538.974358,3877.435898,3928.717949
137,4304.615384,4384.615384,4458.974358,4251.794871,4419.487179,4115.897435,4378.461538,4142.051282,4149.743589,4468.205128,4118.974358,4549.230769,3884.615385,3935.897436
138,4315.897435,4392.820512,4463.589743,4249.230769,4420.512820,4119.487179,4384.615384,4148.205128,4150.769230,4466.153846,4124.615384,4555.897435,3900.512821,3950.256411
139,4312.820512,4390.769230,4456.923076,4245.128205,4414.871794,4112.820512,4374.358974,4137.435897,4142.051282,4464.102564,4118.974358,4552.307692,3902.051283,3947.692308
140,4308.717948,4389.230769,4457.948717,4249.230769,4420.512820,4115.384615,4372.307692,4139.487179,4150.769230,4469.743589,4115.384615,4550.256410,3889.230770,3945.128206
141,4315.897435,4394.358974,4462.564102,4260.512820,4432.820512,4126.666666,4381.538461,4151.794871,4163.076923,4478.461538,4131.282051,4557.435897,3895.384616,3958.974359
142,4320.512820,4397.435897,4463.076923,4269.743589,4431.794871,4126.153846,4381.025641,4154.871794,4158.461538,4477.948717,4140.000000,4557.948717,3911.282052,3963.589744
143,4310.256410,4385.641025,4457.948717,4255.384615,4415.384615,4112.307692,4368.205128,4145.128205,4149.743589,4463.076923,4121.025641,4542.564102,3903.589744,3951.794872
144,4306.153846,4376.923076,4454.871794,4245.641025,4408.717948,4108.717948,4364.102564,4141.025641,4151.282051,4462.051282,4118.461538,4537.948717,3893.846154,3954.358975
145,4319.487179,4388.717948,4460.512820,4258.461538,4419.487179,4116.923076,4370.256410,4147.179487,4156.923076,4481.538461,4147.692307,4552.820512,3906.666667,3970.769231
146,4323.589743,4395.897435,4463.589743,4258.461538,4419.487179,4114.871794,4368.205128,4147.692307,4159.487179,4484.102564,4153.333333,4558.461538,3914.871795,3970.769231
147,4313.846153,4386.153846,4458.974358,4251.794871,4411.794871,4108.717948,4365.641025,4143.589743,4157.948717,4466.153846,4127.179487,4551.282051,3905.641026,3957.435898
148,4311.282051,4385.641025,4460.512820,4258.461538,4414.871794,4111.282051,4374.871794,4147.179487,4160.512820,4467.692307,4127.692307,4551.794871,3906.153847,3962.051283
149,4317.435897,4395.384615,4466.153846,4259.487179,4419.487179,4115.897435,4379.487179,4153.333333,4162.564102,4481.025641,4146.153846,4558.461538,3916.923077,3974.871795
150,4316.410256,4394.871794,4461.025641,4251.282051,4417.948717,4115.897435,4373.333333,4147.179487,4155.384615,4474.358974,4138.461538,4552.307692,3914.871795,3968.205129
151,4306.666666,4386.153846,4452.307692,4249.743589,4416.410256,4112.820512,4369.743589,4136.923076,4144.102564,4459.487179,4118.461538,4541.025641,3898.974359,3950.256411
152,4301.538461,4384.615384,4451.282051,4245.641025,4417.435897,4112.307692,4369.743589,4132.820512,4141.025641,4459.487179,4116.923076,4542.564102,3886.666667,3940.000000
153,4304.615384,4387.179487,4454.358974,4242.564102,4420.512820,4116.410256,4368.717948,4136.410256,4152.307692,4467.179487,4121.538461,4552.307692,3887.692308,3936.923077
154,4311.282051,4392.820512,4459.487179,4252.307692,4422.564102,4121.025641,4374.358974,4143.076923,4164.615384,4468.205128,4123.589743,4554.358974,3896.923077,3943.589744
155,4318.974358,4403.076923,4462.564102,4261.538461,4421.538461,4120.000000,4378.974358,4143.589743,4159.487179,4469.230769,4130.256410,4552.820512,3907.692308,3957.948718
156,4321.538461,4405.641025,4461.538461,4260.512820,4423.589743,4120.000000,4376.410256,4143.076923,4150.256410,4473.333333,4133.333333,4555.897435,3910.769231,3957.435898
157,4314.871794,4396.410256,4458.461538,4252.820512,4425.641025,4117.948717,4371.282051,4139.487179,4147.692307,4471.282051,4126.666666,4550.769230,3901.538462,3945.128206
158,4308.205128,4389.743589,4456.923076,4246.153846,4417.435897,4110.256410,4367.692307,4134.358974,4143.589743,4463.589743,4122.564102,4541.025641,3891.794872,3943.076924
159,4310.769230,4395.384615,4457.948717,4249.230769,4413.846153,4109.743589,4368.205128,4135.897435,4144.102564,4462.051282,4130.769230,4543.589743,3893.846154,3948.205129
160,4312.307692,4400.000000,4460.512820,4258.461538,4418.974358,4113.333333,4370.769230,4140.512820,4154.358974,4468.717948,4133.333333,4551.282051,3901.025642,3953.846154
161,4314.358974,4399.487179,4462.051282,4262.051282,4421.025641,4110.769230,4367.692307,4142.051282,4157.435897,4471.282051,4127.179487,4554.871794,3903.589744,3955.384616
162,4315.384615,4395.897435,4460.512820,4255.897435,4419.487179,4110.769230,4362.051282,4138.974358,4146.666666,4461.538461,4121.538461,4552.307692,3897.435898,3951.282052
163,4308.717948,4392.820512,4454.871794,4246.153846,4419.487179,4113.846153,4363.589743,4136.410256,4136.410256,4453.846153,4121.025641,4546.666666,3891.282052,3949.743590
164,4309.230769,4393.333333,4454.358974,4244.615384,4417.435897,4111.794871,4367.692307,4138.461538,4140.000000,4459.487179,4126.153846,4542.564102,3894.358975,3957.948718
165,4312.307692,4393.846153,4454.871794,4250.769230,4412.820512,4106.666666,4367.692307,4141.025641,4149.230769,4466.666666,4128.205128,4539.487179,3895.897436,3958.974359
166,4301.025641,4388.717948,4449.230769,4249.230769,4412.307692,4106.666666,4365.128205,4137.948717,4146.666666,4466.153846,4118.461538,4537.435897,3890.769231,3946.666667
167,4292.307692,4387.179487,4442.051282,4242.051282,4414.358974,4108.205128,4362.564102,4132.307692,4142.564102,4463.076923,4108.205128,4533.333333,3892.820513,3943.076924
168,4301.025641,4391.794871,4444.615384,4243.076923,4416.923076,4107.692307,4364.102564,4134.871794,4145.641025,4461.025641,4115.384615,4528.717948,3892.820513,3950.769231
169,4307.179487,4391.794871,4453.333333,4249.230769,4420.000000,4109.743589,4368.205128,4140.512820,4145.128205,4459.487179,4129.743589,4529.743589,3884.102565,3950.769231
170,4305.128205,4388.717948,4452.307692,4251.282051,4420.512820,4112.307692,4370.256410,4141.538461,4142.051282,4460.000000,4126.153846,4534.358974,3887.692308,3947.179488
171,4305.641025,4386.666666,4446.666666,4250.256410,4418.974358,4112.307692,4371.282051,4139.487179,4149.230769,4466.666666,4116.410256,4534.871794,3900.000000,3948.205129
172,4306.666666,4382.564102,4449.230769,4249.743589,4420.000000,4112.307692,4373.846153,4140.512820,4158.461538,4473.846153,4122.051282,4534.871794,3901.538462,3951.282052
173,4309.743589,4379.487179,4452.820512,4250.769230,4426.153846,4120.000000,4377.948717,4142.051282,4151.794871,4474.871794,4129.230769,4540.000000,3904.102565,3955.897436
174,4309.743589,4374.871794,4448.205128,4246.666666,4427.692307,4121.025641,4374.358974,4140.512820,4141.538461,4472.820512,4115.897435,4540.000000,3906.153847,3952.307693
175,4304.615384,4362.051282,4443.076923,4235.384615,4422.564102,4112.820512,4370.256410,4138.461538,4146.153846,4465.128205,4108.717948,4535.897435,3903.589744,3941.538462
176,4304.615384,4358.461538,4446.666666,4240.000000,4424.102564,4114.358974,4375.384615,4138.974358,4149.743589,4456.923076,4125.128205,4537.948717,3915.384616,3946.666667
177,4308.717948,4367.692307,4448.717948,4253.333333,4429.230769,4121.538461,4380.000000,4140.512820,4143.589743,4461.538461,4131.794871,4540.512820,3928.717949,3957.948718
178,4301.538461,4364.102564,4444.102564,4248.717948,4426.153846,4118.974358,4373.333333,4135.897435,4140.000000,4469.230769,4111.794871,4535.897435,3917.435898,3951.282052
179,4298.974358,4359.487179,4443.076923,4241.025641,4425.128205,4114.871794,4368.205128,4133.333333,4141.538461,4472.307692,4102.564102,4535.897435,3909.230770,3945.641026
180,4314.358974,4374.871794,4454.871794,4249.230769,4430.769230,4118.974358,4375.897435,4138.461538,4145.128205,4476.410256,4118.974358,4548.717948,3925.641026,3956.923077
181,4321.025641,4380.512820,4458.974358,4250.769230,4429.230769,4117.435897,4378.461538,4141.538461,4153.333333,4474.871794,4128.205128,4553.846153,3936.923077,3965.128206
182,4307.179487,4364.615384,4448.717948,4241.025641,4420.000000,4110.256410,4370.256410,4135.897435,4151.282051,4465.128205,4121.025641,4544.102564,3927.692308,3962.564103
183,4296.410256,4357.435897,4443.076923,4240.512820,4417.948717,4112.307692,4367.179487,4127.692307,4134.871794,4456.923076,4114.871794,4536.410256,3911.794872,3956.923077
184,4298.974358,4368.205128,4444.615384,4245.128205,4422.051282,4115.384615,4367.692307,4120.000000,4128.717948,4456.410256,4111.282051,4535.384615,3906.666667,3950.769231
185,4308.205128,4377.948717,4451.794871,4249.743589,4422.051282,4112.820512,4366.666666,4123.589743,4141.025641,4463.076923,4110.769230,4541.538461,3916.410257,3947.692308
186,4313.846153,4377.948717,4456.410256,4250.256410,4421.025641,4111.794871,4367.179487,4135.384615,4148.205128,4467.179487,4109.230769,4547.692307,3925.641026,3950.256411
187,4313.846153,4379.487179,4457.948717,4248.205128,4426.666666,4118.974358,4373.846153,4139.487179,4144.615384,4465.128205,4105.641025,4550.256410,3921.025642,3957.435898
188,4312.820512,4381.538461,4459.487179,4251.282051,4432.820512,4123.589743,4380.000000,4137.948717,4145.641025,4461.538461,4111.794871,4549.230769,3908.717949,3960.000000
189,4306.666666,4375.384615,4456.410256,4252.820512,4425.641025,4116.410256,4377.948717,4137.435897,4149.230769,4459.487179,4118.461538,4543.076923,3906.666667,3952.820513
190,4302.051282,4370.256410,4453.333333,4249.230769,4417.948717,4111.794871,4374.871794,4137.435897,4146.666666,4466.666666,4117.948717,4543.076923,3916.923077,3949.230770
191,4310.769230,4374.871794,4456.923076,4246.666666,4421.538461,4114.871794,4377.435897,4138.461538,4145.128205,4475.897435,4122.051282,4550.256410,3924.102565,3955.897436
192,4314.358974,4376.410256,4455.384615,4243.076923,4419.487179,4111.282051,4374.358974,4132.820512,4146.153846,4469.743589,4124.615384,4546.666666,3917.948718,3961.025642
193,4303.589743,4371.282051,4444.615384,4239.487179,4408.205128,4100.000000,4362.564102,4126.153846,4138.974358,4457.435897,4117.948717,4535.384615,3909.743590,3958.461539
194,4295.897435,4368.205128,4440.512820,4236.410256,4406.666666,4100.000000,4358.974358,4127.179487,4134.358974,4457.435897,4108.205128,4536.410256,3910.256411,3952.307693
195,4298.461538,4366.153846,4447.179487,4235.384615,4413.846153,4108.717948,4364.615384,4129.743589,4144.615384,4461.538461,4109.230769,4540.000000,3914.871795,3947.692308
196,4302.564102,4370.256410,4455.384615,4243.076923,4418.974358,4109.230769,4369.743589,4133.846153,4150.256410,4462.051282,4125.128205,4540.512820,3914.871795,3953.846154
197,4304.615384,4372.820512,4456.923076,4251.794871,4417.435897,4106.666666,4367.179487,4134.358974,4142.051282,4462.051282,4126.666666,4542.564102,3909.743590,3961.538462
198,4297.435897,4363.076923,4446.153846,4245.128205,4415.897435,4108.717948,4362.051282,4125.641025,4133.333333,4465.641025,4107.692307,4536.923076,3908.717949,3956.410257
199,4291.282051,4361.025641,4440.512820,4238.461538,4419.487179,4111.794871,4363.589743,4125.128205,4132.820512,4468.205128,4105.128205,4533.846153,3916.410257,3950.256411
200,4296.923076,4374.871794,4448.717948,4243.589743,4422.564102,4109.230769,4368.205128,4136.410256,4141.025641,4464.615384,4118.461538,4541.025641,3916.923077,3955.384616
201,4304.615384,4381.025641,4457.435897,4248.717948,4420.512820,4110.769230,4370.769230,4141.025641,4156.410256,4467.179487,4118.461538,4547.179487,3904.615385,3956.410257
202,4307.692307,4381.025641,4460.000000,4257.435897,4426.666666,4118.461538,4375.384615,4140.512820,4158.974358,4473.846153,4118.974358,4549.743589,3906.153847,3958.461539
203,4312.307692,4389.743589,4458.461538,4264.615384,4431.282051,4117.435897,4376.923076,4137.435897,4147.179487,4472.820512,4125.641025,4551.282051,3924.102565,3961.538462
204,4313.846153,4390.769230,4457.948717,4261.025641,4423.076923,4110.256410,4370.769230,4131.282051,4140.000000,4469.230769,4128.205128,4552.307692,3923.076924,3954.871795
205,4313.333333,4385.128205,4461.025641,4256.923076,4423.076923,4113.846153,4371.794871,4132.820512,4145.128205,4472.307692,4132.820512,4552.307692,3910.256411,3953.333334
206,4320.512820,4392.820512,4465.128205,4260.512820,4435.897435,4121.538461,4380.512820,4142.564102,4156.410256,4484.102564,4139.487179,4554.871794,3914.358975,3963.589744
207,4321.538461,4402.564102,4469.230769,4263.589743,4439.487179,4121.025641,4383.589743,4148.205128,4164.615384,4489.230769,4135.897435,4557.435897,3926.153847,3966.666667
208,4313.846153,4400.000000,4468.717948,4266.666666,4430.769230,4121.025641,4378.974358,4144.615384,4161.025641,4477.435897,4121.025641,4555.384615,3929.743590,3962.564103
209,4314.871794,4392.820512,4464.615384,4263.589743,4425.641025,4118.974358,4372.820512,4132.307692,4147.692307,4467.692307,4117.435897,4552.307692,3926.153847,3962.051283
210,4318.461538,4391.794871,4460.000000,4252.820512,4428.205128,4114.871794,4367.179487,4125.641025,4141.025641,4475.384615,4135.897435,4553.846153,3913.333334,3961.538462
211,4319.487179,4400.000000,4460.000000,4258.974358,4427.179487,4116.923076,4369.230769,4133.846153,4150.769230,4483.589743,4148.717948,4556.410256,3912.307693,3966.666667
212,4322.051282,4411.794871,4469.230769,4271.794871,4427.692307,4120.512820,4376.923076,4137.435897,4160.512820,4480.512820,4137.435897,4556.410256,3929.743590,3977.948718
213,4317.948717,4408.717948,4472.307692,4265.128205,4430.256410,4117.435897,4376.410256,4140.000000,4162.051282,4482.051282,4127.692307,4558.974358,3938.461539,3980.512821
214,4315.897435,4397.435897,4468.205128,4264.102564,4429.230769,4115.897435,4375.897435,4152.307692,4166.153846,4491.282051,4135.384615,4565.128205,3937.948718,3977.435898
215,4318.461538,4398.461538,4465.128205,4273.846153,4428.205128,4120.000000,4380.000000,4147.179487,4159.487179,4484.615384,4138.461538,4562.051282,3928.205129,3974.871795
216,4313.846153,4401.538461,4462.051282,4265.641025,4429.230769,4120.000000,4375.897435,4126.666666,4140.000000,4464.615384,4131.794871,4552.820512,3911.282052,3971.794872
217,4313.846153,4404.615384,4461.538461,4261.538461,4429.230769,4117.435897,4369.743589,4126.666666,4143.589743,4465.128205,4126.666666,4554.358974,3917.435898,3971.794872
218,4318.974358,4407.179487,4464.615384,4272.307692,4427.692307,4116.410256,4373.846153,4139.487179,4158.974358,4481.538461,4128.205128,4557.435897,3934.358975,3970.769231
219,4312.820512,4400.512820,4464.615384,4267.692307,4423.076923,4109.230769,4373.846153,4136.410256,4153.846153,4479.487179,4132.307692,4553.333333,3926.666667,3966.153847
220,4312.820512,4395.897435,4465.128205,4258.461538,4418.974358,4106.153846,4369.743589,4134.871794,4147.179487,4471.282051,4136.923076,4557.948717,3917.948718,3967.179488
221,4325.641025,4402.564102,4470.769230,4263.589743,4425.641025,4115.384615,4378.461538,4147.179487,4159.487179,4481.025641,4144.615384,4569.230769,3929.230770,3974.871795
222,4325.641025,4405.641025,4468.717948,4268.205128,4431.282051,4121.025641,4384.615384,4151.794871,4169.230769,4484.102564,4148.205128,4566.666666,3932.820513,3970.769231
223,4310.256410,4397.948717,4459.487179,4264.615384,4426.153846,4113.846153,4376.923076,4142.051282,4156.410256,4467.692307,4137.435897,4554.871794,3922.051283,3952.307693
224,4303.076923,4392.307692,4457.948717,4262.051282,4420.512820,4107.179487,4374.871794,4134.871794,4143.076923,4462.564102,4126.153846,4550.769230,3909.743590,3945.128206
225,4308.717948,4391.794871,4458.974358,4258.461538,4420.512820,4107.692307,4377.435897,4136.923076,4146.153846,4475.897435,4128.717948,4550.769230,3909.230770,3952.307693
226,4312.820512,4392.820512,4458.974358,4254.871794,4425.128205,4111.794871,4374.871794,4140.512820,4152.820512,4480.000000,4129.230769,4551.794871,3913.333334,3954.871795
227,4310.769230,4396.923076,4462.051282,4258.974358,4429.743589,4115.384615,4376.410256,4139.487179,4150.769230,4474.358974,4124.102564,4555.897435,3911.282052,3948.205129
228,4305.641025,4398.461538,4461.025641,4262.051282,4426.153846,4114.358974,4380.512820,4133.846153,4141.538461,4467.179487,4127.692307,4555.384615,3904.615385,3944.615385
229,4295.897435,4389.230769,4451.794871,4255.897435,4420.000000,4108.205128,4371.282051,4126.666666,4130.769230,4453.846153,4122.051282,4543.589743,3896.923077,3942.564103
230,4290.256410,4377.948717,4447.179487,4248.205128,4421.025641,4105.641025,4366.153846,4125.128205,4127.692307,4447.692307,4103.589743,4534.871794,3890.769231,3942.564103
231,4297.435897,4382.564102,4451.282051,4252.307692,4425.128205,4110.769230,4374.871794,4131.794871,4143.076923,4464.615384,4103.589743,4536.410256,3896.923077,3951.282052
232,4300.512820,4391.794871,4452.820512,4249.743589,4426.153846,4114.871794,4378.461538,4137.435897,4153.333333,4476.410256,4120.512820,4540.000000,3905.128206,3954.871795
233,4292.307692,4385.128205,4445.128205,4236.410256,4422.051282,4108.717948,4368.205128,4132.307692,4144.615384,4465.128205,4118.974358,4537.948717,3891.282052,3947.179488
234,4292.307692,4377.435897,4443.589743,4242.564102,4416.923076,4102.051282,4363.589743,4126.666666,4135.897435,4453.333333,4117.435897,4534.358974,3878.974359,3947.179488
235,4301.538461,4388.717948,4454.358974,4265.641025,4418.974358,4106.153846,4372.820512,4131.282051,4141.538461,4457.948717,4132.820512,4540.512820,3897.435898,3962.564103
236,4311.282051,4403.076923,4464.615384,4274.358974,4427.179487,4113.846153,4379.487179,4137.435897,4150.769230,4469.743589,4134.358974,4553.333333,3918.974359,3967.179488
237,4313.333333,4398.974358,4462.051282,4262.051282,4426.666666,4114.358974,4375.897435,4132.820512,4148.717948,4469.743589,4123.589743,4555.897435,3914.358975,3956.410257
238,4312.820512,4394.871794,4460.000000,4260.512820,4425.128205,4115.897435,4377.948717,4131.794871,4147.179487,4468.717948,4133.846153,4551.282051,3905.128206,3961.538462
239,4321.025641,4406.666666,4473.846153,4277.948717,4435.897435,4123.076923,4390.256410,4146.666666,4161.025641,4483.076923,4153.846153,4558.974358,3919.487180,3977.948718
240,4324.615384,4412.820512,4478.974358,4281.538461,4440.000000,4124.615384,4392.820512,4154.358974,4169.743589,4486.153846,4155.897435,4565.128205,3929.230770,3973.846154
241,4312.307692,4405.641025,4463.589743,4266.666666,4432.307692,4118.461538,4384.102564,4145.641025,4157.948717,4470.256410,4140.512820,4556.923076,3916.410257,3956.410257
242,4306.153846,4403.589743,4457.435897,4266.153846,4431.794871,4116.923076,4380.000000,4140.000000,4147.692307,4467.692307,4129.230769,4550.769230,3908.717949,3955.384616
243,4315.897435,4409.743589,4463.589743,4277.948717,4434.871794,4120.000000,4380.000000,4142.051282,4153.846153,4476.410256,4134.358974,4552.820512,3915.897436,3965.641026
244,4314.871794,4410.256410,4465.128205,4269.743589,4432.820512,4119.487179,4382.051282,4140.512820,4157.435897,4472.820512,4137.948717,4552.307692,3913.846154,3961.025642
245,4304.615384,4402.051282,4460.000000,4256.923076,4431.794871,4118.461538,4384.615384,4136.923076,4152.307692,4465.128205,4128.717948,4548.205128,3903.589744,3948.717949
246,4308.205128,4397.435897,4459.487179,4261.538461,4433.846153,4121.025641,4386.153846,4136.410256,4149.230769,4465.128205,4129.743589,4549.230769,3907.692308,3952.820513
247,4310.256410,4401.538461,4461.025641,4266.153846,4433.846153,4122.051282,4385.128205,4133.846153,4148.205128,4465.641025,4140.000000,4550.769230,3912.820513,3961.538462
248,4308.205128,4402.051282,4462.051282,4264.102564,4434.358974,4118.461538,4384.102564,4136.923076,4152.307692,4472.820512,4137.435897,4550.256410,3908.717949,3958.974359
249,4312.307692,4399.487179,4462.051282,4264.102564,4431.282051,4114.358974,4383.589743,4141.538461,4156.410256,4479.487179,4133.846153,4552.307692,3906.666667,3961.025642
250,4310.256410,4402.051282,4458.974358,4262.564102,4424.102564,4112.820512,4380.512820,4138.974358,4153.846153,4476.410256,4134.871794,4553.333333,3908.717949,3964.615385
251,4306.666666,4407.179487,4459.487179,4262.564102,4427.692307,4117.435897,4379.487179,4136.923076,4153.333333,4474.871794,4127.692307,4552.820512,3909.743590,3961.538462
252,4314.358974,4405.128205,4465.641025,4272.307692,4438.974358,4123.589743,4387.692307,4141.538461,4158.974358,4474.871794,4133.333333,4553.333333,3908.717949,3964.615385
253,4316.410256,4405.641025,4471.282051,4277.948717,4440.512820,4125.128205,4397.435897,4145.128205,4163.589743,4477.435897,4151.282051,4556.410256,3907.692308,3973.846154
254,4312.307692,4411.282051,4474.358974,4272.820512,4432.820512,4121.538461,4394.358974,4145.641025,4158.974358,4477.948717,4146.153846,4561.025641,3910.769231,3973.333334
255,4319.487179,4411.282051,4474.871794,4271.282051,4430.769230,4119.487179,4387.692307,4146.666666,4151.282051,4472.307692,4129.230769,4562.564102,3920.512821,3971.794872
256,4324.102564,4411.794871,4473.846153,4271.794871,4436.410256,4122.051282,4387.179487,4144.615384,4152.820512,4473.846153,4135.384615,4558.974358,3923.076924,3971.282052
257,4316.410256,4412.820512,4469.230769,4266.153846,4434.358974,4122.051282,4385.128205,4140.512820,4158.974358,4480.512820,4147.692307,4556.410256,3912.307693,3963.076924
258,4311.282051,4402.564102,4462.564102,4259.487179,4426.153846,4113.846153,4380.000000,4134.358974,4152.820512,4472.307692,4146.153846,4555.897435,3900.512821,3954.358975
259,4311.794871,4396.410256,4458.974358,4258.461538,4418.461538,4105.641025,4373.846153,4127.692307,4138.974358,4461.538461,4137.435897,4552.307692,3901.538462,3951.282052
260,4311.794871,4405.128205,4458.974358,4267.179487,4417.948717,4106.153846,4372.307692,4130.256410,4142.051282,4463.589743,4123.589743,4550.769230,3908.205129,3944.102565
