,AF3,F7,F3,FC5,T7,P7,O1,O2,P8,T8,FC6,F4,F8,AF4
0,4302.051282,4505.641025,4524.615384,4260.512820,4490.256410,4184.102564,4424.102564,4197.948717,4209.743589,4487.179487,4201.025641,4656.410256,3994.358975,4033.333333
1,4310.769230,4506.153846,4526.153846,4258.461538,4491.794871,4186.153846,4427.692307,4202.564102,4210.256410,4472.820512,4190.256410,4657.435897,4000.000000,4033.333333
2,4312.820512,4502.051282,4522.564102,4249.743589,4483.076923,4173.846153,4426.153846,4195.384615,4210.256410,4476.410256,4186.666666,4655.897435,3991.282052,4032.307692
3,4308.205128,4495.897435,4518.974358,4251.282051,4478.974358,4170.256410,4422.051282,4188.205128,4207.692307,4492.307692,4190.769230,4654.358974,3989.230770,4034.358974
4,4307.692307,4500.512820,4517.948717,4262.564102,4480.000000,4175.384615,4416.923076,4187.179487,4207.692307,4490.256410,4188.205128,4656.410256,3995.897436,4033.333333
5,4311.282051,4508.717948,4517.435897,4263.076923,4480.512820,4174.358974,4418.461538,4191.794871,4213.333333,4485.128205,4185.128205,4657.948717,3993.333334,4027.179487
6,4310.769230,4508.717948,4516.923076,4257.435897,4486.666666,4177.435897,4428.205128,4198.974358,4215.897435,4489.230769,4194.871794,4655.384615,3991.282052,4030.256410
7,4307.692307,4500.000000,4519.487179,4256.410256,4489.230769,4181.538461,4430.769230,4198.974358,4213.846153,4489.230769,4197.435897,4652.307692,3995.384616,4036.923076
8,4306.666666,4497.435897,4517.948717,4256.923076,4480.512820,4178.461538,4426.666666,4193.333333,4213.846153,4488.717948,4187.179487,4649.230769,3993.333334,4030.256410
9,4305.641025,4504.102564,4514.871794,4254.871794,4478.461538,4178.461538,4426.666666,4195.384615,4214.871794,4490.769230,4181.538461,4650.769230,3987.179488,4021.025641
10,4304.615384,4504.615384,4518.974358,4254.871794,4488.205128,4181.538461,4429.230769,4198.974358,4216.923076,4490.256410,4186.666666,4653.333333,3988.205129,4026.666666
11,4305.128205,4501.025641,4519.487179,4259.487179,4489.743589,4180.000000,4426.666666,4194.358974,4216.410256,4490.769230,4190.769230,4650.769230,3997.435898,4031.282051
12,4307.179487,4504.102564,4518.974358,4266.666666,4487.179487,4182.051282,4426.153846,4196.923076,4216.410256,4492.820512,4184.615384,4650.769230,4010.769230,4025.641025
13,4314.358974,4511.282051,4525.128205,4272.307692,4492.307692,4188.205128,4432.820512,4205.641025,4220.512820,4495.897435,4185.128205,4659.487179,4021.538461,4029.230769
14,4320.000000,4516.923076,4529.743589,4272.820512,4493.333333,4186.666666,4434.871794,4203.076923,4222.564102,4498.974358,4198.974358,4665.641025,4025.128205,4040.000000
15,4315.384615,4520.000000,4524.615384,4269.743589,4491.794871,4185.641025,4429.230769,4194.871794,4218.974358,4494.871794,4205.128205,4664.102564,4024.615384,4040.000000
16,4309.743589,4513.333333,4517.948717,4266.153846,4491.282051,4185.128205,4426.153846,4188.717948,4215.897435,4490.769230,4195.384615,4659.487179,4022.051282,4034.871794
17,4310.769230,4507.179487,4514.871794,4261.538461,4488.717948,4181.538461,4426.666666,4184.102564,4211.794871,4490.256410,4189.743589,4654.871794,4020.000000,4032.307692
18,4311.794871,4507.692307,4513.333333,4258.974358,4487.692307,4182.051282,4428.717948,4188.717948,4212.820512,4483.589743,4192.307692,4650.769230,4020.512820,4027.179487
19,4310.256410,4507.179487,4514.358974,4261.538461,4489.230769,4184.615384,4430.256410,4197.948717,4222.051282,4480.512820,4190.256410,4654.871794,4022.051282,4024.615384
20,4308.717948,4505.641025,4515.384615,4262.051282,4491.282051,4184.615384,4429.743589,4199.487179,4223.589743,4490.769230,4182.564102,4661.538461,4027.179487,4033.333333
21,4314.358974,4508.717948,4516.923076,4260.000000,4491.794871,4185.128205,4428.717948,4198.461538,4217.948717,4500.512820,4181.538461,4662.051282,4039.487179,4043.076923
22,4320.000000,4507.692307,4518.461538,4261.025641,4489.743589,4184.102564,4426.666666,4197.948717,4214.871794,4490.769230,4190.769230,4661.025641,4041.538461,4042.564102
23,4313.846153,4505.128205,4515.384615,4263.589743,4488.717948,4183.589743,4428.205128,4193.846153,4212.820512,4477.948717,4191.794871,4660.512820,4030.769230,4038.974358
24,4313.333333,4513.333333,4519.487179,4264.102564,4491.282051,4186.153846,4437.948717,4202.564102,4222.051282,4488.717948,4190.769230,4664.615384,4037.435897,4038.974358
25,4326.153846,4523.076923,4530.256410,4267.179487,4493.333333,4188.205128,4446.666666,4218.974358,4236.410256,4511.794871,4202.051282,4673.846153,4056.410256,4042.051282
26,4325.128205,4517.435897,4530.256410,4269.230769,4492.820512,4187.179487,4442.564102,4215.384615,4231.282051,4516.410256,4206.153846,4673.333333,4061.025641,4043.589743
27,4307.179487,4503.076923,4518.461538,4263.589743,4487.179487,4182.564102,4431.794871,4198.974358,4216.410256,4499.487179,4189.743589,4658.461538,4046.666666,4034.358974
28,4301.025641,4499.487179,4513.846153,4259.487179,4482.564102,4178.974358,4432.307692,4195.897435,4214.358974,4486.153846,4182.564102,4655.384615,4036.923076,4023.589743
29,4314.871794,4513.846153,4525.641025,4264.615384,4487.179487,4182.564102,4444.102564,4203.076923,4223.589743,4493.846153,4192.307692,4666.153846,4047.692307,4029.743589
30,4321.538461,4519.487179,4527.179487,4268.205128,4493.333333,4187.692307,4444.615384,4202.564102,4225.128205,4503.076923,4194.871794,4665.128205,4055.384615,4039.487179
31,4311.282051,4508.205128,4517.435897,4265.128205,4489.230769,4184.102564,4434.358974,4198.461538,4218.974358,4494.358974,4188.717948,4658.974358,4048.717948,4036.923076
32,4307.179487,4504.102564,4520.000000,4264.615384,4484.102564,4178.974358,4435.897435,4200.512820,4220.000000,4490.769230,4181.025641,4662.051282,4049.230769,4035.897435
33,4323.589743,4514.358974,4529.743589,4264.615384,4489.743589,4182.564102,4444.615384,4201.538461,4224.615384,4506.153846,4187.179487,4669.743589,4057.435897,4045.641025
34,4335.897435,4522.051282,4530.769230,4263.076923,4493.846153,4187.179487,4441.538461,4203.589743,4225.128205,4508.717948,4205.641025,4673.333333,4057.948717,4047.179487
35,4330.256410,4516.923076,4530.769230,4275.384615,4492.307692,4188.205128,4441.025641,4210.769230,4226.153846,4502.564102,4209.230769,4672.307692,4059.487179,4046.666666
36,4326.666666,4512.307692,4534.358974,4286.666666,4492.307692,4187.692307,4445.641025,4213.846153,4231.794871,4511.794871,4200.512820,4672.820512,4067.179487,4051.794871
37,4325.641025,4512.820512,4530.256410,4271.282051,4490.769230,4184.615384,4439.487179,4207.692307,4231.794871,4513.333333,4197.948717,4669.743589,4062.051282,4038.461538
38,4322.051282,4512.307692,4526.153846,4257.435897,4486.666666,4183.076923,4433.333333,4203.076923,4227.179487,4503.589743,4199.487179,4664.615384,4051.794871,4024.615384
39,4321.025641,4511.794871,4525.641025,4264.615384,4489.743589,4186.153846,4439.487179,4205.641025,4225.128205,4504.615384,4194.871794,4662.564102,4052.820512,4035.897435
40,4319.487179,4510.256410,4524.102564,4266.153846,4491.794871,4185.641025,4441.538461,4203.589743,4216.410256,4503.589743,4184.615384,4663.589743,4051.282051,4043.589743
41,4320.512820,4511.794871,4526.666666,4260.000000,4488.205128,4182.564102,4438.974358,4200.512820,4214.358974,4493.846153,4185.641025,4664.615384,4044.102564,4035.384615
42,4329.743589,4518.461538,4530.256410,4263.589743,4493.846153,4189.743589,4444.102564,4209.230769,4229.230769,4499.487179,4198.974358,4669.743589,4054.871794,4036.923076
43,4334.871794,4522.564102,4530.256410,4263.589743,4500.000000,4196.923076,4448.205128,4218.461538,4238.974358,4507.692307,4201.025641,4673.846153,4073.333333,4045.641025
44,4326.666666,4511.794871,4524.102564,4251.282051,4493.333333,4190.256410,4444.102564,4215.384615,4232.307692,4503.076923,4188.205128,4668.717948,4065.128205,4042.564102
45,4323.076923,4502.051282,4519.487179,4244.102564,4487.179487,4182.564102,4441.538461,4210.256410,4225.128205,4501.025641,4182.564102,4664.102564,4046.666666,4034.358974
46,4324.615384,4505.641025,4518.461538,4248.205128,4489.230769,4184.615384,4442.051282,4207.179487,4221.538461,4497.435897,4182.564102,4662.051282,4041.025641,4027.179487
47,4319.487179,4506.666666,4517.435897,4246.153846,4490.769230,4185.641025,4441.538461,4202.051282,4217.435897,4487.692307,4174.871794,4658.974358,4037.435897,4023.076923
48,4317.948717,4500.000000,4516.410256,4232.307692,4489.230769,4183.589743,4441.025641,4201.025641,4216.923076,4488.717948,4169.230769,4657.948717,4038.461538,4028.205128
49,4321.538461,4495.384615,4517.435897,4232.820512,4489.230769,4183.589743,4440.000000,4201.538461,4217.435897,4493.333333,4170.769230,4658.461538,4048.205128,4031.794871
50,4323.076923,4498.461538,4521.538461,4249.743589,4489.230769,4183.589743,4440.000000,4198.974358,4214.358974,4489.743589,4164.102564,4661.025641,4048.717948,4028.205128
51,4324.102564,4504.615384,4527.692307,4254.871794,4490.769230,4184.102564,4442.564102,4200.000000,4216.923076,4493.333333,4164.615384,4667.692307,4042.564102,4029.743589
52,4326.153846,4508.205128,4533.333333,4248.717948,4492.307692,4186.666666,4447.179487,4203.076923,4225.128205,4504.615384,4184.102564,4675.384615,4048.717948,4039.487179
53,4326.666666,4507.179487,4534.358974,4249.743589,4491.794871,4187.692307,4446.666666,4203.589743,4228.205128,4510.769230,4195.897435,4679.487179,4058.974358,4041.538461
54,4324.615384,4500.512820,4528.717948,4248.717948,4488.717948,4184.102564,4439.487179,4200.000000,4220.000000,4503.076923,4184.615384,4676.410256,4056.410256,4034.358974
55,4326.666666,4500.512820,4528.205128,4243.589743,4488.717948,4181.538461,4437.948717,4196.923076,4211.794871,4489.230769,4179.487179,4674.871794,4047.692307,4036.410256
56,4334.871794,4509.230769,4535.384615,4248.717948,4490.769230,4184.102564,4444.615384,4202.051282,4217.948717,4489.230769,4188.205128,4682.051282,4050.769230,4044.615384
57,4336.410256,4509.230769,4533.846153,4250.769230,4491.282051,4186.666666,4445.128205,4205.128205,4221.025641,4496.410256,4186.153846,4680.512820,4056.410256,4040.000000
58,4329.743589,4503.589743,4526.153846,4244.102564,4489.743589,4186.666666,4442.051282,4201.025641,4214.358974,4500.000000,4182.051282,4668.205128,4049.743589,4033.846153
59,4326.666666,4506.666666,4526.666666,4244.615384,4492.307692,4188.205128,4449.743589,4205.128205,4219.487179,4506.153846,4187.179487,4666.153846,4043.076923,4034.871794
60,4327.179487,4509.230769,4529.743589,4249.230769,4500.000000,4194.871794,4459.487179,4219.487179,4232.820512,4511.282051,4186.666666,4670.769230,4049.743589,4038.461538
61,4330.769230,4507.692307,4532.307692,4249.230769,4506.153846,4201.025641,4459.487179,4229.230769,4235.384615,4505.128205,4180.512820,4677.435897,4056.410256,4043.589743
62,4337.948717,4509.743589,4534.358974,4250.256410,4509.230769,4203.076923,4459.487179,4232.307692,4233.333333,4505.128205,4185.128205,4684.102564,4054.358974,4043.589743
63,4338.461538,4511.282051,4535.384615,4249.230769,4506.666666,4200.512820,4463.076923,4229.743589,4234.358974,4515.897435,4190.769230,4680.512820,4051.794871,4036.923076
64,4325.641025,4502.564102,4527.179487,4240.512820,4493.846153,4190.769230,4454.358974,4216.410256,4225.641025,4508.717948,4177.435897,4666.666666,4044.102564,4027.179487
65,4313.846153,4491.794871,4513.333333,4232.820512,4486.153846,4183.076923,4442.051282,4207.179487,4217.435897,4488.205128,4164.615384,4658.461538,4033.333333,4022.051282
66,4321.538461,4496.410256,4513.333333,4230.769230,4491.282051,4184.615384,4449.743589,4212.307692,4225.641025,4490.256410,4177.948717,4664.615384,4037.948717,4023.076923
67,4340.000000,4506.666666,4527.179487,4236.923076,4493.333333,4187.179487,4461.025641,4219.487179,4234.358974,4508.717948,4190.256410,4673.333333,4049.230769,4029.743589
68,4344.615384,4510.256410,4533.846153,4247.692307,4490.769230,4185.128205,4457.948717,4224.615384,4236.410256,4513.333333,4184.102564,4677.435897,4048.205128,4039.487179
69,4336.923076,4505.128205,4530.769230,4248.717948,4493.333333,4187.692307,4457.435897,4227.179487,4240.000000,4505.641025,4180.512820,4678.461538,4049.230769,4043.076923
70,4336.923076,4500.000000,4532.307692,4247.179487,4495.384615,4193.846153,4462.564102,4223.589743,4237.948717,4506.666666,4189.743589,4678.974358,4055.897435,4038.974358
71,4338.461538,4504.102564,4528.717948,4247.179487,4492.307692,4190.256410,4448.205128,4205.641025,4222.051282,4505.128205,4187.692307,4671.794871,4045.128205,4032.307692
72,4328.205128,4510.256410,4518.974358,4243.589743,4488.717948,4181.538461,4432.307692,4191.282051,4210.256410,4491.794871,4168.717948,4662.051282,4028.205128,4029.230769
73,4323.076923,4511.794871,4521.025641,4241.025641,4488.205128,4180.512820,4436.410256,4193.333333,4211.282051,4482.051282,4166.153846,4665.641025,4031.794871,4030.256410
74,4335.384615,4516.410256,4529.743589,4247.179487,4490.769230,4184.615384,4443.589743,4201.538461,4218.974358,4488.205128,4185.128205,4675.897435,4044.615384,4034.358974
75,4343.589743,4526.153846,4531.282051,4248.717948,4491.282051,4185.641025,4442.564102,4209.743589,4227.692307,4502.051282,4193.333333,4676.410256,4045.641025,4038.461538
76,4335.897435,4519.487179,4529.230769,4246.153846,4489.743589,4183.589743,4441.538461,4210.769230,4226.666666,4501.025641,4185.641025,4670.256410,4038.461538,4040.512820
77,4335.384615,4512.307692,4529.230769,4249.230769,4490.769230,4187.179487,4443.076923,4209.230769,4224.615384,4494.358974,4185.641025,4671.282051,4037.948717,4041.025641
78,4337.435897,4520.000000,4531.282051,4250.256410,4493.333333,4192.820512,4444.102564,4210.256410,4229.743589,4496.923076,4185.641025,4673.846153,4045.641025,4036.410256
79,4330.256410,4519.487179,4529.743589,4247.179487,4493.333333,4190.769230,4443.589743,4209.743589,4226.153846,4495.897435,4179.487179,4670.256410,4045.641025,4032.820512
80,4329.743589,4511.794871,4527.179487,4250.256410,4492.820512,4186.666666,4436.410256,4201.025641,4214.871794,4492.307692,4183.589743,4665.641025,4032.307692,4036.410256
81,4332.307692,4515.384615,4526.153846,4246.153846,4490.256410,4184.615384,4433.333333,4195.897435,4213.333333,4493.333333,4184.102564,4665.128205,4026.666666,4035.897435
82,4329.743589,4522.051282,4528.205128,4235.384615,4489.230769,4183.076923,4439.487179,4199.487179,4218.461538,4496.410256,4174.358974,4663.589743,4034.871794,4033.333333
83,4333.846153,4523.076923,4534.358974,4247.692307,4497.948717,4191.282051,4444.102564,4205.128205,4221.538461,4499.487179,4175.384615,4666.153846,4041.538461,4038.974358
84,4346.153846,4528.717948,4540.512820,4270.769230,4504.615384,4201.025641,4448.205128,4217.948717,4231.282051,4502.051282,4190.256410,4678.461538,4045.641025,4042.564102
85,4344.102564,4528.205128,4536.923076,4262.051282,4500.000000,4195.897435,4449.743589,4220.000000,4238.461538,4504.615384,4189.743589,4677.435897,4045.641025,4038.461538
86,4331.282051,4517.948717,4527.692307,4242.564102,4490.769230,4186.153846,4444.102564,4202.564102,4225.128205,4502.564102,4167.692307,4659.487179,4033.333333,4033.846153
87,4335.384615,4518.974358,4531.794871,4251.282051,4491.282051,4188.717948,4441.025641,4196.923076,4216.410256,4500.512820,4170.256410,4660.512820,4033.846153,4035.897435
88,4349.230769,4527.692307,4539.487179,4269.230769,4501.025641,4198.974358,4447.179487,4208.717948,4224.102564,4500.512820,4200.512820,4678.461538,4046.666666,4037.948717
89,4341.025641,4523.589743,4534.871794,4261.538461,4499.487179,4197.435897,4447.692307,4209.230769,4223.589743,4503.589743,4201.538461,4677.435897,4039.487179,4034.871794
90,4323.589743,4514.871794,4528.205128,4247.692307,4491.282051,4186.666666,4441.025641,4202.051282,4218.974358,4506.666666,4184.102564,4669.230769,4031.794871,4036.410256
91,4333.846153,4513.846153,4531.282051,4252.307692,4494.871794,4189.743589,4442.051282,4208.717948,4225.641025,4507.692307,4191.282051,4673.333333,4046.153846,4047.692307
92,4352.820512,4525.641025,4539.487179,4264.102564,4505.641025,4202.051282,4453.846153,4220.000000,4235.384615,4512.307692,4207.179487,4681.025641,4056.410256,4056.923076
93,4347.179487,4535.384615,4542.051282,4265.128205,4506.666666,4202.564102,4457.948717,4220.512820,4239.487179,4517.435897,4208.205128,4681.538461,4051.282051,4054.358974
94,4337.435897,4526.666666,4537.948717,4258.974358,4501.025641,4197.435897,4448.205128,4215.897435,4236.923076,4516.923076,4195.384615,4678.461538,4046.153846,4045.641025
95,4340.512820,4516.410256,4531.794871,4257.435897,4499.487179,4198.974358,4443.589743,4216.410256,4234.871794,4517.948717,4184.102564,4676.410256,4048.205128,4038.974358
96,4338.974358,4518.974358,4529.743589,4260.000000,4503.076923,4202.051282,4446.666666,4218.461538,4238.461538,4518.461538,4190.256410,4674.358974,4050.769230,4035.897435
97,4333.333333,4523.589743,4531.794871,4262.051282,4507.692307,4202.564102,4445.641025,4216.410256,4240.512820,4513.333333,4193.846153,4668.205128,4043.589743,4035.384615
98,4342.564102,4529.743589,4532.820512,4265.128205,4506.153846,4201.538461,4445.641025,4215.897435,4235.897435,4507.179487,4191.282051,4668.717948,4042.051282,4037.435897
99,4353.846153,4535.384615,4533.333333,4264.615384,4503.589743,4200.512820,4447.179487,4220.000000,4236.410256,4507.692307,4199.487179,4679.487179,4053.333333,4042.051282
100,4346.666666,4528.717948,4531.282051,4254.358974,4506.153846,4201.025641,4443.589743,4216.410256,4234.358974,4507.179487,4199.487179,4678.461538,4050.769230,4046.153846
101,4333.846153,4518.461538,4528.205128,4250.256410,4507.692307,4200.000000,4441.538461,4209.230769,4225.128205,4503.589743,4182.564102,4667.692307,4037.948717,4045.128205
102,4333.333333,4524.102564,4527.692307,4256.410256,4500.512820,4197.948717,4443.589743,4204.102564,4219.487179,4506.666666,4176.923076,4666.153846,4040.000000,4041.538461
103,4339.487179,4528.205128,4530.769230,4254.358974,4497.435897,4198.974358,4446.153846,4201.538461,4224.102564,4510.256410,4183.076923,4666.153846,4044.615384,4037.948717
104,4335.897435,4524.102564,4531.282051,4247.692307,4501.025641,4198.974358,4447.179487,4205.641025,4230.256410,4507.179487,4185.128205,4662.564102,4036.923076,4034.358974
105,4326.666666,4521.025641,4525.641025,4246.666666,4496.923076,4191.282051,4445.641025,4207.179487,4226.153846,4502.564102,4181.025641,4660.512820,4032.820512,4028.717948
106,4327.179487,4520.000000,4525.128205,4251.794871,4487.692307,4187.692307,4442.051282,4200.512820,4220.512820,4502.564102,4174.358974,4661.538461,4035.897435,4033.333333
107,4336.923076,4525.128205,4532.307692,4260.512820,4490.256410,4195.897435,4441.538461,4198.461538,4229.230769,4507.179487,4184.102564,4667.179487,4041.025641,4044.615384
108,4342.051282,4528.205128,4535.384615,4265.641025,4499.487179,4201.538461,4444.102564,4210.769230,4236.923076,4509.230769,4200.512820,4672.307692,4048.205128,4041.538461
109,4342.051282,4525.128205,4533.846153,4263.589743,4506.153846,4200.000000,4447.692307,4218.461538,4234.871794,4509.230769,4204.615384,4672.820512,4051.794871,4036.410256
110,4340.000000,4522.051282,4531.794871,4264.615384,4503.589743,4195.384615,4445.128205,4208.717948,4231.282051,4507.692307,4198.461538,4669.743589,4045.128205,4045.128205
111,4334.871794,4521.025641,4527.692307,4266.153846,4492.820512,4194.358974,4440.512820,4204.102564,4229.743589,4502.564102,4187.692307,4664.615384,4037.948717,4045.641025
112,4336.410256,4524.102564,4529.230769,4262.051282,4491.282051,4195.897435,4443.076923,4210.769230,4230.769230,4503.589743,4185.128205,4666.153846,4038.461538,4036.410256
113,4338.461538,4525.641025,4531.282051,4262.564102,4497.435897,4192.820512,4442.564102,4210.769230,4230.256410,4510.769230,4192.820512,4667.692307,4036.923076,4036.410256
114,4329.230769,4518.974358,4524.102564,4261.025641,4492.820512,4188.205128,4434.358974,4198.974358,4221.025641,4501.025641,4187.692307,4656.923076,4031.282051,4034.871794
115,4325.128205,4514.871794,4522.564102,4261.538461,4491.282051,4194.358974,4434.871794,4198.461538,4217.435897,4484.615384,4178.974358,4653.846153,4035.384615,4032.820512
116,4342.564102,4526.153846,4537.948717,4270.256410,4503.076923,4203.589743,4445.128205,4213.846153,4231.282051,4503.589743,4192.307692,4669.743589,4045.128205,4044.615384
117,4351.282051,4532.307692,4545.128205,4272.820512,4510.769230,4204.615384,4446.153846,4217.435897,4237.948717,4527.692307,4197.948717,4675.897435,4041.538461,4049.743589
118,4336.923076,4525.641025,4533.333333,4264.615384,4508.717948,4201.538461,4442.051282,4206.153846,4225.128205,4513.333333,4182.564102,4663.589743,4036.410256,4039.487179
119,4329.230769,4520.512820,4524.102564,4260.512820,4503.076923,4198.974358,4442.051282,4198.974358,4217.435897,4491.794871,4178.974358,4654.871794,4033.333333,4030.256410
120,4338.974358,4521.025641,4525.641025,4265.641025,4499.487179,4198.974358,4442.564102,4202.051282,4220.512820,4494.358974,4185.641025,4656.410256,4025.128205,4027.692307
121,4342.051282,4522.564102,4530.769230,4271.794871,4503.589743,4200.000000,4441.538461,4205.128205,4224.615384,4501.538461,4187.692307,4665.128205,4029.743589,4034.358974
122,4339.487179,4521.025641,4536.923076,4276.410256,4505.128205,4197.948717,4440.512820,4208.717948,4227.692307,4503.589743,4192.820512,4674.358974,4047.692307,4049.230769
123,4346.666666,4526.153846,4541.025641,4282.564102,4504.102564,4199.487179,4441.538461,4217.435897,4235.897435,4514.358974,4205.128205,4680.000000,4054.871794,4057.948717
124,4354.358974,4537.948717,4541.025641,4281.025641,4506.666666,4202.564102,4444.102564,4218.461538,4237.948717,4523.589743,4208.205128,4683.076923,4050.256410,4051.794871
125,4349.743589,4533.846153,4533.846153,4270.769230,4503.076923,4195.897435,4437.948717,4207.179487,4226.666666,4517.435897,4192.307692,4674.871794,4042.051282,4040.000000
126,4337.948717,4521.538461,4526.666666,4268.205128,4494.871794,4189.230769,4430.769230,4201.025641,4217.948717,4502.564102,4180.000000,4660.512820,4030.769230,4036.410256
127,4340.000000,4531.282051,4533.333333,4276.410256,4501.025641,4196.923076,4437.435897,4210.769230,4225.128205,4501.025641,4191.282051,4662.051282,4035.384615,4044.102564
128,4352.820512,4541.538461,4545.128205,4278.974358,4511.282051,4205.128205,4447.179487,4221.025641,4237.435897,4518.974358,4202.051282,4672.820512,4046.153846,4050.769230
129,4349.743589,4528.205128,4542.564102,4272.820512,4507.692307,4202.564102,4446.153846,4218.461538,4234.358974,4525.641025,4194.871794,4672.307692,4035.897435,4044.102564
130,4340.000000,4523.589743,4539.487179,4273.846153,4505.641025,4201.025641,4443.589743,4214.871794,4228.205128,4511.282051,4192.820512,4668.717948,4032.820512,4038.974358
131,4350.256410,4539.487179,4545.128205,4279.487179,4508.717948,4203.076923,4446.666666,4219.487179,4235.897435,4504.615384,4209.743589,4675.897435,4050.256410,4050.769230
132,4362.051282,4544.102564,4548.205128,4278.974358,4509.230769,4202.564102,4447.692307,4223.589743,4242.051282,4520.000000,4218.461538,4683.076923,4053.333333,4062.564102
133,4355.897435,4537.948717,4545.128205,4276.923076,4508.205128,4202.564102,4447.179487,4222.051282,4237.948717,4523.076923,4208.205128,4680.000000,4041.025641,4061.538461
134,4349.230769,4537.948717,4544.102564,4279.487179,4508.205128,4203.076923,4446.666666,4219.487179,4239.487179,4510.769230,4197.435897,4675.384615,4039.487179,4053.846153
135,4347.692307,4538.461538,4542.051282,4280.512820,4507.692307,4203.076923,4446.153846,4217.435897,4239.487179,4507.179487,4196.923076,4672.820512,4036.923076,4044.102564
136,4351.282051,4537.435897,4540.512820,4278.974358,4507.179487,4203.076923,4446.666666,4216.410256,4233.333333,4512.307692,4200.512820,4672.820512,4030.256410,4041.538461
137,4357.435897,4543.076923,4543.076923,4279.487179,4508.717948,4202.564102,4447.692307,4220.000000,4235.897435,4517.948717,4198.974358,4673.846153,4036.410256,4049.743589
138,4348.205128,4537.435897,4538.461538,4273.846153,4507.692307,4202.051282,4445.641025,4221.538461,4239.487179,4521.025641,4190.256410,4670.256410,4037.435897,4046.153846
139,4335.897435,4525.128205,4531.282051,4270.256410,4505.128205,4200.512820,4443.589743,4216.410256,4236.923076,4522.564102,4182.051282,4664.615384,4027.692307,4037.435897
140,4347.692307,4531.794871,4539.487179,4276.410256,4506.666666,4202.051282,4453.846153,4216.923076,4239.487179,4514.871794,4183.589743,4668.205128,4029.230769,4043.589743
141,4361.538461,4544.615384,4546.666666,4280.512820,4510.769230,4205.128205,4461.538461,4229.743589,4247.179487,4510.769230,4190.256410,4673.846153,4035.897435,4049.230769
142,4349.743589,4537.948717,4540.512820,4275.384615,4510.256410,4204.102564,4451.282051,4231.282051,4243.589743,4516.923076,4187.179487,4670.769230,4030.256410,4042.564102
143,4340.512820,4526.666666,4538.461538,4269.230769,4508.717948,4202.564102,4441.538461,4220.000000,4240.000000,4521.025641,4175.897435,4668.717948,4026.666666,4042.051282
144,4348.717948,4525.128205,4541.538461,4262.564102,4508.717948,4203.589743,4444.102564,4221.538461,4242.051282,4517.435897,4172.307692,4670.256410,4031.794871,4045.128205
145,4350.769230,4521.538461,4540.512820,4257.435897,4509.230769,4204.615384,4449.743589,4228.205128,4242.051282,4509.743589,4180.512820,4668.717948,4036.410256,4046.153846
146,4349.230769,4523.076923,4542.051282,4262.051282,4510.769230,4204.615384,4452.307692,4228.205128,4245.641025,4507.692307,4185.128205,4668.205128,4034.871794,4045.641025
147,4353.333333,4531.282051,4545.641025,4263.589743,4509.743589,4203.076923,4448.205128,4227.692307,4246.666666,4515.384615,4181.025641,4669.230769,4027.692307,4037.948717
148,4352.820512,4528.205128,4544.102564,4254.871794,4507.179487,4201.538461,4443.589743,4224.615384,4239.487179,4522.051282,4181.025641,4672.307692,4022.051282,4035.897435
149,4349.230769,4521.538461,4543.076923,4254.871794,4506.153846,4201.025641,4444.102564,4223.076923,4237.948717,4517.948717,4185.641025,4674.358974,4025.128205,4044.615384
150,4352.820512,4520.512820,4543.076923,4263.076923,4506.666666,4200.000000,4446.666666,4226.153846,4242.051282,4515.897435,4182.051282,4674.871794,4032.307692,4047.692307
151,4356.410256,4522.051282,4541.025641,4259.487179,4507.692307,4200.512820,4446.666666,4223.589743,4239.487179,4517.435897,4174.358974,4675.384615,4034.871794,4044.615384
152,4353.846153,4524.615384,4541.538461,4252.820512,4507.692307,4201.025641,4445.128205,4217.948717,4234.871794,4507.692307,4175.384615,4674.871794,4028.205128,4045.641025
153,4353.846153,4527.179487,4544.102564,4260.000000,4505.128205,4198.974358,4447.692307,4223.589743,4236.410256,4502.051282,4180.000000,4674.871794,4025.641025,4040.512820
154,4360.000000,4530.769230,4551.794871,4266.666666,4510.256410,4207.179487,4455.897435,4232.820512,4244.615384,4518.974358,4187.692307,4684.102564,4038.461538,4043.589743
155,4368.717948,4537.435897,4560.512820,4265.128205,4520.512820,4218.974358,4462.564102,4233.846153,4256.923076,4536.923076,4199.487179,4693.846153,4047.692307,4067.179487
156,4368.717948,4541.025641,4555.384615,4263.589743,4516.923076,4211.282051,4457.948717,4225.641025,4252.820512,4529.230769,4198.461538,4689.230769,4040.000000,4073.333333
157,4362.051282,4538.461538,4544.102564,4266.153846,4505.641025,4197.948717,4448.205128,4216.923076,4233.333333,4517.435897,4188.717948,4678.974358,4032.307692,4058.461538
158,4355.384615,4535.384615,4541.025641,4267.179487,4504.102564,4197.948717,4444.615384,4214.871794,4228.717948,4518.974358,4184.102564,4675.897435,4031.282051,4053.846153
159,4349.743589,4529.743589,4539.487179,4264.615384,4509.230769,4202.564102,4444.615384,4212.820512,4235.897435,4516.410256,4182.051282,4673.333333,4025.128205,4051.282051
160,4346.666666,4524.102564,4532.307692,4259.487179,4504.102564,4197.948717,4442.051282,4206.666666,4230.769230,4502.051282,4178.974358,4668.717948,4014.871794,4036.410256
161,4348.717948,4522.564102,4529.230769,4256.923076,4494.358974,4187.692307,4440.512820,4202.564102,4223.076923,4501.025641,4181.538461,4664.102564,4010.769230,4032.820512
162,4350.256410,4523.076923,4533.333333,4251.282051,4495.384615,4188.717948,4444.102564,4206.666666,4226.153846,4511.282051,4182.564102,4666.153846,4016.410256,4044.615384
163,4348.205128,4525.641025,4532.820512,4248.717948,4502.564102,4195.897435,4446.666666,4216.410256,4232.307692,4512.820512,4179.487179,4673.333333,4027.179487,4050.769230
164,4349.230769,4527.179487,4529.230769,4257.435897,4506.666666,4200.512820,4447.179487,4221.025641,4235.897435,4508.717948,4183.589743,4676.410256,4027.692307,4048.205128
165,4353.846153,4525.128205,4528.205128,4262.564102,4504.102564,4198.461538,4447.692307,4217.435897,4238.974358,4505.641025,4192.820512,4673.333333,4021.538461,4041.025641
166,4353.846153,4517.435897,4528.205128,4253.846153,4493.333333,4188.205128,4444.102564,4215.384615,4240.000000,4506.153846,4192.820512,4669.230769,4020.000000,4036.923076
167,4349.743589,4512.307692,4526.153846,4247.692307,4488.717948,4184.615384,4441.538461,4222.051282,4239.487179,4514.871794,4185.128205,4669.230769,4025.641025,4040.000000
168,4346.666666,4515.897435,4527.692307,4252.307692,4497.948717,4195.897435,4448.205128,4228.205128,4245.128205,4517.948717,4188.717948,4673.846153,4030.769230,4045.128205
169,4353.846153,4525.641025,4532.307692,4259.487179,4505.128205,4202.051282,4457.948717,4233.846153,4252.307692,4510.256410,4203.076923,4678.461538,4029.743589,4048.205128
170,4365.128205,4533.846153,4534.871794,4265.128205,4503.076923,4197.435897,4457.435897,4234.358974,4253.333333,4513.333333,4206.153846,4680.512820,4024.615384,4051.282051
171,4355.384615,4528.717948,4531.794871,4259.487179,4504.102564,4196.923076,4445.641025,4224.102564,4245.128205,4517.948717,4191.282051,4675.897435,4025.128205,4048.717948
172,4338.461538,4524.615384,4527.179487,4245.128205,4504.615384,4198.974358,4441.025641,4220.512820,4240.512820,4516.923076,4183.589743,4668.717948,4029.743589,4041.538461
173,4348.205128,4530.769230,4531.794871,4249.743589,4505.641025,4200.000000,4453.333333,4230.769230,4250.769230,4521.025641,4197.948717,4675.384615,4030.256410,4046.666666
174,4358.974358,4530.769230,4537.435897,4264.615384,4508.717948,4202.564102,4460.512820,4236.410256,4256.410256,4518.461538,4207.692307,4684.102564,4030.256410,4054.871794
175,4351.282051,4527.692307,4535.897435,4264.615384,4506.153846,4202.051282,4456.923076,4228.717948,4247.179487,4512.820512,4198.974358,4678.974358,4031.794871,4047.692307
176,4351.282051,4532.820512,4535.897435,4257.435897,4504.102564,4201.025641,4456.923076,4223.589743,4245.128205,4524.615384,4193.846153,4674.871794,4033.333333,4046.153846
177,4354.871794,4533.846153,4533.333333,4253.846153,4507.692307,4202.564102,4453.846153,4220.512820,4249.743589,4528.205128,4197.435897,4674.358974,4032.820512,4053.846153
178,4350.769230,4532.307692,4530.256410,4253.333333,4506.666666,4199.487179,4446.153846,4214.358974,4247.692307,4514.358974,4198.974358,4669.230769,4034.871794,4051.794871
179,4358.461538,4542.564102,4534.358974,4257.948717,4507.692307,4201.538461,4452.820512,4216.923076,4250.256410,4523.076923,4206.153846,4672.307692,4045.128205,4050.769230
180,4364.615384,4544.615384,4537.948717,4266.666666,4513.846153,4211.282051,4462.051282,4224.615384,4258.461538,4533.846153,4205.641025,4678.974358,4049.743589,4057.948717
181,4358.974358,4534.871794,4533.846153,4265.641025,4514.358974,4211.794871,4461.025641,4224.102564,4255.897435,4523.589743,4190.256410,4676.410256,4038.974358,4055.384615
182,4354.871794,4534.871794,4530.769230,4255.897435,4508.205128,4202.564102,4460.000000,4216.410256,4249.230769,4518.974358,4184.615384,4669.230769,4025.128205,4044.615384
183,4348.717948,4540.000000,4527.179487,4251.282051,4506.153846,4200.000000,4455.897435,4213.333333,4244.102564,4519.487179,4188.205128,4664.615384,4023.589743,4037.435897
184,4338.461538,4535.897435,4521.538461,4252.307692,4507.179487,4203.076923,4445.128205,4215.384615,4238.974358,4509.230769,4187.179487,4661.538461,4030.769230,4034.871794
185,4338.461538,4527.692307,4521.538461,4251.794871,4505.641025,4201.538461,4439.487179,4214.871794,4237.435897,4505.128205,4191.794871,4660.512820,4029.230769,4039.487179
186,4347.179487,4530.256410,4528.717948,4246.153846,4506.153846,4199.487179,4447.179487,4215.897435,4240.512820,4513.846153,4198.461538,4664.615384,4023.589743,4042.564102
187,4350.769230,4539.487179,4530.769230,4243.589743,4507.692307,4202.051282,4452.307692,4217.435897,4238.974358,4512.820512,4187.692307,4666.666666,4027.179487,4044.615384
188,4347.692307,4538.461538,4527.692307,4251.794871,4508.205128,4202.051282,4446.153846,4215.897435,4232.307692,4506.666666,4181.025641,4663.076923,4032.307692,4050.769230
189,4350.256410,4537.435897,4534.871794,4267.179487,4508.717948,4201.538461,4446.666666,4216.410256,4239.487179,4513.846153,4195.897435,4667.692307,4034.358974,4054.871794
190,4359.487179,4541.538461,4545.128205,4271.282051,4508.205128,4202.564102,4452.307692,4222.051282,4249.230769,4515.897435,4205.128205,4677.435897,4037.948717,4053.333333
191,4358.974358,4539.487179,4537.948717,4257.435897,4505.128205,4200.512820,4448.717948,4220.000000,4240.512820,4508.205128,4198.974358,4672.307692,4035.384615,4048.717948
192,4350.256410,4535.897435,4528.717948,4248.717948,4503.076923,4194.871794,4442.051282,4207.692307,4229.230769,4506.153846,4198.461538,4662.564102,4030.256410,4045.128205
193,4347.179487,4536.410256,4536.410256,4248.205128,4504.615384,4194.871794,4444.102564,4205.128205,4230.256410,4506.666666,4203.076923,4665.641025,4031.794871,4048.205128
194,4354.358974,4538.461538,4540.512820,4249.230769,4504.102564,4198.974358,4445.128205,4213.333333,4234.358974,4505.641025,4201.025641,4673.846153,4028.717948,4053.846153
195,4358.461538,4541.025641,4536.923076,4253.333333,4505.128205,4199.487179,4445.128205,4218.974358,4235.384615,4509.743589,4200.512820,4674.358974,4022.051282,4051.282051
196,4348.717948,4532.820512,4535.384615,4253.846153,4504.615384,4198.461538,4445.641025,4214.358974,4232.820512,4509.230769,4197.948717,4670.256410,4022.564102,4045.641025
197,4343.589743,4522.051282,4532.820512,4248.205128,4500.512820,4198.974358,4441.025641,4207.179487,4229.743589,4501.538461,4192.820512,4668.205128,4023.076923,4044.102564
198,4352.820512,4531.282051,4537.435897,4253.846153,4503.076923,4198.461538,4444.615384,4210.769230,4236.410256,4510.256410,4198.974358,4670.769230,4028.717948,4045.641025
199,4355.897435,4539.487179,4544.102564,4266.153846,4509.743589,4200.512820,4456.923076,4220.000000,4248.717948,4526.153846,4210.769230,4673.846153,4036.410256,4051.282051
200,4350.256410,4526.666666,4537.948717,4261.538461,4507.179487,4203.076923,4454.871794,4223.589743,4249.230769,4527.179487,4206.153846,4669.230769,4028.717948,4053.846153
201,4347.179487,4518.974358,4526.153846,4245.128205,4501.025641,4197.435897,4441.025641,4214.871794,4237.435897,4512.307692,4185.128205,4657.435897,4015.384615,4042.051282
202,4345.641025,4522.564102,4522.564102,4239.487179,4503.076923,4190.769230,4438.461538,4204.615384,4226.153846,4497.435897,4181.538461,4649.743589,4011.794871,4028.717948
203,4342.564102,4523.589743,4525.128205,4249.230769,4507.179487,4197.948717,4445.128205,4207.179487,4226.666666,4500.000000,4199.487179,4650.769230,4012.307692,4032.307692
204,4341.025641,4527.692307,4529.230769,4258.461538,4506.666666,4203.589743,4446.153846,4213.333333,4231.282051,4508.717948,4205.128205,4651.794871,4014.871794,4037.435897
205,4341.538461,4535.897435,4529.230769,4262.051282,4508.717948,4202.564102,4446.666666,4214.871794,4233.846153,4509.743589,4192.820512,4651.282051,4023.076923,4033.846153
206,4352.307692,4541.025641,4529.743589,4264.615384,4513.333333,4206.666666,4451.794871,4215.384615,4233.846153,4510.769230,4191.794871,4657.948717,4025.641025,4037.948717
207,4363.589743,4540.000000,4535.384615,4261.025641,4512.307692,4209.230769,4450.769230,4212.820512,4226.666666,4513.333333,4201.538461,4662.051282,4023.076923,4044.615384
208,4354.871794,4529.230769,4532.307692,4255.384615,4504.615384,4200.000000,4444.615384,4201.538461,4220.000000,4508.717948,4202.564102,4660.512820,4020.000000,4036.923076
209,4342.564102,4521.025641,4528.205128,4255.897435,4502.564102,4194.871794,4441.538461,4197.948717,4223.589743,4499.487179,4201.538461,4662.564102,4016.923076,4028.717948
210,4343.589743,4525.641025,4532.820512,4255.897435,4507.179487,4201.025641,4443.589743,4206.666666,4226.153846,4499.487179,4201.538461,4664.615384,4019.487179,4040.512820
211,4343.589743,4527.179487,4532.307692,4248.717948,4503.589743,4196.410256,4443.076923,4203.589743,4217.435897,4504.615384,4198.461538,4656.410256,4015.384615,4047.692307
212,4340.512820,4517.948717,4527.692307,4249.230769,4492.820512,4184.102564,4441.025641,4196.923076,4214.358974,4510.256410,4195.384615,4649.230769,4005.128205,4035.384615
213,4349.743589,4521.025641,4534.358974,4259.487179,4495.897435,4190.256410,4442.051282,4204.102564,4224.615384,4508.717948,4203.076923,4658.461538,4011.282051,4036.410256
214,4358.461538,4537.948717,4547.179487,4266.666666,4506.666666,4202.051282,4445.128205,4214.871794,4232.820512,4506.666666,4213.846153,4670.256410,4026.666666,4053.846153
215,4349.743589,4542.564102,4544.615384,4264.615384,4507.179487,4195.384615,4442.564102,4218.974358,4236.410256,4510.769230,4212.307692,4666.153846,4027.179487,4049.743589
216,4338.461538,4528.205128,4530.256410,4257.948717,4501.025641,4189.743589,4435.897435,4214.358974,4232.820512,4509.743589,4205.641025,4654.358974,4015.897435,4031.282051
217,4341.025641,4518.461538,4523.589743,4256.923076,4501.538461,4197.435897,4435.897435,4206.153846,4224.615384,4504.102564,4203.589743,4653.333333,4009.230769,4032.307692
218,4348.205128,4529.230769,4530.769230,4265.128205,4507.179487,4203.589743,4443.076923,4205.641025,4225.641025,4502.051282,4204.102564,4662.051282,4011.794871,4038.974358
219,4345.641025,4538.461538,4535.384615,4268.717948,4507.692307,4198.974358,4444.615384,4215.897435,4233.846153,4505.128205,4209.743589,4667.692307,4017.948717,4036.410256
220,4339.487179,4529.230769,4531.282051,4253.846153,4498.461538,4190.769230,4442.051282,4217.948717,4234.358974,4507.692307,4213.846153,4663.589743,4012.307692,4032.307692
221,4346.666666,4523.589743,4534.871794,4249.230769,4495.897435,4191.282051,4444.102564,4213.846153,4231.794871,4514.871794,4215.897435,4664.102564,4012.820512,4035.384615
222,4360.512820,4527.179487,4546.666666,4269.230769,4507.692307,4201.538461,4447.179487,4219.487179,4238.461538,4523.076923,4218.974358,4673.846153,4029.743589,4047.179487
223,4358.461538,4509.230769,4546.666666,4277.948717,4510.256410,4205.641025,4443.589743,4221.025641,4238.974358,4521.025641,4211.794871,4672.307692,4031.794871,4054.871794
224,4350.769230,4486.153846,4541.025641,4264.102564,4501.538461,4195.384615,4440.000000,4213.846153,4229.743589,4512.820512,4202.051282,4664.615384,4018.461538,4050.256410
225,4353.846153,4487.179487,4541.538461,4258.461538,4503.076923,4192.820512,4441.538461,4213.846153,4232.307692,4511.794871,4213.846153,4666.666666,4017.435897,4045.641025
226,4351.794871,4483.589743,4541.025641,4265.128205,4505.128205,4193.333333,4436.410256,4216.923076,4237.948717,4513.846153,4224.102564,4666.666666,4024.102564,4046.153846
227,4341.538461,4470.256410,4535.897435,4264.615384,4494.358974,4188.205128,4430.769230,4214.871794,4232.307692,4509.230769,4207.179487,4658.461538,4027.692307,4043.076923
228,4348.205128,4480.512820,4538.461538,4265.128205,4493.846153,4190.769230,4437.435897,4217.948717,4234.871794,4510.256410,4201.538461,4661.538461,4030.769230,4044.615384
229,4366.153846,4496.923076,4550.256410,4271.282051,4505.128205,4200.000000,4449.230769,4229.743589,4251.794871,4522.051282,4222.051282,4675.897435,4032.307692,4056.923076
230,4363.589743,4493.333333,4557.435897,4273.846153,4509.743589,4203.589743,4452.307692,4234.358974,4258.974358,4527.179487,4224.615384,4680.000000,4035.897435,4058.974358
231,4348.717948,4491.282051,4548.717948,4272.307692,4508.205128,4201.538461,4447.692307,4224.102564,4250.256410,4521.025641,4210.256410,4670.256410,4036.923076,4048.717948
232,4347.179487,4489.743589,4536.923076,4267.692307,4504.102564,4196.923076,4442.051282,4214.871794,4238.974358,4517.948717,4209.230769,4662.564102,4028.205128,4038.974358
233,4348.717948,4479.487179,4535.897435,4262.564102,4494.871794,4188.205128,4442.051282,4215.384615,4232.820512,4515.384615,4207.692307,4661.538461,4019.487179,4037.948717
234,4343.076923,4481.025641,4542.564102,4261.025641,4496.410256,4189.743589,4445.128205,4216.923076,4234.358974,4506.666666,4196.923076,4661.538461,4018.461538,4040.512820
235,4340.512820,4486.153846,4543.589743,4266.666666,4506.666666,4201.025641,4443.589743,4215.897435,4237.435897,4507.692307,4197.948717,4660.000000,4017.948717,4038.461538
236,4340.512820,4480.000000,4537.948717,4268.717948,4506.666666,4200.000000,4443.076923,4214.358974,4232.820512,4509.230769,4201.025641,4658.974358,4016.410256,4033.333333
237,4341.025641,4481.538461,4535.897435,4263.589743,4502.564102,4195.384615,4444.615384,4213.846153,4228.205128,4504.615384,4195.897435,4660.000000,4013.846153,4036.923076
238,4348.717948,4495.897435,4543.076923,4265.128205,4506.153846,4200.512820,4444.102564,4216.410256,4234.871794,4515.384615,4208.205128,4666.153846,4015.897435,4051.282051
239,4354.358974,4490.769230,4548.205128,4266.153846,4505.641025,4200.512820,4444.102564,4220.000000,4240.000000,4525.128205,4219.487179,4668.717948,4026.666666,4053.846153
240,4345.128205,4469.230769,4540.512820,4256.923076,4496.410256,4189.230769,4441.538461,4211.794871,4225.641025,4496.923076,4197.948717,4658.461538,4023.589743,4039.487179
241,4338.974358,4470.256410,4534.871794,4245.641025,4491.282051,4185.128205,4442.051282,4202.051282,4215.384615,4475.897435,4185.128205,4653.333333,4009.230769,4033.333333
242,4342.051282,4478.974358,4536.410256,4244.102564,4493.333333,4188.205128,4445.128205,4205.128205,4225.641025,4494.871794,4197.435897,4655.384615,4009.230769,4033.846153
243,4338.461538,4472.307692,4532.820512,4243.076923,4492.820512,4185.641025,4438.974358,4205.128205,4226.153846,4503.076923,4191.794871,4652.307692,4016.923076,4028.205128
244,4341.538461,4469.743589,4535.384615,4247.692307,4493.333333,4185.641025,4431.794871,4203.076923,4220.512820,4501.538461,4183.589743,4655.897435,4022.564102,4031.282051
245,4353.333333,4478.974358,4546.666666,4258.974358,4499.487179,4191.794871,4438.974358,4211.794871,4236.923076,4517.948717,4200.000000,4669.230769,4027.179487,4048.205128
246,4349.743589,4482.564102,4542.051282,4257.948717,4501.538461,4190.769230,4446.666666,4221.025641,4244.615384,4518.974358,4200.000000,4665.128205,4028.717948,4050.256410
247,4337.948717,4481.538461,4530.769230,4247.692307,4500.000000,4190.256410,4443.589743,4213.333333,4230.256410,4501.538461,4180.512820,4652.820512,4025.128205,4037.435897
248,4345.128205,4481.025641,4536.923076,4247.692307,4504.615384,4197.948717,4442.051282,4203.589743,4227.692307,4504.615384,4186.666666,4658.974358,4026.666666,4040.000000
249,4356.923076,4482.564102,4545.128205,4258.974358,4508.205128,4202.051282,4444.615384,4209.743589,4237.948717,4512.820512,4202.564102,4669.230769,4031.794871,4046.666666
250,4349.230769,4486.666666,4543.589743,4260.512820,4502.564102,4197.435897,4442.564102,4212.307692,4234.358974,4504.615384,4202.051282,4671.282051,4032.307692,4041.538461
251,4344.102564,4488.717948,4544.102564,4254.871794,4497.948717,4193.333333,4442.051282,4209.743589,4230.256410,4510.256410,4202.564102,4672.820512,4032.820512,4046.153846
