,AF3,F7,F3,FC5,T7,P7,O1,O2,P8,T8,FC6,F4,F8,AF4
0,4388.717948,4520.000000,4494.358974,4277.435897,4487.692307,4196.923076,4444.102564,4198.461538,4229.230769,4487.179487,4196.923076,4648.717948,4003.589743,4043.589743
1,4394.871794,4528.717948,4502.051282,4285.641025,4494.871794,4204.102564,4442.564102,4202.051282,4238.974358,4494.871794,4206.666666,4654.871794,4008.717948,4050.256410
2,4396.410256,4535.384615,4500.000000,4284.615384,4490.256410,4202.564102,4444.615384,4198.974358,4244.102564,4501.538461,4213.846153,4657.948717,4002.051282,4049.230769
3,4398.974358,4530.769230,4502.564102,4282.051282,4477.948717,4198.974358,4443.076923,4200.000000,4244.102564,4500.512820,4217.435897,4660.000000,3995.897436,4050.769230
4,4400.000000,4533.333333,4506.666666,4283.589743,4478.461538,4197.435897,4438.974358,4202.051282,4245.641025,4492.307692,4219.487179,4664.102564,4000.512820,4056.410256
5,4392.820512,4534.871794,4496.410256,4277.435897,4487.179487,4197.435897,4440.000000,4201.538461,4245.128205,4490.769230,4211.794871,4656.923076,4004.615384,4050.769230
6,4386.666666,4524.102564,4487.692307,4272.820512,4482.564102,4197.948717,4442.051282,4202.564102,4241.025641,4494.358974,4203.589743,4646.153846,3994.871795,4041.025641
7,4391.282051,4522.564102,4495.384615,4276.923076,4480.512820,4200.512820,4444.102564,4201.025641,4242.564102,4496.923076,4210.769230,4650.256410,3984.102565,4043.589743
8,4397.948717,4535.897435,4504.102564,4281.538461,4493.333333,4202.564102,4446.666666,4202.051282,4249.230769,4502.564102,4217.435897,4658.461538,3989.230770,4051.282051
9,4400.512820,4540.000000,4506.153846,4279.487179,4496.410256,4202.564102,4444.615384,4207.179487,4249.743589,4506.153846,4218.461538,4664.102564,4002.564102,4053.333333
10,4400.512820,4533.333333,4507.692307,4271.282051,4488.717948,4201.538461,4441.538461,4209.230769,4249.230769,4506.153846,4225.641025,4671.282051,4003.076923,4054.871794
11,4398.461538,4526.153846,4507.692307,4262.564102,4484.102564,4200.512820,4442.564102,4205.128205,4250.769230,4509.230769,4227.179487,4669.230769,3993.333334,4056.410256
12,4395.384615,4520.512820,4506.666666,4260.512820,4473.333333,4197.435897,4438.461538,4201.025641,4248.717948,4507.179487,4215.897435,4658.461538,3992.307693,4051.794871
13,4394.358974,4522.564102,4505.128205,4260.000000,4470.256410,4196.923076,4435.897435,4201.538461,4246.153846,4497.948717,4213.333333,4656.410256,3996.410257,4047.692307
14,4394.358974,4528.205128,4500.000000,4258.461538,4486.666666,4200.512820,4441.538461,4203.076923,4246.153846,4492.307692,4216.923076,4657.948717,3994.358975,4047.692307
15,4389.743589,4521.538461,4494.871794,4254.358974,4491.282051,4200.512820,4445.641025,4201.025641,4245.641025,4490.256410,4207.692307,4651.794871,3984.615385,4044.615384
16,4384.102564,4510.256410,4489.743589,4250.769230,4476.923076,4198.974358,4443.076923,4200.512820,4244.102564,4488.717948,4204.102564,4647.179487,3976.410257,4037.948717
17,4386.153846,4513.846153,4491.794871,4251.794871,4473.846153,4200.000000,4439.487179,4205.128205,4246.666666,4498.974358,4212.820512,4652.307692,3982.564103,4040.512820
18,4394.871794,4523.589743,4498.974358,4252.307692,4480.000000,4198.461538,4436.923076,4207.179487,4251.282051,4507.692307,4218.461538,4659.487179,3996.410257,4052.307692
19,4396.410256,4522.564102,4497.948717,4252.820512,4477.435897,4193.846153,4429.230769,4201.025641,4248.717948,4500.000000,4215.384615,4660.000000,3996.923077,4054.871794
20,4394.358974,4520.512820,4496.410256,4260.000000,4481.538461,4195.384615,4429.743589,4197.435897,4244.615384,4497.948717,4215.897435,4655.384615,3991.794872,4050.256410
21,4396.410256,4526.153846,4499.487179,4261.025641,4484.615384,4201.025641,4440.000000,4199.487179,4245.128205,4500.512820,4218.974358,4651.282051,3990.769231,4047.692307
22,4393.846153,4524.102564,4496.410256,4252.820512,4469.230769,4197.948717,4440.000000,4196.923076,4241.025641,4491.282051,4214.358974,4651.282051,3986.153847,4046.153846
23,4391.794871,4520.000000,4497.948717,4255.384615,4470.769230,4194.871794,4435.897435,4195.897435,4234.871794,4488.205128,4213.846153,4655.897435,3987.179488,4049.230769
24,4395.897435,4522.564102,4503.589743,4263.076923,4491.282051,4201.538461,4440.512820,4201.025641,4241.538461,4499.487179,4217.435897,4662.051282,3994.871795,4055.897435
25,4394.871794,4520.000000,4497.948717,4260.512820,4491.282051,4198.974358,4438.461538,4199.487179,4246.666666,4500.000000,4216.923076,4663.076923,3988.205129,4052.820512
26,4390.769230,4518.974358,4492.307692,4260.000000,4478.974358,4190.769230,4428.717948,4198.461538,4238.461538,4496.410256,4216.410256,4658.974358,3978.461539,4046.666666
27,4391.282051,4523.076923,4497.435897,4263.589743,4469.230769,4191.282051,4429.230769,4202.051282,4232.820512,4495.384615,4216.923076,4657.948717,3977.435898,4048.205128
28,4388.717948,4517.435897,4494.358974,4262.051282,4456.923076,4188.717948,4430.769230,4192.820512,4231.794871,4481.025641,4209.230769,4654.358974,3975.897436,4045.128205
29,4381.538461,4510.769230,4490.256410,4261.538461,4464.615384,4184.615384,4427.179487,4184.615384,4229.230769,4471.794871,4203.589743,4649.230769,3972.307693,4037.948717
30,4381.025641,4516.923076,4492.307692,4258.461538,4485.641025,4193.333333,4430.769230,4194.358974,4230.769230,4485.128205,4208.717948,4647.179487,3974.358975,4038.974358
31,4382.051282,4522.051282,4490.769230,4251.794871,4480.512820,4197.435897,4431.794871,4195.384615,4235.384615,4493.333333,4207.692307,4642.564102,3974.871795,4041.025641
32,4379.487179,4523.076923,4490.769230,4254.358974,4463.076923,4186.153846,4427.692307,4183.076923,4231.794871,4484.102564,4198.461538,4639.487179,3971.282052,4037.948717
33,4378.461538,4517.948717,4493.333333,4263.589743,4470.256410,4182.564102,4426.666666,4182.564102,4226.153846,4475.897435,4197.435897,4646.153846,3973.846154,4037.435897
34,4378.974358,4509.230769,4492.820512,4265.128205,4481.025641,4188.205128,4427.692307,4186.666666,4226.666666,4476.923076,4209.230769,4650.256410,3977.435898,4040.512820
35,4378.461538,4514.358974,4489.230769,4260.000000,4476.410256,4187.179487,4428.717948,4185.128205,4230.256410,4480.512820,4217.435897,4646.153846,3972.820513,4040.512820
36,4373.333333,4522.564102,4487.179487,4253.333333,4470.769230,4186.153846,4428.205128,4186.153846,4231.794871,4483.589743,4209.230769,4641.025641,3970.769231,4037.435897
37,4369.743589,4513.333333,4488.205128,4252.307692,4476.410256,4187.692307,4429.230769,4187.179487,4234.358974,4485.128205,4195.897435,4637.435897,3974.358975,4034.358974
38,4373.846153,4504.615384,4489.230769,4259.487179,4478.461538,4188.205128,4429.230769,4185.128205,4231.794871,4482.051282,4196.923076,4635.384615,3970.256411,4033.333333
39,4375.897435,4511.282051,4488.717948,4263.076923,4463.589743,4186.666666,4426.666666,4183.076923,4222.564102,4473.333333,4203.076923,4633.333333,3958.461539,4031.794871
40,4372.820512,4517.435897,4488.717948,4258.461538,4460.512820,4184.102564,4424.615384,4182.051282,4221.538461,4468.717948,4199.487179,4632.820512,3964.102565,4031.282051
41,4376.410256,4519.487179,4491.282051,4260.512820,4476.923076,4185.641025,4428.717948,4184.102564,4230.769230,4481.538461,4198.974358,4640.000000,3978.461539,4036.410256
42,4382.564102,4524.102564,4495.384615,4270.256410,4483.589743,4196.923076,4438.974358,4193.333333,4239.487179,4495.384615,4207.692307,4648.205128,3978.461539,4042.564102
43,4379.487179,4520.512820,4492.820512,4270.769230,4471.282051,4201.025641,4441.025641,4202.051282,4238.461538,4487.692307,4209.743589,4642.564102,3968.205129,4038.461538
44,4373.333333,4510.769230,4488.717948,4265.641025,4464.102564,4192.820512,4435.384615,4201.538461,4232.307692,4477.948717,4201.025641,4633.846153,3963.076924,4029.230769
45,4371.794871,4513.846153,4490.256410,4270.769230,4473.846153,4195.897435,4433.333333,4199.487179,4235.384615,4480.512820,4197.948717,4636.923076,3959.487180,4031.282051
46,4373.846153,4520.512820,4491.794871,4276.923076,4481.538461,4202.564102,4434.871794,4198.974358,4236.923076,4480.512820,4197.948717,4641.025641,3957.948718,4035.897435
47,4375.384615,4516.410256,4489.743589,4274.871794,4477.948717,4191.794871,4431.794871,4190.256410,4230.256410,4473.846153,4196.410256,4634.871794,3964.615385,4032.307692
48,4372.820512,4510.256410,4488.205128,4272.820512,4473.333333,4181.538461,4428.205128,4179.487179,4223.589743,4474.358974,4195.897435,4629.743589,3968.205129,4028.205128
49,4372.307692,4516.923076,4488.205128,4273.333333,4474.358974,4187.692307,4428.205128,4181.025641,4221.025641,4477.435897,4191.794871,4633.846153,3965.128206,4029.743589
50,4374.358974,4521.025641,4488.205128,4273.846153,4474.358974,4192.307692,4428.205128,4185.641025,4220.000000,4476.923076,4189.743589,4632.307692,3957.948718,4029.230769
51,4371.794871,4512.820512,4488.205128,4275.384615,4470.256410,4187.179487,4427.692307,4183.589743,4222.051282,4473.846153,4193.333333,4629.230769,3955.384616,4027.179487
52,4372.820512,4507.179487,4489.743589,4276.923076,4468.717948,4185.128205,4426.666666,4189.743589,4225.641025,4471.282051,4195.897435,4635.897435,3961.025642,4031.794871
53,4377.948717,4507.692307,4490.256410,4273.846153,4467.179487,4185.641025,4431.282051,4201.538461,4229.230769,4475.897435,4196.410256,4642.564102,3965.128206,4033.333333
54,4375.384615,4508.205128,4488.717948,4270.256410,4466.153846,4185.641025,4440.512820,4205.641025,4234.871794,4482.051282,4200.000000,4638.974358,3960.000000,4027.179487
55,4367.692307,4504.102564,4486.153846,4269.743589,4468.205128,4190.256410,4443.076923,4203.076923,4239.487179,4481.538461,4203.076923,4632.820512,3953.846154,4026.153846
56,4368.717948,4503.589743,4489.230769,4270.769230,4474.871794,4200.000000,4442.564102,4203.589743,4242.051282,4480.000000,4196.923076,4631.794871,3958.974359,4032.307692
57,4373.333333,4508.205128,4489.743589,4270.769230,4480.512820,4205.128205,4445.128205,4205.128205,4240.000000,4479.487179,4188.717948,4632.820512,3966.153847,4031.282051
58,4368.717948,4508.205128,4482.051282,4267.179487,4472.307692,4201.025641,4445.128205,4204.102564,4232.820512,4475.384615,4191.282051,4631.282051,3957.435898,4023.589743
59,4360.000000,4500.000000,4475.384615,4262.564102,4458.461538,4193.846153,4441.025641,4202.564102,4232.820512,4470.256410,4197.435897,4623.589743,3944.102565,4021.025641
60,4355.384615,4494.871794,4471.794871,4261.025641,4457.435897,4193.333333,4441.025641,4201.538461,4232.820512,4469.230769,4188.717948,4615.384615,3944.615385,4016.923076
61,4360.000000,4500.000000,4477.948717,4263.589743,4470.256410,4198.461538,4442.564102,4201.538461,4231.282051,4473.846153,4178.974358,4615.384615,3955.384616,4015.384615
62,4367.692307,4503.076923,4486.153846,4266.666666,4477.948717,4201.538461,4443.076923,4201.025641,4232.820512,4477.435897,4187.179487,4620.000000,3957.948718,4021.025641
63,4365.128205,4502.051282,4483.076923,4268.205128,4471.794871,4198.461538,4441.025641,4197.948717,4231.282051,4472.307692,4194.358974,4619.487179,3947.692308,4023.076923
64,4363.589743,4503.589743,4482.051282,4271.282051,4470.769230,4195.897435,4436.923076,4197.435897,4227.179487,4471.282051,4189.743589,4618.461538,3943.076924,4020.512820
65,4370.769230,4506.153846,4487.692307,4268.717948,4476.923076,4193.846153,4432.307692,4198.974358,4226.666666,4474.871794,4185.641025,4624.615384,3949.743590,4023.076923
66,4371.794871,4505.128205,4489.230769,4264.102564,4475.384615,4191.282051,4428.205128,4194.358974,4225.641025,4470.769230,4185.128205,4628.205128,3955.384616,4024.102564
67,4365.128205,4498.974358,4486.153846,4264.615384,4464.102564,4187.179487,4426.666666,4186.153846,4218.974358,4465.641025,4184.615384,4624.102564,3951.282052,4022.051282
68,4363.589743,4494.871794,4488.205128,4264.102564,4455.897435,4183.076923,4426.666666,4182.051282,4213.333333,4464.102564,4182.564102,4624.102564,3941.538462,4022.051282
69,4367.179487,4501.538461,4488.717948,4264.102564,4455.897435,4182.051282,4425.128205,4182.051282,4213.333333,4458.974358,4183.076923,4626.153846,3938.461539,4021.538461
70,4370.256410,4508.205128,4488.205128,4269.230769,4463.589743,4187.692307,4425.641025,4188.717948,4223.589743,4463.076923,4189.230769,4627.179487,3950.769231,4025.641025
71,4373.333333,4508.205128,4490.769230,4275.897435,4469.230769,4193.846153,4429.743589,4198.974358,4237.948717,4482.051282,4196.923076,4630.769230,3969.230770,4034.358974
72,4373.846153,4506.153846,4489.743589,4277.948717,4465.641025,4192.820512,4431.282051,4204.102564,4241.025641,4488.717948,4201.025641,4632.820512,3966.153847,4033.333333
73,4376.410256,4505.128205,4491.282051,4279.487179,4468.205128,4192.820512,4429.230769,4201.025641,4233.846153,4483.589743,4200.512820,4633.846153,3959.487180,4032.307692
74,4377.948717,4507.179487,4494.871794,4280.512820,4477.948717,4192.820512,4425.641025,4188.717948,4225.128205,4477.435897,4197.435897,4633.846153,3965.641026,4036.410256
75,4370.769230,4508.717948,4485.641025,4276.410256,4474.871794,4188.205128,4422.564102,4176.410256,4215.897435,4469.743589,4188.717948,4623.589743,3960.512821,4027.179487
76,4362.564102,4501.538461,4473.333333,4271.282051,4470.769230,4190.769230,4423.589743,4182.564102,4216.923076,4464.615384,4181.025641,4615.897435,3947.179488,4012.307692
77,4366.153846,4495.384615,4481.538461,4273.846153,4475.384615,4203.589743,4428.717948,4200.512820,4231.794871,4472.820512,4188.205128,4627.692307,3951.794872,4018.974358
78,4372.820512,4499.487179,4495.384615,4275.897435,4462.564102,4199.487179,4430.769230,4204.102564,4236.923076,4482.051282,4200.000000,4635.897435,3958.974359,4033.333333
79,4372.307692,4503.076923,4490.769230,4275.384615,4451.282051,4183.076923,4426.153846,4198.974358,4230.769230,4479.487179,4202.051282,4630.769230,3957.435898,4032.820512
80,4375.897435,4508.717948,4488.717948,4278.974358,4470.769230,4188.205128,4425.641025,4202.051282,4238.461538,4481.538461,4202.051282,4635.384615,3968.717949,4033.333333
81,4383.076923,4514.871794,4496.410256,4281.025641,4484.615384,4197.948717,4429.230769,4203.589743,4246.666666,4492.820512,4202.051282,4644.102564,3980.512821,4041.025641
82,4379.487179,4510.769230,4493.333333,4276.410256,4468.205128,4188.205128,4426.666666,4192.820512,4237.435897,4491.282051,4203.076923,4638.461538,3970.256411,4041.025641
83,4372.820512,4504.102564,4488.205128,4272.307692,4458.461538,4180.000000,4422.564102,4186.153846,4228.205128,4474.358974,4200.512820,4632.307692,3958.974359,4032.820512
84,4369.230769,4500.000000,4490.769230,4269.230769,4462.564102,4185.641025,4428.205128,4189.230769,4228.717948,4469.743589,4191.282051,4631.794871,3950.256411,4024.615384
85,4365.128205,4495.897435,4490.256410,4266.153846,4463.589743,4190.256410,4432.307692,4189.743589,4228.717948,4477.435897,4181.538461,4625.641025,3934.358975,4020.512820
86,4364.102564,4495.897435,4488.205128,4272.820512,4466.666666,4191.794871,4424.615384,4186.153846,4227.179487,4474.358974,4181.538461,4621.538461,3941.025642,4021.538461
87,4368.205128,4507.179487,4488.205128,4280.512820,4470.256410,4193.333333,4419.487179,4185.641025,4231.794871,4469.743589,4190.256410,4626.666666,3967.179488,4026.666666
88,4372.307692,4515.897435,4488.717948,4280.512820,4476.923076,4198.461538,4425.128205,4192.307692,4234.871794,4481.025641,4201.538461,4630.256410,3968.717949,4031.794871
89,4374.871794,4512.307692,4489.743589,4277.948717,4485.128205,4200.512820,4429.743589,4195.897435,4233.846153,4491.282051,4203.589743,4631.282051,3954.871795,4034.358974
90,4373.333333,4505.641025,4489.743589,4271.794871,4477.435897,4192.820512,4427.692307,4194.358974,4232.820512,4484.102564,4196.410256,4632.307692,3956.410257,4029.743589
91,4368.205128,4504.102564,4488.205128,4267.179487,4465.128205,4192.307692,4425.641025,4191.794871,4230.256410,4481.538461,4195.384615,4629.230769,3960.512821,4023.589743
92,4370.769230,4507.179487,4489.230769,4275.897435,4472.820512,4196.923076,4428.717948,4189.743589,4230.256410,4485.641025,4198.974358,4628.205128,3953.333334,4026.666666
93,4379.487179,4505.641025,4490.256410,4284.615384,4478.974358,4193.846153,4430.256410,4192.307692,4232.307692,4483.076923,4200.000000,4632.307692,3950.256411,4033.333333
94,4377.435897,4501.538461,4488.717948,4278.974358,4466.666666,4192.307692,4427.692307,4194.358974,4230.769230,4478.461538,4198.461538,4632.307692,3950.769231,4031.282051
95,4373.333333,4503.589743,4488.205128,4276.923076,4471.282051,4200.512820,4428.205128,4193.846153,4232.307692,4481.538461,4192.820512,4630.769230,3956.923077,4026.666666
96,4377.435897,4504.615384,4488.717948,4285.128205,4488.717948,4203.076923,4433.846153,4195.897435,4239.487179,4488.205128,4191.794871,4631.282051,3968.717949,4030.256410
97,4380.512820,4503.076923,4487.692307,4285.641025,4479.487179,4197.435897,4434.871794,4197.948717,4238.974358,4488.205128,4195.384615,4632.307692,3967.179488,4030.769230
98,4378.461538,4504.615384,4488.717948,4283.589743,4469.743589,4203.076923,4436.410256,4202.051282,4235.897435,4488.205128,4203.076923,4631.282051,3956.923077,4028.205128
99,4380.512820,4508.205128,4492.307692,4286.666666,4489.743589,4214.358974,4443.589743,4211.794871,4245.128205,4496.410256,4210.256410,4635.384615,3964.615385,4033.333333
100,4385.641025,4509.743589,4491.794871,4286.666666,4494.358974,4210.256410,4447.179487,4214.871794,4251.794871,4502.051282,4210.769230,4641.025641,3978.461539,4038.974358
101,4383.076923,4507.179487,4489.743589,4283.076923,4473.846153,4196.410256,4441.538461,4202.564102,4247.179487,4495.897435,4207.692307,4636.410256,3974.871795,4033.846153
102,4381.025641,4506.153846,4491.794871,4281.025641,4472.307692,4196.410256,4436.923076,4198.461538,4242.564102,4486.153846,4207.179487,4631.794871,3971.282052,4030.256410
103,4381.025641,4507.692307,4486.666666,4280.000000,4478.461538,4200.512820,4433.333333,4200.512820,4238.461538,4480.512820,4202.564102,4633.846153,3975.384616,4032.307692
104,4380.000000,4508.205128,4477.948717,4277.435897,4481.538461,4197.948717,4428.205128,4196.923076,4233.846153,4481.538461,4196.410256,4632.307692,3972.820513,4031.794871
105,4381.538461,4506.666666,4485.128205,4278.974358,4490.256410,4201.538461,4435.897435,4197.435897,4235.384615,4485.128205,4201.025641,4633.333333,3972.307693,4034.871794
106,4382.564102,4508.717948,4493.333333,4281.538461,4484.102564,4201.538461,4439.487179,4201.025641,4240.512820,4485.128205,4211.282051,4642.564102,3973.846154,4037.435897
107,4382.051282,4517.435897,4489.743589,4281.025641,4469.230769,4195.897435,4429.743589,4198.974358,4238.461538,4487.179487,4212.820512,4644.102564,3970.769231,4034.358974
108,4387.179487,4522.564102,4488.205128,4278.974358,4477.435897,4198.974358,4431.282051,4198.974358,4232.820512,4489.230769,4211.282051,4642.564102,3970.256411,4035.384615
109,4393.846153,4520.512820,4491.794871,4281.538461,4493.846153,4205.641025,4445.128205,4205.641025,4239.487179,4486.666666,4214.358974,4649.743589,3977.948718,4041.538461
110,4393.846153,4521.025641,4490.769230,4285.128205,4488.205128,4205.641025,4447.179487,4209.230769,4248.717948,4489.743589,4220.512820,4653.846153,3985.641026,4046.153846
111,4390.256410,4522.051282,4489.743589,4282.051282,4473.846153,4201.538461,4440.000000,4203.589743,4239.487179,4493.846153,4218.461538,4649.230769,3981.538462,4043.589743
112,4386.153846,4516.410256,4490.256410,4272.820512,4477.435897,4200.000000,4442.051282,4198.974358,4228.205128,4487.179487,4209.743589,4645.641025,3969.743590,4036.410256
113,4383.589743,4511.794871,4487.179487,4266.153846,4496.410256,4202.564102,4445.128205,4201.025641,4234.871794,4480.512820,4202.564102,4643.589743,3967.692308,4031.794871
114,4382.051282,4509.230769,4484.102564,4266.153846,4490.769230,4203.076923,4438.461538,4202.051282,4237.948717,4478.461538,4198.974358,4642.051282,3972.820513,4030.769230
115,4379.487179,4508.717948,4486.153846,4265.641025,4467.692307,4193.846153,4428.717948,4195.384615,4229.743589,4475.897435,4200.512820,4641.025641,3970.769231,4032.820512
116,4386.666666,4520.512820,4490.256410,4271.282051,4469.230769,4192.820512,4429.743589,4194.871794,4231.282051,4476.410256,4210.256410,4646.153846,3973.333334,4036.923076
117,4392.820512,4528.717948,4490.769230,4274.871794,4478.974358,4197.948717,4433.333333,4198.461538,4235.897435,4476.410256,4217.435897,4651.794871,3975.384616,4036.410256
118,4386.666666,4516.410256,4489.230769,4268.205128,4475.384615,4191.282051,4428.717948,4193.846153,4226.666666,4474.358974,4210.769230,4647.179487,3964.102565,4027.692307
119,4381.538461,4509.230769,4488.205128,4267.179487,4478.974358,4188.205128,4426.153846,4184.102564,4222.564102,4472.820512,4200.512820,4641.025641,3959.487180,4026.153846
120,4382.564102,4517.948717,4488.205128,4273.333333,4484.102564,4197.948717,4431.282051,4184.615384,4231.282051,4473.333333,4198.461538,4645.641025,3971.794872,4032.307692
121,4388.205128,4523.076923,4489.230769,4273.333333,4480.512820,4206.153846,4440.000000,4193.333333,4238.461538,4480.512820,4207.179487,4654.358974,3978.461539,4037.435897
122,4395.897435,4522.051282,4494.358974,4274.358974,4486.153846,4209.230769,4445.641025,4200.512820,4239.487179,4488.205128,4218.974358,4659.487179,3975.384616,4041.538461
123,4394.871794,4523.076923,4497.948717,4282.051282,4493.846153,4208.717948,4444.615384,4202.564102,4237.948717,4487.179487,4216.410256,4660.512820,3976.923077,4042.051282
124,4389.230769,4521.538461,4494.358974,4279.487179,4481.538461,4200.512820,4441.538461,4200.512820,4240.512820,4482.051282,4206.153846,4658.461538,3975.384616,4036.923076
125,4392.307692,4521.025641,4490.769230,4273.333333,4467.179487,4197.435897,4440.512820,4200.512820,4244.102564,4480.000000,4207.692307,4656.410256,3970.256411,4033.333333
126,4391.282051,4526.153846,4490.769230,4276.410256,4478.461538,4202.564102,4442.564102,4203.589743,4241.538461,4479.487179,4214.871794,4653.333333,3973.846154,4033.846153
127,4382.051282,4520.512820,4490.256410,4277.948717,4489.230769,4202.051282,4443.076923,4201.538461,4232.307692,4479.487179,4210.769230,4650.256410,3970.256411,4030.769230
128,4378.461538,4509.743589,4487.179487,4272.820512,4468.717948,4198.974358,4436.923076,4193.846153,4224.102564,4476.410256,4201.025641,4648.717948,3954.358975,4026.153846
129,4384.615384,4514.871794,4488.717948,4269.743589,4459.487179,4198.974358,4434.871794,4192.820512,4225.641025,4475.897435,4200.512820,4649.743589,3958.974359,4027.692307
130,4391.794871,4526.666666,4496.923076,4275.897435,4487.179487,4203.589743,4443.076923,4201.538461,4231.794871,4481.025641,4210.769230,4653.846153,3970.769231,4033.333333
131,4391.282051,4524.615384,4500.000000,4278.974358,4502.051282,4204.615384,4446.153846,4207.179487,4237.948717,4480.512820,4219.487179,4658.461538,3961.538462,4036.923076
132,4388.205128,4520.512820,4494.871794,4276.410256,4490.256410,4202.051282,4439.487179,4206.153846,4242.564102,4480.000000,4218.461538,4658.461538,3963.589744,4039.487179
133,4391.794871,4523.589743,4490.769230,4276.410256,4484.615384,4203.076923,4436.923076,4205.641025,4246.153846,4487.692307,4212.820512,4658.974358,3984.102565,4043.589743
134,4392.820512,4524.102564,4490.769230,4273.846153,4477.435897,4201.025641,4432.307692,4203.589743,4237.435897,4481.025641,4208.205128,4657.948717,3983.076924,4039.487179
135,4387.179487,4516.923076,4491.794871,4271.282051,4468.717948,4196.923076,4426.666666,4193.333333,4225.128205,4469.230769,4211.282051,4648.717948,3965.641026,4033.333333
136,4386.153846,4510.769230,4495.384615,4275.384615,4475.384615,4201.025641,4433.333333,4189.743589,4227.692307,4476.923076,4217.435897,4646.666666,3962.564103,4036.410256
137,4391.794871,4516.410256,4500.000000,4277.435897,4476.410256,4202.564102,4442.051282,4196.410256,4230.256410,4478.974358,4214.358974,4653.846153,3968.717949,4040.512820
138,4396.923076,4525.128205,4503.589743,4277.435897,4471.794871,4200.000000,4442.564102,4201.025641,4231.282051,4472.820512,4212.307692,4657.435897,3972.307693,4042.051282
139,4400.000000,4527.692307,4506.666666,4282.051282,4477.948717,4209.743589,4444.615384,4207.692307,4240.512820,4485.641025,4217.948717,4659.487179,3975.384616,4047.692307
140,4400.000000,4529.230769,4508.205128,4283.589743,4486.666666,4219.487179,4448.717948,4217.435897,4250.256410,4493.846153,4221.025641,4663.076923,3973.846154,4049.230769
141,4397.948717,4529.743589,4501.025641,4282.564102,4492.307692,4213.333333,4445.128205,4213.846153,4248.717948,4484.102564,4218.461538,4659.487179,3970.769231,4042.564102
142,4395.897435,4524.102564,4492.307692,4282.051282,4492.307692,4204.102564,4442.051282,4201.025641,4241.538461,4480.512820,4216.410256,4652.820512,3965.128206,4038.974358
143,4390.769230,4520.000000,4489.743589,4276.923076,4480.512820,4201.538461,4442.564102,4198.461538,4233.846153,4480.000000,4210.769230,4649.230769,3960.512821,4036.410256
144,4388.205128,4524.615384,4491.794871,4273.333333,4479.487179,4207.692307,4443.076923,4205.641025,4235.897435,4480.512820,4209.230769,4646.666666,3967.692308,4033.333333
145,4390.769230,4520.512820,4491.794871,4275.897435,4490.769230,4213.846153,4445.128205,4212.307692,4248.717948,4489.230769,4215.384615,4649.230769,3975.384616,4034.871794
146,4386.666666,4510.769230,4489.743589,4272.307692,4473.333333,4207.179487,4443.589743,4208.205128,4245.641025,4485.128205,4212.820512,4650.769230,3965.641026,4031.282051
147,4384.615384,4513.846153,4490.256410,4269.230769,4451.794871,4197.435897,4439.487179,4201.538461,4233.846153,4471.794871,4203.589743,4647.179487,3954.871795,4026.666666
148,4389.743589,4524.102564,4491.794871,4274.871794,4472.820512,4201.025641,4441.538461,4204.615384,4240.000000,4475.384615,4203.076923,4647.179487,3959.487180,4030.769230
149,4390.769230,4524.102564,4492.307692,4281.025641,4500.512820,4210.769230,4445.128205,4207.692307,4249.743589,4486.153846,4207.179487,4649.230769,3967.179488,4030.769230
150,4385.641025,4518.974358,4490.769230,4277.948717,4495.384615,4213.333333,4443.589743,4205.128205,4246.666666,4484.102564,4210.769230,4645.641025,3965.641026,4024.615384
151,4383.589743,4520.512820,4490.769230,4270.256410,4479.487179,4207.692307,4442.051282,4203.076923,4240.000000,4480.000000,4217.435897,4645.128205,3958.974359,4024.102564
152,4386.666666,4521.538461,4491.282051,4269.230769,4471.282051,4200.000000,4438.974358,4198.974358,4234.871794,4476.410256,4217.435897,4648.205128,3959.487180,4028.717948
153,4392.820512,4521.538461,4490.769230,4275.897435,4471.794871,4197.948717,4431.794871,4194.871794,4230.769230,4477.435897,4212.307692,4648.205128,3971.282052,4031.794871
154,4390.256410,4521.025641,4490.769230,4277.948717,4474.358974,4198.974358,4426.153846,4197.948717,4231.794871,4482.564102,4212.820512,4645.641025,3975.384616,4032.820512
155,4384.102564,4518.461538,4492.307692,4276.923076,4479.487179,4202.051282,4431.794871,4201.025641,4237.435897,4481.025641,4218.461538,4646.153846,3970.256411,4034.871794
156,4391.794871,4522.051282,4492.820512,4278.974358,4486.153846,4207.179487,4443.589743,4203.076923,4240.512820,4477.435897,4218.461538,4649.230769,3968.205129,4035.897435
157,4393.846153,4525.128205,4491.794871,4275.384615,4474.871794,4204.102564,4440.000000,4201.538461,4236.410256,4477.948717,4209.230769,4645.128205,3964.102565,4033.333333
158,4385.641025,4523.076923,4490.256410,4275.384615,4462.564102,4200.512820,4432.307692,4197.948717,4232.307692,4478.974358,4208.205128,4640.512820,3963.076924,4031.282051
159,4388.205128,4522.051282,4490.256410,4282.564102,4482.051282,4203.076923,4437.948717,4198.974358,4234.871794,4475.897435,4217.435897,4646.153846,3973.333334,4036.923076
160,4391.282051,4524.615384,4489.743589,4281.025641,4494.358974,4203.589743,4437.948717,4198.974358,4231.282051,4472.307692,4217.435897,4648.717948,3973.333334,4036.923076
161,4385.641025,4521.025641,4490.256410,4277.435897,4477.948717,4200.512820,4428.717948,4191.282051,4223.076923,4472.820512,4213.846153,4642.564102,3958.974359,4032.307692
162,4389.230769,4516.923076,4491.282051,4281.538461,4470.256410,4199.487179,4429.230769,4189.230769,4224.615384,4477.435897,4216.410256,4643.076923,3957.948718,4032.820512
163,4394.871794,4518.461538,4491.282051,4281.025641,4474.871794,4200.000000,4431.794871,4198.461538,4229.743589,4478.461538,4216.410256,4648.717948,3963.589744,4034.358974
164,4390.256410,4521.025641,4491.282051,4277.435897,4475.384615,4201.025641,4432.307692,4202.564102,4231.282051,4474.358974,4215.384615,4649.230769,3964.102565,4036.923076
165,4389.230769,4522.051282,4491.794871,4277.948717,4475.384615,4202.051282,4436.410256,4201.025641,4237.948717,4483.076923,4217.435897,4648.205128,3971.282052,4042.051282
166,4390.256410,4520.000000,4491.794871,4279.487179,4474.358974,4201.538461,4433.333333,4203.589743,4243.076923,4489.743589,4217.435897,4644.615384,3978.461539,4038.974358
167,4383.589743,4520.000000,4485.641025,4280.512820,4474.358974,4201.025641,4427.692307,4205.128205,4242.051282,4481.538461,4216.410256,4639.487179,3975.897436,4033.333333
168,4380.000000,4522.051282,4481.025641,4281.025641,4475.384615,4200.512820,4431.282051,4202.051282,4240.512820,4479.487179,4215.384615,4642.051282,3971.794872,4035.384615
169,4383.589743,4517.435897,4485.641025,4280.512820,4467.179487,4198.974358,4430.769230,4198.461538,4237.948717,4484.102564,4214.358974,4642.564102,3968.205129,4035.897435
170,4383.589743,4508.205128,4490.769230,4279.487179,4465.641025,4198.974358,4426.153846,4196.410256,4231.282051,4478.974358,4215.897435,4637.435897,3960.512821,4032.307692
171,4379.487179,4502.051282,4489.743589,4280.512820,4472.820512,4197.435897,4426.153846,4191.282051,4228.205128,4473.846153,4214.358974,4637.435897,3954.871795,4028.205128
172,4380.512820,4507.179487,4486.666666,4280.000000,4480.000000,4196.410256,4426.153846,4190.769230,4231.282051,4477.948717,4208.205128,4642.051282,3955.897436,4027.179487
173,4385.641025,4513.333333,4485.128205,4277.948717,4486.666666,4201.538461,4427.692307,4200.512820,4236.923076,4477.948717,4210.256410,4643.589743,3967.692308,4034.358974
174,4384.615384,4510.769230,4485.128205,4279.487179,4477.435897,4202.564102,4428.205128,4202.051282,4238.974358,4470.256410,4215.897435,4637.948717,3976.410257,4035.897435
175,4383.076923,4509.230769,4486.153846,4281.538461,4459.487179,4195.384615,4424.615384,4188.205128,4231.282051,4467.179487,4215.384615,4633.846153,3964.615385,4027.179487
176,4390.769230,4519.487179,4488.205128,4281.538461,4466.153846,4195.384615,4425.641025,4182.564102,4227.179487,4470.769230,4215.384615,4641.538461,3958.461539,4030.769230
177,4397.435897,4528.205128,4491.282051,4282.051282,4485.641025,4205.128205,4429.743589,4194.358974,4233.333333,4480.000000,4220.000000,4652.307692,3973.846154,4043.076923
178,4392.307692,4525.128205,4492.307692,4282.051282,4480.512820,4201.538461,4425.128205,4198.974358,4234.871794,4483.589743,4220.512820,4649.230769,3981.538462,4042.051282
179,4384.615384,4517.948717,4487.692307,4282.051282,4466.153846,4187.179487,4420.000000,4187.692307,4232.307692,4480.000000,4217.435897,4641.025641,3972.307693,4035.897435
180,4389.230769,4517.948717,4487.692307,4286.153846,4475.384615,4188.717948,4424.102564,4185.128205,4231.794871,4478.461538,4216.923076,4642.564102,3967.692308,4037.948717
181,4395.384615,4521.025641,4490.256410,4285.128205,4489.743589,4200.000000,4427.179487,4193.846153,4229.743589,4480.000000,4217.435897,4641.025641,3969.743590,4038.974358
182,4390.256410,4518.461538,4489.230769,4280.000000,4488.205128,4201.538461,4427.179487,4198.974358,4231.794871,4480.000000,4218.461538,4638.461538,3973.846154,4038.974358
183,4383.589743,4513.846153,4489.230769,4284.102564,4480.000000,4198.974358,4429.743589,4197.435897,4232.820512,4477.435897,4216.410256,4642.051282,3973.333334,4040.000000
184,4383.076923,4509.743589,4491.794871,4287.692307,4471.794871,4201.025641,4433.333333,4198.461538,4229.230769,4473.846153,4212.820512,4643.589743,3964.615385,4036.410256
185,4387.179487,4509.230769,4490.256410,4283.589743,4467.692307,4201.025641,4437.435897,4200.512820,4233.333333,4474.871794,4221.025641,4643.076923,3965.128206,4035.897435
186,4392.820512,4517.948717,4495.384615,4285.641025,4479.487179,4200.512820,4443.589743,4201.025641,4244.102564,4483.076923,4233.333333,4647.692307,3980.000000,4042.051282
187,4398.974358,4526.153846,4504.102564,4296.410256,4490.256410,4203.076923,4444.102564,4206.666666,4251.794871,4496.923076,4231.794871,4651.794871,3987.692308,4045.641025
188,4397.435897,4521.025641,4500.000000,4295.897435,4476.923076,4203.076923,4435.384615,4206.666666,4250.256410,4501.025641,4225.641025,4647.692307,3980.000000,4041.025641
189,4392.307692,4520.000000,4491.794871,4287.179487,4468.717948,4201.025641,4429.230769,4202.051282,4241.538461,4487.179487,4221.538461,4643.076923,3968.717949,4036.923076
190,4394.358974,4528.717948,4492.307692,4286.666666,4486.153846,4202.564102,4431.282051,4203.076923,4240.000000,4476.923076,4217.948717,4641.538461,3965.641026,4038.974358
191,4394.358974,4524.102564,4492.820512,4293.846153,4488.717948,4205.641025,4431.282051,4203.076923,4242.051282,4481.538461,4214.871794,4641.025641,3969.743590,4038.974358
192,4394.871794,4518.974358,4498.461538,4298.461538,4475.384615,4210.256410,4433.846153,4200.000000,4240.512820,4492.307692,4218.461538,4645.641025,3975.897436,4042.051282
193,4403.589743,4530.256410,4509.743589,4298.461538,4483.076923,4215.897435,4442.564102,4208.717948,4244.615384,4498.974358,4226.153846,4652.820512,3978.974359,4050.769230
194,4407.692307,4536.923076,4511.794871,4296.923076,4489.230769,4213.333333,4440.000000,4216.410256,4249.230769,4493.333333,4229.743589,4655.897435,3979.487180,4051.282051
195,4400.000000,4528.205128,4505.641025,4291.282051,4474.871794,4204.102564,4426.666666,4208.717948,4244.615384,4480.000000,4230.256410,4654.358974,3975.384616,4046.666666
196,4397.948717,4521.025641,4508.205128,4290.256410,4478.461538,4201.538461,4425.128205,4204.615384,4242.564102,4482.051282,4231.794871,4656.923076,3970.769231,4046.666666
197,4402.051282,4522.564102,4512.820512,4297.948717,4491.794871,4204.615384,4431.282051,4207.692307,4243.589743,4490.769230,4227.692307,4656.923076,3971.794872,4046.666666
198,4397.948717,4523.076923,4510.769230,4296.923076,4477.948717,4201.538461,4428.717948,4202.051282,4235.384615,4488.205128,4214.871794,4649.230769,3973.846154,4041.538461
199,4392.820512,4523.589743,4506.666666,4291.282051,4466.153846,4198.974358,4427.179487,4196.923076,4230.256410,4486.666666,4212.307692,4645.641025,3969.743590,4037.948717
200,4391.282051,4521.538461,4503.076923,4293.846153,4472.307692,4202.564102,4428.717948,4199.487179,4232.307692,4480.512820,4217.948717,4647.692307,3962.564103,4036.410256
201,4390.256410,4521.538461,4501.538461,4294.871794,4477.948717,4203.076923,4427.179487,4201.538461,4236.410256,4470.256410,4217.435897,4647.179487,3959.487180,4035.897435
202,4393.333333,4532.307692,4504.102564,4291.794871,4486.153846,4201.025641,4430.256410,4202.564102,4241.025641,4484.102564,4213.333333,4646.153846,3968.717949,4038.974358
203,4396.923076,4540.000000,4505.641025,4291.794871,4491.282051,4205.641025,4435.897435,4207.179487,4242.564102,4498.461538,4210.769230,4646.153846,3979.487180,4038.461538
204,4395.897435,4535.384615,4505.641025,4295.384615,4488.717948,4213.846153,4437.948717,4210.769230,4242.051282,4490.256410,4214.871794,4646.666666,3975.384616,4038.461538
205,4393.846153,4533.333333,4505.128205,4296.410256,4487.692307,4211.282051,4438.461538,4209.743589,4246.153846,4486.666666,4221.025641,4647.179487,3965.641026,4040.512820
206,4393.333333,4537.435897,4499.487179,4296.923076,4485.128205,4204.615384,4437.948717,4211.282051,4247.692307,4493.846153,4217.948717,4646.153846,3974.358975,4037.435897
207,4391.282051,4537.948717,4494.871794,4296.923076,4473.333333,4201.538461,4431.282051,4211.282051,4238.974358,4487.692307,4211.794871,4640.512820,3987.179488,4033.333333
208,4391.282051,4536.923076,4496.410256,4296.923076,4471.794871,4203.589743,4428.205128,4209.230769,4238.974358,4481.025641,4214.871794,4636.923076,3987.179488,4035.897435
209,4392.820512,4537.948717,4495.384615,4298.461538,4488.205128,4208.205128,4436.923076,4211.794871,4248.205128,4488.205128,4221.025641,4640.000000,3983.076924,4041.025641
210,4391.282051,4536.923076,4490.256410,4291.794871,4495.897435,4206.666666,4437.435897,4209.230769,4242.051282,4490.256410,4213.846153,4637.948717,3982.051283,4035.897435
211,4387.179487,4536.410256,4490.256410,4279.487179,4490.769230,4199.487179,4428.717948,4201.025641,4230.256410,4484.615384,4207.692307,4631.794871,3982.564103,4026.666666
212,4383.589743,4531.282051,4489.743589,4277.948717,4484.615384,4197.948717,4427.692307,4201.025641,4232.307692,4480.000000,4208.717948,4629.743589,3978.974359,4024.615384
213,4382.051282,4522.564102,4487.179487,4281.538461,4484.102564,4201.025641,4428.717948,4202.564102,4234.358974,4477.435897,4210.256410,4631.282051,3976.923077,4027.692307
214,4384.615384,4524.102564,4488.205128,4280.000000,4480.512820,4198.974358,4427.692307,4200.000000,4233.333333,4480.000000,4218.974358,4637.435897,3981.025642,4030.769230
215,4391.794871,4537.948717,4491.282051,4278.461538,4478.974358,4199.487179,4428.717948,4203.589743,4239.487179,4489.230769,4231.282051,4646.153846,3988.205129,4037.435897
216,4392.820512,4541.538461,4493.333333,4283.076923,4485.128205,4204.102564,4430.769230,4206.666666,4245.128205,4493.846153,4230.769230,4648.717948,3988.205129,4038.461538
217,4382.051282,4527.179487,4489.230769,4280.512820,4486.666666,4196.410256,4427.692307,4201.025641,4240.000000,4486.153846,4216.923076,4641.538461,3978.461539,4027.692307
218,4375.897435,4522.564102,4486.666666,4268.717948,4481.538461,4184.615384,4423.076923,4197.948717,4232.820512,4476.923076,4205.641025,4634.358974,3973.846154,4020.512820
219,4381.538461,4537.948717,4490.769230,4266.666666,4486.153846,4191.794871,4426.153846,4198.974358,4231.794871,4475.384615,4208.205128,4635.897435,3976.923077,4022.564102
220,4385.641025,4542.564102,4493.333333,4275.384615,4491.282051,4198.974358,4429.230769,4201.538461,4233.333333,4476.923076,4213.333333,4641.538461,3978.974359,4027.179487
221,4383.589743,4529.230769,4490.256410,4279.487179,4472.820512,4189.230769,4426.153846,4200.512820,4233.846153,4478.974358,4212.307692,4643.589743,3976.923077,4029.743589
222,4387.179487,4530.256410,4496.923076,4279.487179,4462.051282,4186.666666,4425.128205,4198.461538,4235.384615,4483.589743,4217.948717,4644.102564,3983.076924,4033.333333
223,4397.435897,4542.564102,4502.564102,4280.000000,4483.589743,4197.948717,4428.717948,4201.025641,4237.948717,4485.128205,4226.666666,4650.769230,3991.794872,4037.435897
224,4399.487179,4542.564102,4496.410256,4278.461538,4498.461538,4201.538461,4428.717948,4202.051282,4236.923076,4481.538461,4221.025641,4654.871794,3987.179488,4036.410256
225,4394.358974,4538.974358,4497.948717,4278.461538,4492.307692,4196.923076,4427.692307,4201.538461,4236.923076,4480.512820,4216.410256,4651.794871,3987.179488,4035.897435
226,4389.743589,4536.923076,4502.051282,4279.487179,4475.897435,4193.846153,4427.179487,4201.538461,4237.435897,4482.564102,4221.538461,4648.205128,3993.333334,4036.410256
227,4387.692307,4535.384615,4498.974358,4274.871794,4468.205128,4194.358974,4425.128205,4204.102564,4236.923076,4484.102564,4221.538461,4650.769230,3988.717949,4032.820512
228,4393.333333,4538.461538,4503.076923,4276.410256,4483.076923,4201.025641,4433.846153,4212.820512,4245.641025,4491.282051,4227.179487,4657.948717,3986.153847,4035.897435
229,4400.000000,4541.538461,4508.205128,4284.615384,4496.923076,4204.615384,4444.102564,4220.512820,4255.897435,4495.897435,4233.846153,4657.948717,3992.820513,4043.076923
230,4400.000000,4540.512820,4503.589743,4283.076923,4487.179487,4202.051282,4440.512820,4218.974358,4252.820512,4491.794871,4226.153846,4650.769230,3994.871795,4040.512820
231,4397.948717,4542.051282,4500.512820,4278.461538,4476.923076,4202.051282,4433.846153,4216.410256,4248.717948,4491.794871,4216.923076,4648.717948,3992.820513,4040.000000
232,4394.871794,4541.538461,4498.974358,4274.871794,4485.128205,4200.512820,4432.820512,4213.333333,4246.153846,4492.307692,4216.410256,4649.743589,3990.256411,4039.487179
233,4385.641025,4531.282051,4490.769230,4268.205128,4492.307692,4197.435897,4429.230769,4206.666666,4240.512820,4484.102564,4217.435897,4643.076923,3978.461539,4028.717948
234,4382.051282,4527.179487,4488.205128,4266.153846,4491.282051,4197.948717,4425.128205,4204.102564,4237.435897,4480.000000,4216.410256,4636.410256,3971.794872,4025.128205
235,4385.128205,4529.743589,4495.384615,4268.717948,4487.692307,4199.487179,4427.179487,4203.076923,4237.435897,4481.538461,4216.410256,4637.948717,3975.897436,4029.743589
236,4386.153846,4532.307692,4501.025641,4272.820512,4476.923076,4198.461538,4428.205128,4207.179487,4239.487179,4482.564102,4215.897435,4643.589743,3980.000000,4030.256410
237,4385.641025,4532.307692,4501.538461,4278.974358,4470.256410,4197.948717,4432.307692,4216.923076,4244.102564,4487.692307,4214.358974,4645.128205,3985.128206,4031.282051
238,4384.615384,4527.692307,4501.538461,4280.000000,4482.051282,4200.000000,4439.487179,4211.794871,4241.538461,4486.666666,4214.358974,4643.589743,3983.589744,4032.307692
239,4387.692307,4528.717948,4505.128205,4274.871794,4494.358974,4201.538461,4436.410256,4202.564102,4234.871794,4478.461538,4218.461538,4644.102564,3974.358975,4029.743589
240,4394.358974,4533.333333,4507.179487,4275.384615,4491.794871,4200.000000,4432.820512,4210.256410,4241.538461,4484.102564,4223.076923,4647.179487,3978.974359,4034.358974
241,4393.846153,4534.358974,4505.128205,4278.974358,4489.743589,4201.538461,4439.487179,4219.487179,4250.769230,4493.333333,4227.179487,4650.256410,3992.820513,4039.487179
242,4389.743589,4533.846153,4504.615384,4273.846153,4495.897435,4205.641025,4445.641025,4216.410256,4248.205128,4489.743589,4229.230769,4648.205128,3990.256411,4038.461538
243,4389.230769,4535.897435,4503.589743,4267.692307,4489.743589,4204.102564,4440.512820,4210.769230,4245.128205,4486.666666,4223.076923,4644.615384,3977.435898,4036.410256
244,4391.794871,4537.948717,4503.076923,4272.820512,4476.923076,4200.512820,4437.948717,4210.256410,4244.615384,4492.307692,4216.410256,4644.102564,3974.358975,4036.410256
245,4393.333333,4536.923076,4507.692307,4278.461538,4484.102564,4202.564102,4442.051282,4214.871794,4246.666666,4494.871794,4218.974358,4648.205128,3980.512821,4041.025641
246,4388.717948,4529.743589,4504.102564,4272.820512,4493.333333,4204.102564,4441.538461,4217.435897,4250.769230,4489.230769,4218.974358,4647.692307,3985.128206,4041.538461
247,4382.564102,4525.641025,4495.384615,4269.743589,4488.717948,4201.538461,4440.000000,4214.358974,4248.717948,4481.025641,4215.897435,4643.076923,3982.051283,4032.820512
248,4384.615384,4533.846153,4498.974358,4271.282051,4486.666666,4201.538461,4442.051282,4216.923076,4247.692307,4485.641025,4221.025641,4645.128205,3981.025642,4031.282051
249,4391.794871,4540.512820,4507.692307,4270.769230,4492.820512,4204.615384,4445.128205,4220.512820,4256.410256,4496.410256,4230.256410,4649.230769,3986.153847,4038.974358
250,4393.333333,4537.435897,4507.179487,4274.871794,4492.820512,4203.076923,4444.102564,4214.871794,4261.025641,4494.871794,4228.205128,4648.717948,3989.743590,4041.025641
251,4390.256410,4531.282051,4504.102564,4277.948717,4488.205128,4202.564102,4443.076923,4214.358974,4253.333333,4491.282051,4218.974358,4646.666666,3987.179488,4035.384615
252,4386.153846,4524.615384,4506.666666,4268.205128,4490.769230,4203.589743,4442.564102,4215.897435,4246.666666,4488.717948,4215.384615,4643.076923,3977.948718,4033.333333
253,4385.641025,4522.564102,4506.666666,4263.076923,4487.179487,4199.487179,4435.384615,4207.179487,4243.589743,4478.974358,4216.923076,4637.435897,3971.282052,4031.794871
254,4386.666666,4524.102564,4500.000000,4266.153846,4477.948717,4196.923076,4428.717948,4198.974358,4241.025641,4473.333333,4216.410256,4636.410256,3972.820513,4028.205128
255,4384.102564,4525.128205,4496.410256,4263.076923,4472.307692,4195.897435,4428.717948,4199.487179,4236.923076,4473.846153,4213.333333,4635.897435,3970.256411,4025.641025
256,4382.051282,4524.102564,4497.435897,4261.538461,4473.333333,4189.743589,4427.692307,4198.974358,4232.820512,4473.846153,4207.179487,4630.769230,3963.076924,4023.076923
257,4380.512820,4520.512820,4495.897435,4264.102564,4473.333333,4187.692307,4425.641025,4196.923076,4231.282051,4474.358974,4201.025641,4629.230769,3960.000000,4021.538461
258,4380.512820,4521.025641,4497.948717,4266.153846,4468.717948,4188.717948,4426.153846,4198.974358,4233.846153,4470.256410,4200.512820,4632.307692,3958.974359,4022.051282
259,4384.615384,4527.179487,4502.564102,4267.179487,4473.846153,4190.769230,4428.717948,4200.512820,4232.820512,4463.076923,4205.128205,4632.820512,3958.974359,4023.076923
260,4386.153846,4527.179487,4497.948717,4265.641025,4485.128205,4195.384615,4430.769230,4199.487179,4231.282051,4467.179487,4206.153846,4631.794871,3965.641026,4024.102564
261,4384.102564,4520.512820,4493.333333,4264.102564,4491.282051,4198.974358,4431.282051,4198.461538,4234.358974,4478.974358,4205.128205,4631.794871,3968.717949,4024.102564
262,4385.641025,4519.487179,4494.871794,4266.153846,4494.358974,4200.000000,4429.743589,4201.538461,4236.923076,4481.025641,4208.717948,4635.897435,3967.179488,4027.692307
263,4386.153846,4523.589743,4497.948717,4265.641025,4481.538461,4198.461538,4428.717948,4203.076923,4236.923076,4475.897435,4215.384615,4638.461538,3964.102565,4030.769230
