,AF3,F7,F3,FC5,T7,P7,O1,O2,P8,T8,FC6,F4,F8,AF4
0,4395.897435,4522.051282,4540.512820,4308.205128,4473.333333,4210.769230,4444.102564,4201.538461,4243.076923,4518.461538,4214.871794,4662.564102,4001.025641,4046.153846
1,4395.897435,4520.512820,4537.948717,4312.307692,4462.051282,4213.333333,4445.128205,4204.615384,4240.000000,4508.717948,4217.948717,4667.179487,4000.000000,4047.692307
2,4391.794871,4520.512820,4540.512820,4309.230769,4459.487179,4211.282051,4447.179487,4201.025641,4230.256410,4500.512820,4213.846153,4661.538461,3991.794872,4041.025641
3,4389.743589,4522.051282,4540.512820,4305.641025,4472.820512,4208.205128,4445.641025,4194.358974,4221.025641,4492.820512,4205.128205,4653.333333,3991.282052,4035.897435
4,4395.384615,4524.102564,4538.461538,4308.717948,4478.461538,4210.769230,4442.564102,4188.717948,4223.076923,4495.384615,4206.153846,4652.820512,4001.538461,4036.923076
5,4397.435897,4523.076923,4540.512820,4310.769230,4464.102564,4214.358974,4443.076923,4186.153846,4230.769230,4514.871794,4216.410256,4652.307692,4006.153846,4033.333333
6,4388.717948,4521.538461,4537.948717,4306.153846,4458.461538,4213.333333,4442.564102,4186.153846,4235.897435,4529.743589,4220.512820,4645.128205,4005.128205,4024.102564
7,4380.512820,4518.974358,4530.769230,4303.589743,4480.000000,4213.333333,4444.102564,4191.794871,4240.000000,4527.179487,4217.948717,4643.589743,4005.641025,4024.102564
8,4377.435897,4520.512820,4524.615384,4299.487179,4495.384615,4220.512820,4447.692307,4193.333333,4239.487179,4516.923076,4206.666666,4643.589743,3993.846154,4022.051282
9,4373.846153,4524.102564,4521.538461,4293.846153,4484.615384,4216.410256,4440.512820,4181.025641,4224.102564,4509.230769,4193.846153,4637.435897,3981.025642,4012.307692
10,4371.794871,4521.538461,4523.589743,4299.487179,4466.153846,4202.564102,4429.230769,4170.769230,4212.820512,4506.666666,4193.333333,4632.307692,3980.512821,4010.769230
11,4375.897435,4521.538461,4523.076923,4308.205128,4457.435897,4197.435897,4425.128205,4172.307692,4216.410256,4498.461538,4192.820512,4628.205128,3981.025642,4013.846153
12,4382.564102,4532.820512,4511.282051,4304.102564,4465.641025,4202.564102,4425.128205,4171.794871,4216.923076,4487.179487,4183.076923,4620.512820,3978.974359,4012.820512
13,4391.282051,4543.589743,4510.769230,4301.025641,4488.717948,4212.307692,4432.307692,4170.256410,4215.384615,4491.794871,4182.564102,4617.948717,3990.256411,4017.948717
14,4397.435897,4545.641025,4518.461538,4309.230769,4492.307692,4217.948717,4443.076923,4178.461538,4218.974358,4491.282051,4189.230769,4621.025641,3995.384616,4025.128205
15,4389.230769,4540.512820,4513.333333,4307.692307,4475.897435,4216.410256,4444.615384,4180.512820,4214.871794,4473.333333,4182.564102,4618.974358,3981.025642,4014.871794
16,4371.794871,4527.692307,4504.615384,4289.743589,4469.230769,4209.230769,4442.564102,4171.282051,4202.564102,4465.128205,4172.307692,4613.333333,3971.794872,4003.076923
17,4362.564102,4507.179487,4505.128205,4279.487179,4471.794871,4202.564102,4440.512820,4165.641025,4201.538461,4470.769230,4172.820512,4612.307692,3969.743590,3999.487180
18,4369.230769,4502.051282,4513.846153,4285.128205,4467.692307,4200.512820,4440.000000,4170.256410,4211.794871,4481.025641,4181.538461,4622.051282,3973.846154,4001.538461
19,4380.512820,4515.897435,4521.538461,4291.282051,4465.641025,4205.641025,4441.025641,4176.410256,4223.076923,4500.000000,4193.846153,4634.871794,3983.589744,4011.794871
20,4385.641025,4524.615384,4522.564102,4291.282051,4469.230769,4208.205128,4443.076923,4180.512820,4236.923076,4522.564102,4209.230769,4641.025641,3992.307693,4020.512820
21,4391.794871,4528.205128,4523.589743,4293.333333,4476.410256,4205.128205,4441.025641,4193.846153,4250.769230,4539.487179,4221.025641,4646.153846,4008.717948,4028.717948
22,4403.589743,4542.051282,4528.717948,4297.948717,4488.205128,4210.769230,4443.076923,4203.076923,4255.897435,4547.179487,4219.487179,4654.358974,4025.128205,4042.564102
23,4403.589743,4543.589743,4530.769230,4297.948717,4485.128205,4212.307692,4442.564102,4194.358974,4246.666666,4532.307692,4215.384615,4654.358974,4013.846153,4042.564102
24,4391.794871,4526.666666,4529.230769,4294.358974,4472.820512,4204.615384,4434.358974,4181.538461,4235.384615,4508.717948,4211.282051,4646.666666,3989.230770,4025.128205
25,4387.692307,4520.512820,4532.820512,4295.897435,4476.923076,4205.128205,4436.923076,4184.102564,4230.256410,4507.179487,4203.589743,4644.102564,3992.307693,4022.564102
26,4388.717948,4524.102564,4533.846153,4293.846153,4481.025641,4208.717948,4443.589743,4187.692307,4225.641025,4506.153846,4200.512820,4645.128205,4002.051282,4026.666666
27,4391.282051,4523.589743,4526.666666,4286.666666,4464.615384,4201.538461,4442.564102,4179.487179,4218.461538,4491.794871,4200.000000,4646.153846,3992.820513,4021.025641
28,4397.948717,4526.666666,4526.153846,4285.128205,4451.794871,4195.897435,4442.051282,4179.487179,4215.384615,4477.948717,4200.000000,4650.256410,3982.051283,4024.102564
29,4402.564102,4529.230769,4536.923076,4287.179487,4459.487179,4199.487179,4444.615384,4185.641025,4214.358974,4468.717948,4198.974358,4651.794871,3979.487180,4034.358974
30,4400.512820,4526.666666,4540.000000,4289.230769,4469.743589,4203.589743,4445.128205,4186.153846,4212.820512,4465.128205,4194.871794,4645.128205,3972.307693,4031.282051
31,4395.384615,4524.615384,4527.692307,4287.179487,4478.461538,4207.692307,4443.589743,4182.564102,4209.743589,4459.487179,4182.051282,4633.846153,3958.974359,4018.461538
32,4388.205128,4523.076923,4517.948717,4282.051282,4486.666666,4213.333333,4443.589743,4183.589743,4207.179487,4454.871794,4171.282051,4622.051282,3955.897436,4006.666666
33,4377.948717,4515.897435,4510.256410,4275.897435,4481.025641,4211.794871,4442.051282,4182.051282,4210.769230,4462.051282,4175.384615,4612.820512,3962.564103,4001.025641
34,4371.282051,4513.333333,4496.410256,4270.769230,4470.256410,4205.128205,4442.564102,4174.871794,4216.410256,4475.897435,4184.615384,4607.692307,3969.230770,4001.025641
35,4370.769230,4519.487179,4489.230769,4270.256410,4476.923076,4205.128205,4443.589743,4175.384615,4221.538461,4490.769230,4186.153846,4605.641025,3973.846154,3997.948718
36,4369.230769,4524.615384,4492.820512,4273.846153,4486.666666,4208.205128,4443.076923,4184.615384,4229.743589,4498.974358,4185.128205,4606.153846,3977.435898,3993.333334
37,4365.641025,4522.564102,4499.487179,4277.435897,4480.000000,4204.615384,4442.564102,4189.230769,4232.820512,4500.000000,4187.692307,4610.256410,3979.487180,3990.256411
38,4368.205128,4521.025641,4507.179487,4277.435897,4477.435897,4203.076923,4443.076923,4185.128205,4231.282051,4500.000000,4191.282051,4614.871794,3979.487180,3985.641026
39,4377.948717,4525.641025,4514.358974,4280.000000,4484.615384,4206.153846,4444.102564,4185.641025,4228.717948,4499.487179,4190.769230,4617.435897,3979.487180,3990.769231
40,4383.589743,4526.153846,4511.794871,4281.025641,4479.487179,4202.564102,4442.564102,4186.153846,4221.538461,4494.871794,4187.179487,4616.923076,3974.358975,4000.000000
41,4380.000000,4522.051282,4508.205128,4273.846153,4474.358974,4198.461538,4442.564102,4177.435897,4213.333333,4494.358974,4184.102564,4618.974358,3969.743590,3996.410257
42,4377.948717,4522.051282,4512.307692,4265.641025,4477.435897,4201.538461,4444.102564,4177.435897,4217.435897,4500.512820,4192.307692,4626.666666,3976.923077,3994.358975
43,4380.512820,4524.102564,4515.897435,4266.153846,4478.461538,4202.051282,4436.410256,4184.102564,4222.051282,4496.923076,4197.948717,4632.820512,3986.666667,4003.076923
44,4379.487179,4517.435897,4512.820512,4270.256410,4478.461538,4197.948717,4425.641025,4176.923076,4218.974358,4488.717948,4190.769230,4631.794871,3982.051283,4005.128205
45,4381.538461,4511.794871,4517.435897,4267.179487,4476.923076,4194.871794,4425.128205,4172.307692,4221.025641,4491.794871,4190.256410,4631.794871,3972.820513,4008.205128
46,4391.282051,4516.410256,4525.641025,4263.589743,4474.358974,4192.820512,4427.692307,4180.512820,4230.256410,4504.615384,4196.410256,4636.923076,3975.897436,4017.948717
47,4401.025641,4523.076923,4522.564102,4266.153846,4472.307692,4189.230769,4425.641025,4180.000000,4233.333333,4510.256410,4197.948717,4644.102564,3981.538462,4018.974358
48,4408.717948,4529.230769,4524.102564,4272.307692,4471.794871,4189.743589,4426.666666,4175.897435,4230.256410,4504.615384,4198.974358,4647.179487,3988.717949,4022.564102
49,4415.897435,4536.410256,4538.974358,4280.000000,4481.025641,4196.923076,4434.358974,4185.641025,4233.846153,4507.179487,4204.615384,4652.820512,4003.589743,4037.948717
50,4416.410256,4541.025641,4545.128205,4283.076923,4494.358974,4202.564102,4435.384615,4192.307692,4237.435897,4515.384615,4213.846153,4657.948717,4008.717948,4043.589743
51,4412.820512,4542.051282,4534.871794,4281.538461,4492.307692,4200.512820,4426.153846,4184.615384,4231.794871,4510.769230,4215.897435,4649.743589,4000.512820,4035.384615
52,4402.051282,4535.384615,4520.512820,4281.538461,4475.384615,4191.282051,4414.358974,4172.820512,4216.410256,4494.358974,4200.512820,4630.256410,3986.666667,4019.487179
53,4388.205128,4530.256410,4511.794871,4282.051282,4473.333333,4188.205128,4408.205128,4164.102564,4206.666666,4490.256410,4180.000000,4617.948717,3976.410257,4002.564102
54,4389.743589,4531.794871,4507.179487,4282.051282,4489.743589,4197.948717,4413.846153,4164.615384,4211.282051,4502.564102,4182.564102,4615.384615,3976.923077,4001.538461
55,4394.358974,4533.333333,4505.128205,4280.000000,4499.487179,4203.076923,4423.589743,4169.230769,4214.871794,4500.000000,4196.410256,4613.846153,3975.384616,4004.615384
56,4388.717948,4529.743589,4506.153846,4278.974358,4489.230769,4196.410256,4425.128205,4173.846153,4216.410256,4488.205128,4197.435897,4615.384615,3973.846154,4001.538461
57,4386.153846,4530.769230,4511.282051,4282.564102,4477.948717,4196.410256,4424.615384,4185.641025,4228.205128,4501.025641,4199.487179,4621.538461,3986.666667,4005.641025
58,4385.128205,4527.692307,4512.307692,4283.589743,4486.153846,4202.051282,4433.333333,4197.435897,4242.051282,4517.948717,4207.179487,4624.102564,3994.871795,4010.769230
59,4377.948717,4516.410256,4508.205128,4281.025641,4489.743589,4203.076923,4445.128205,4201.538461,4243.589743,4510.769230,4207.692307,4620.000000,3985.128206,4005.641025
60,4373.333333,4511.282051,4501.025641,4278.974358,4472.307692,4202.564102,4454.358974,4204.102564,4243.589743,4510.769230,4205.641025,4614.358974,3981.538462,4004.102564
61,4373.333333,4515.897435,4496.410256,4276.923076,4465.641025,4204.102564,4458.461538,4206.666666,4245.641025,4519.487179,4210.769230,4614.358974,3990.769231,4009.743589
62,4376.923076,4521.538461,4506.153846,4277.435897,4480.000000,4210.769230,4461.025641,4208.205128,4249.743589,4516.923076,4220.000000,4624.615384,3997.948718,4015.384615
63,4380.000000,4521.538461,4517.948717,4284.615384,4481.538461,4217.435897,4458.461538,4209.230769,4248.717948,4512.820512,4224.615384,4633.846153,4001.025641,4018.974358
64,4376.410256,4521.025641,4518.974358,4292.307692,4474.358974,4214.358974,4448.717948,4202.564102,4237.435897,4511.794871,4220.000000,4632.820512,3998.974359,4020.512820
65,4371.794871,4525.128205,4520.000000,4294.871794,4476.923076,4204.615384,4443.076923,4191.282051,4229.230769,4509.230769,4218.461538,4634.358974,3991.794872,4022.051282
66,4369.230769,4521.538461,4524.102564,4292.820512,4473.846153,4203.076923,4442.051282,4187.692307,4226.666666,4503.076923,4221.538461,4637.435897,3988.205129,4020.000000
67,4368.205128,4518.461538,4528.205128,4292.307692,4480.000000,4212.820512,4449.743589,4196.923076,4231.794871,4504.615384,4222.564102,4642.051282,3998.974359,4020.512820
68,4372.307692,4522.564102,4534.358974,4295.897435,4496.410256,4221.025641,4458.461538,4208.717948,4243.589743,4515.897435,4225.641025,4652.820512,4008.717948,4029.230769
69,4373.846153,4525.641025,4535.384615,4294.358974,4492.820512,4217.435897,4454.871794,4206.666666,4250.256410,4525.641025,4234.358974,4658.461538,4003.589743,4036.923076
70,4372.307692,4523.076923,4532.820512,4290.769230,4486.153846,4214.871794,4441.538461,4202.051282,4250.769230,4524.615384,4237.948717,4654.871794,4002.051282,4041.538461
71,4375.384615,4522.564102,4531.282051,4292.307692,4493.333333,4215.384615,4434.871794,4200.512820,4249.230769,4523.589743,4235.897435,4652.820512,4010.769230,4042.564102
72,4374.358974,4522.564102,4531.794871,4294.871794,4495.897435,4210.256410,4435.897435,4190.769230,4243.076923,4527.692307,4233.846153,4654.871794,4010.256410,4037.435897
73,4369.743589,4527.179487,4531.794871,4295.897435,4491.794871,4211.282051,4440.000000,4187.692307,4235.384615,4514.871794,4231.794871,4653.333333,4001.025641,4034.871794
74,4374.358974,4536.410256,4534.358974,4295.897435,4492.820512,4214.358974,4447.179487,4195.897435,4236.923076,4502.051282,4231.794871,4652.820512,3995.384616,4037.948717
75,4374.871794,4532.820512,4534.358974,4296.410256,4490.256410,4206.666666,4445.128205,4194.871794,4235.384615,4505.128205,4226.153846,4650.769230,3992.820513,4031.794871
76,4365.641025,4520.512820,4528.717948,4290.769230,4489.230769,4205.641025,4442.564102,4187.179487,4230.256410,4507.179487,4217.948717,4649.230769,3988.717949,4022.051282
77,4367.179487,4521.538461,4529.743589,4281.025641,4492.820512,4215.897435,4445.641025,4190.256410,4231.794871,4500.512820,4221.025641,4652.307692,3987.692308,4027.179487
78,4373.846153,4525.128205,4533.333333,4278.461538,4482.564102,4210.769230,4436.923076,4188.205128,4226.153846,4494.358974,4220.000000,4652.307692,3992.307693,4037.435897
79,4370.256410,4519.487179,4532.820512,4286.666666,4469.743589,4196.410256,4426.153846,4178.974358,4212.307692,4488.717948,4210.769230,4647.692307,3993.333334,4038.974358
80,4372.307692,4524.102564,4531.794871,4296.923076,4486.666666,4204.615384,4435.897435,4179.487179,4215.897435,4489.743589,4216.923076,4648.717948,3996.410257,4040.512820
81,4380.512820,4538.974358,4539.487179,4303.076923,4513.846153,4219.487179,4447.692307,4187.179487,4232.820512,4511.794871,4235.897435,4655.897435,4007.179487,4048.205128
82,4380.000000,4541.538461,4543.589743,4301.025641,4504.102564,4209.743589,4439.487179,4186.153846,4236.410256,4522.564102,4235.384615,4655.897435,4008.717948,4047.179487
83,4377.948717,4537.948717,4533.333333,4296.923076,4490.256410,4200.000000,4433.333333,4178.461538,4229.230769,4510.769230,4226.666666,4652.307692,4003.589743,4040.512820
84,4378.974358,4535.897435,4529.743589,4292.307692,4503.076923,4210.769230,4438.461538,4178.461538,4229.743589,4509.743589,4228.205128,4652.820512,4002.564102,4042.564102
85,4372.307692,4527.692307,4532.307692,4284.615384,4501.025641,4213.846153,4435.384615,4184.615384,4232.307692,4512.820512,4222.564102,4647.179487,3994.358975,4040.512820
86,4368.717948,4520.512820,4530.769230,4285.128205,4486.666666,4207.179487,4431.794871,4186.153846,4231.794871,4501.025641,4209.230769,4638.974358,3985.641026,4029.743589
87,4372.820512,4520.000000,4527.179487,4288.205128,4496.410256,4212.307692,4436.410256,4183.076923,4229.230769,4495.384615,4208.205128,4640.000000,3989.743590,4029.230769
88,4373.846153,4523.589743,4533.333333,4282.564102,4513.333333,4220.000000,4442.564102,4187.692307,4233.846153,4507.692307,4218.974358,4648.717948,3994.871795,4038.974358
89,4375.897435,4532.307692,4542.051282,4278.461538,4503.076923,4216.410256,4450.769230,4197.948717,4243.076923,4513.846153,4226.153846,4654.358974,3994.871795,4043.589743
90,4376.410256,4533.846153,4538.974358,4276.410256,4480.000000,4209.743589,4452.820512,4195.897435,4234.871794,4503.589743,4217.948717,4651.282051,3992.820513,4041.538461
91,4372.307692,4523.589743,4532.307692,4266.666666,4473.333333,4204.615384,4444.615384,4184.615384,4221.538461,4490.769230,4206.666666,4644.615384,3990.256411,4035.384615
92,4367.692307,4513.846153,4532.820512,4260.512820,4479.487179,4201.538461,4438.974358,4180.000000,4222.564102,4484.615384,4205.641025,4641.538461,3991.794872,4031.794871
93,4362.564102,4507.179487,4533.846153,4264.102564,4484.615384,4203.076923,4436.923076,4182.051282,4226.153846,4492.820512,4209.230769,4639.487179,3991.282052,4031.794871
94,4358.974358,4502.051282,4527.179487,4263.076923,4489.230769,4208.717948,4429.230769,4181.538461,4226.153846,4504.615384,4208.717948,4634.871794,3986.153847,4027.179487
95,4363.589743,4509.743589,4525.128205,4262.564102,4496.410256,4211.794871,4430.256410,4184.102564,4232.307692,4510.769230,4211.794871,4636.410256,3986.153847,4024.615384
96,4374.871794,4524.102564,4536.410256,4270.256410,4498.974358,4210.769230,4440.512820,4187.179487,4236.923076,4511.282051,4218.974358,4647.692307,3994.871795,4033.846153
97,4385.641025,4532.307692,4541.538461,4279.487179,4502.564102,4210.256410,4440.000000,4184.615384,4233.846153,4507.179487,4222.564102,4654.358974,4001.025641,4045.128205
98,4390.256410,4538.461538,4540.000000,4283.076923,4509.743589,4212.820512,4433.333333,4185.128205,4233.333333,4501.538461,4217.948717,4651.794871,3997.435898,4047.692307
99,4385.641025,4541.538461,4537.948717,4281.538461,4510.769230,4209.743589,4430.256410,4185.128205,4232.307692,4494.871794,4207.179487,4646.153846,3986.153847,4037.948717
100,4377.435897,4536.410256,4533.846153,4277.435897,4505.641025,4206.153846,4428.717948,4176.923076,4220.512820,4481.538461,4198.461538,4638.974358,3973.333334,4025.641025
101,4369.230769,4525.641025,4525.641025,4268.717948,4493.333333,4205.128205,4425.641025,4167.692307,4206.666666,4461.538461,4187.179487,4630.256410,3962.564103,4017.435897
102,4365.128205,4517.948717,4520.000000,4261.025641,4482.564102,4201.538461,4425.128205,4163.589743,4201.538461,4449.230769,4177.948717,4625.128205,3962.564103,4013.333333
103,4372.820512,4520.000000,4524.615384,4264.102564,4491.794871,4205.128205,4429.743589,4166.666666,4205.641025,4457.948717,4191.282051,4632.307692,3976.923077,4020.512820
104,4381.025641,4529.230769,4534.871794,4268.717948,4500.000000,4211.282051,4430.256410,4168.717948,4207.692307,4469.743589,4210.769230,4645.128205,3983.589744,4034.871794
105,4388.205128,4535.897435,4538.974358,4273.333333,4497.435897,4207.692307,4428.205128,4166.666666,4204.102564,4471.794871,4208.717948,4649.230769,3982.564103,4041.025641
106,4397.435897,4540.000000,4535.897435,4280.000000,4504.102564,4202.051282,4434.358974,4172.820512,4209.230769,4476.410256,4203.076923,4648.205128,3994.358975,4038.461538
107,4397.948717,4542.564102,4530.256410,4279.487179,4508.205128,4202.564102,4438.974358,4180.512820,4225.128205,4487.692307,4213.846153,4646.666666,4003.589743,4037.435897
108,4388.205128,4534.871794,4523.076923,4269.743589,4493.333333,4204.615384,4432.307692,4176.923076,4234.871794,4502.051282,4223.076923,4643.076923,3995.897436,4034.871794
109,4382.051282,4527.179487,4520.512820,4261.538461,4486.666666,4201.538461,4427.692307,4173.333333,4231.794871,4508.717948,4217.948717,4640.000000,3990.256411,4028.717948
110,4382.564102,4530.256410,4528.717948,4263.076923,4500.000000,4201.025641,4430.769230,4183.589743,4230.769230,4509.230769,4214.358974,4644.102564,3995.384616,4028.205128
111,4382.051282,4529.230769,4534.358974,4266.153846,4511.794871,4205.641025,4431.282051,4186.666666,4236.923076,4511.282051,4219.487179,4648.717948,3996.410257,4030.256410
112,4379.487179,4521.025641,4528.717948,4259.487179,4500.512820,4203.589743,4425.641025,4176.410256,4232.820512,4504.615384,4214.358974,4638.461538,3988.205129,4027.179487
113,4376.923076,4517.948717,4518.974358,4250.256410,4475.384615,4190.769230,4417.948717,4165.128205,4213.846153,4484.615384,4194.871794,4620.000000,3973.846154,4018.974358
114,4380.512820,4524.615384,4517.435897,4253.846153,4474.871794,4189.743589,4418.461538,4158.974358,4203.076923,4472.307692,4188.205128,4616.923076,3971.282052,4017.948717
115,4390.769230,4533.846153,4524.615384,4263.589743,4498.974358,4200.512820,4428.205128,4164.102564,4209.230769,4475.897435,4197.435897,4629.230769,3981.538462,4026.153846
116,4395.897435,4538.461538,4531.794871,4266.153846,4511.794871,4203.589743,4430.769230,4167.179487,4211.282051,4476.923076,4200.000000,4633.846153,3984.102565,4031.282051
117,4400.000000,4538.974358,4540.000000,4265.128205,4505.128205,4202.564102,4427.179487,4168.717948,4211.282051,4480.512820,4197.948717,4637.948717,3982.051283,4029.230769
118,4398.974358,4536.410256,4537.948717,4261.538461,4491.282051,4205.128205,4431.282051,4180.000000,4216.410256,4488.717948,4202.051282,4645.641025,3984.615385,4024.102564
119,4391.794871,4528.717948,4526.153846,4254.358974,4485.128205,4208.717948,4440.000000,4187.179487,4223.076923,4491.282051,4203.589743,4642.564102,3985.641026,4024.102564
120,4389.230769,4523.076923,4523.076923,4251.794871,4489.743589,4210.769230,4444.615384,4185.641025,4235.384615,4496.923076,4202.564102,4636.923076,3983.589744,4027.179487
121,4395.384615,4523.076923,4530.769230,4255.897435,4494.871794,4211.282051,4443.589743,4187.692307,4245.641025,4508.717948,4207.179487,4642.564102,3983.589744,4029.743589
122,4406.666666,4526.153846,4537.948717,4262.564102,4502.051282,4212.307692,4437.948717,4191.794871,4245.128205,4513.846153,4220.000000,4650.769230,3988.717949,4037.435897
123,4415.897435,4536.410256,4543.076923,4271.282051,4509.743589,4216.410256,4432.820512,4188.205128,4240.000000,4511.794871,4228.205128,4653.846153,3997.948718,4044.615384
124,4410.256410,4540.000000,4533.846153,4265.128205,4497.948717,4208.717948,4425.128205,4175.897435,4229.743589,4505.128205,4215.384615,4645.641025,4000.000000,4036.923076
125,4394.871794,4526.153846,4515.384615,4250.256410,4485.128205,4197.435897,4420.512820,4164.615384,4213.333333,4494.358974,4194.871794,4629.743589,3986.666667,4025.128205
126,4390.256410,4521.538461,4512.820512,4246.666666,4490.769230,4202.051282,4425.641025,4165.641025,4206.153846,4485.641025,4189.743589,4622.051282,3975.384616,4020.512820
127,4389.230769,4522.564102,4517.435897,4248.205128,4489.230769,4204.102564,4435.384615,4169.230769,4209.743589,4480.000000,4189.743589,4623.589743,3970.769231,4012.307692
128,4385.641025,4511.282051,4522.051282,4245.641025,4487.179487,4199.487179,4441.538461,4165.641025,4208.717948,4466.666666,4180.512820,4628.205128,3963.076924,4004.615384
129,4391.282051,4505.641025,4529.230769,4246.666666,4496.923076,4204.102564,4442.051282,4171.282051,4204.615384,4456.923076,4181.538461,4635.384615,3955.897436,4014.871794
130,4401.538461,4514.871794,4532.307692,4250.256410,4495.897435,4213.846153,4443.076923,4185.128205,4209.230769,4466.666666,4193.333333,4644.102564,3962.051283,4026.666666
131,4404.615384,4518.974358,4529.743589,4248.717948,4486.153846,4214.871794,4443.589743,4183.076923,4212.820512,4476.923076,4190.769230,4646.153846,3972.820513,4024.615384
132,4408.717948,4521.025641,4530.256410,4246.666666,4501.025641,4215.384615,4445.641025,4172.820512,4205.128205,4468.717948,4187.179487,4643.076923,3974.358975,4023.076923
133,4414.871794,4526.666666,4528.717948,4248.717948,4509.743589,4217.435897,4447.692307,4171.794871,4199.487179,4456.923076,4195.897435,4638.974358,3975.384616,4028.205128
134,4408.205128,4518.974358,4518.461538,4247.692307,4482.051282,4205.641025,4439.487179,4167.692307,4199.487179,4454.358974,4192.307692,4631.282051,3974.871795,4022.051282
135,4400.512820,4510.769230,4516.410256,4245.128205,4471.794871,4195.384615,4429.230769,4167.692307,4201.025641,4457.948717,4180.512820,4630.769230,3973.846154,4016.410256
136,4407.692307,4520.000000,4524.615384,4246.153846,4491.282051,4200.512820,4428.205128,4181.538461,4210.769230,4469.230769,4190.769230,4643.076923,3977.948718,4022.564102
137,4414.871794,4527.179487,4529.743589,4249.230769,4494.871794,4202.051282,4428.205128,4188.205128,4225.641025,4490.256410,4208.717948,4650.769230,3979.487180,4023.589743
138,4412.820512,4522.051282,4524.615384,4248.717948,4495.384615,4195.897435,4426.153846,4185.128205,4237.948717,4512.820512,4211.794871,4643.076923,3986.153847,4021.025641
139,4411.282051,4528.717948,4518.974358,4247.692307,4511.282051,4205.128205,4428.205128,4186.153846,4244.615384,4527.692307,4208.717948,4639.487179,3997.435898,4028.205128
140,4413.846153,4538.461538,4519.487179,4255.384615,4516.410256,4220.000000,4431.282051,4188.205128,4243.589743,4523.076923,4206.153846,4638.974358,3995.384616,4032.820512
141,4412.820512,4532.820512,4518.974358,4259.487179,4506.153846,4215.384615,4430.256410,4182.051282,4235.897435,4506.153846,4198.461538,4629.743589,3978.974359,4022.051282
142,4410.769230,4523.076923,4514.358974,4251.282051,4489.743589,4201.025641,4426.666666,4171.282051,4222.564102,4492.307692,4184.102564,4622.564102,3964.615385,4006.666666
143,4409.743589,4523.076923,4514.358974,4245.641025,4478.461538,4196.923076,4424.102564,4169.230769,4212.307692,4487.179487,4173.846153,4629.230769,3962.051283,4008.717948
144,4417.435897,4526.666666,4526.153846,4251.282051,4492.307692,4201.025641,4430.769230,4183.589743,4220.512820,4493.846153,4180.512820,4646.153846,3976.410257,4027.179487
145,4429.230769,4526.153846,4538.974358,4254.871794,4507.692307,4203.589743,4441.025641,4201.025641,4237.948717,4507.179487,4190.769230,4656.410256,3992.820513,4043.076923
146,4430.769230,4524.102564,4541.025641,4252.820512,4500.000000,4203.589743,4445.128205,4203.076923,4245.641025,4511.794871,4187.179487,4657.435897,3995.384616,4047.692307
147,4427.692307,4523.076923,4535.384615,4251.794871,4485.128205,4202.564102,4440.000000,4193.846153,4238.974358,4497.948717,4182.051282,4653.333333,3993.846154,4043.076923
148,4429.230769,4524.615384,4532.820512,4250.256410,4484.615384,4207.692307,4438.461538,4186.666666,4230.769230,4491.794871,4181.025641,4649.230769,3992.820513,4036.923076
149,4425.128205,4525.128205,4533.846153,4250.256410,4491.282051,4213.333333,4443.076923,4187.179487,4232.820512,4505.641025,4175.384615,4643.589743,3992.820513,4034.358974
150,4412.820512,4520.000000,4528.717948,4250.256410,4493.333333,4208.717948,4438.974358,4187.179487,4236.923076,4512.820512,4170.256410,4637.435897,3991.794872,4027.179487
151,4413.846153,4516.410256,4523.589743,4249.743589,4495.384615,4203.076923,4428.717948,4183.076923,4238.974358,4508.205128,4173.333333,4640.512820,3988.717949,4020.000000
152,4425.641025,4524.102564,4527.179487,4250.256410,4508.717948,4203.589743,4429.230769,4185.641025,4240.512820,4516.923076,4187.179487,4649.743589,3995.897436,4026.666666
153,4425.641025,4534.871794,4527.692307,4250.256410,4513.333333,4203.589743,4431.794871,4187.692307,4236.923076,4527.179487,4196.923076,4653.846153,4006.666666,4037.435897
154,4419.487179,4529.743589,4522.051282,4250.256410,4497.948717,4201.538461,4422.564102,4178.974358,4229.230769,4513.333333,4185.128205,4646.666666,4003.076923,4037.948717
155,4416.923076,4521.025641,4517.948717,4249.230769,4495.384615,4198.974358,4418.461538,4171.282051,4224.102564,4495.897435,4170.256410,4637.948717,3991.282052,4031.794871
156,4415.897435,4522.051282,4514.871794,4248.717948,4510.256410,4200.000000,4422.564102,4173.333333,4218.974358,4486.666666,4169.743589,4632.307692,3983.589744,4023.589743
157,4414.871794,4527.179487,4512.307692,4249.230769,4501.538461,4201.538461,4417.435897,4170.256410,4216.410256,4479.487179,4158.974358,4626.153846,3977.435898,4014.871794
158,4407.692307,4523.076923,4508.205128,4246.153846,4470.769230,4190.256410,4408.717948,4155.384615,4210.769230,4476.410256,4140.000000,4618.461538,3963.589744,4005.128205
159,4403.076923,4515.897435,4506.666666,4243.076923,4471.282051,4182.051282,4408.717948,4147.179487,4200.512820,4475.384615,4142.564102,4615.384615,3953.846154,4000.512820
160,4415.384615,4526.666666,4515.897435,4248.205128,4504.102564,4195.897435,4416.410256,4153.846153,4200.000000,4477.435897,4155.384615,4624.615384,3956.410257,4007.179487
161,4421.025641,4536.410256,4519.487179,4252.307692,4515.384615,4204.102564,4416.410256,4157.435897,4202.564102,4469.743589,4150.256410,4630.256410,3956.410257,4013.333333
162,4411.282051,4523.589743,4516.923076,4248.717948,4502.564102,4195.897435,4412.307692,4157.948717,4198.974358,4457.435897,4145.128205,4628.205128,3954.871795,4013.333333
163,4417.435897,4519.487179,4522.564102,4250.256410,4502.564102,4195.897435,4418.461538,4165.641025,4201.538461,4467.179487,4155.897435,4631.282051,3967.692308,4022.564102
164,4433.333333,4533.846153,4527.692307,4258.461538,4508.205128,4202.051282,4430.256410,4171.794871,4214.871794,4491.282051,4169.743589,4640.000000,3984.615385,4033.333333
165,4431.794871,4534.871794,4522.564102,4259.487179,4501.025641,4202.564102,4431.794871,4170.256410,4223.076923,4495.897435,4175.384615,4641.538461,3985.128206,4029.743589
166,4416.923076,4517.948717,4514.871794,4251.794871,4487.179487,4196.410256,4420.000000,4166.153846,4216.923076,4484.102564,4168.717948,4629.743589,3969.743590,4015.897435
167,4401.538461,4504.102564,4504.102564,4244.615384,4477.435897,4183.589743,4411.794871,4162.564102,4205.641025,4478.461538,4158.461538,4613.333333,3956.923077,4003.589743
168,4393.333333,4502.051282,4499.487179,4246.153846,4481.538461,4185.641025,4414.871794,4162.564102,4210.769230,4482.564102,4156.923076,4611.282051,3960.000000,3999.487180
169,4396.923076,4505.128205,4509.230769,4257.948717,4497.948717,4201.025641,4424.102564,4170.256410,4226.153846,4489.743589,4163.076923,4623.076923,3969.743590,4001.538461
170,4405.128205,4513.333333,4515.384615,4267.179487,4513.333333,4204.615384,4429.230769,4182.051282,4234.871794,4498.974358,4175.897435,4631.794871,3978.974359,4012.820512
171,4406.153846,4517.435897,4513.333333,4264.615384,4506.153846,4198.461538,4428.717948,4184.615384,4231.794871,4505.128205,4188.205128,4633.846153,3986.153847,4026.153846
172,4398.974358,4510.256410,4513.846153,4263.076923,4483.589743,4197.948717,4426.666666,4172.820512,4222.051282,4495.897435,4189.743589,4633.846153,3984.615385,4024.615384
173,4397.948717,4509.743589,4520.512820,4274.871794,4487.179487,4200.512820,4428.205128,4172.820512,4221.538461,4484.615384,4194.358974,4637.948717,3987.179488,4024.615384
174,4406.153846,4520.512820,4526.666666,4280.000000,4508.205128,4203.589743,4433.846153,4185.641025,4227.179487,4490.769230,4200.000000,4643.076923,3992.307693,4034.871794
175,4403.589743,4521.538461,4526.153846,4269.743589,4502.564102,4203.589743,4432.820512,4180.000000,4220.000000,4492.307692,4188.717948,4639.487179,3982.051283,4029.230769
176,4395.897435,4515.384615,4523.589743,4266.666666,4484.102564,4199.487179,4427.179487,4166.153846,4209.743589,4483.589743,4175.384615,4632.820512,3971.282052,4017.948717
177,4402.051282,4521.025641,4528.717948,4277.435897,4492.307692,4200.512820,4427.179487,4168.717948,4214.871794,4487.179487,4185.128205,4638.461538,3978.974359,4029.743589
178,4413.846153,4531.282051,4538.461538,4290.256410,4505.128205,4204.615384,4431.282051,4178.461538,4223.076923,4493.846153,4204.615384,4648.205128,3991.794872,4047.692307
179,4414.871794,4534.358974,4543.076923,4293.333333,4504.615384,4204.102564,4431.794871,4182.564102,4225.641025,4497.948717,4216.923076,4652.820512,3996.923077,4051.282051
180,4410.256410,4531.794871,4540.512820,4287.692307,4507.179487,4203.076923,4431.282051,4187.692307,4233.333333,4508.717948,4220.512820,4651.282051,3999.487180,4049.230769
181,4401.538461,4525.128205,4532.307692,4281.025641,4505.641025,4202.564102,4430.256410,4185.641025,4233.333333,4509.743589,4210.769230,4642.564102,3996.923077,4042.564102
182,4391.282051,4519.487179,4523.589743,4276.923076,4498.461538,4202.051282,4428.205128,4176.923076,4224.615384,4499.487179,4203.076923,4634.871794,3995.384616,4037.948717
183,4385.128205,4512.307692,4517.435897,4270.256410,4492.820512,4204.102564,4427.179487,4172.307692,4218.461538,4493.333333,4201.025641,4628.717948,3992.307693,4033.333333
184,4379.487179,4505.128205,4511.794871,4263.076923,4485.128205,4200.512820,4425.641025,4168.717948,4215.897435,4491.794871,4189.743589,4622.051282,3978.461539,4021.025641
185,4378.974358,4509.743589,4511.282051,4264.102564,4492.307692,4197.435897,4425.128205,4164.102564,4214.871794,4491.282051,4181.538461,4619.487179,3972.820513,4018.974358
186,4385.128205,4521.538461,4515.897435,4272.820512,4518.461538,4209.230769,4428.717948,4167.179487,4216.410256,4493.333333,4189.230769,4623.076923,3984.615385,4029.743589
187,4390.256410,4526.153846,4520.000000,4281.538461,4520.512820,4216.923076,4433.333333,4173.846153,4217.948717,4489.230769,4194.358974,4628.717948,3990.256411,4032.820512
188,4389.230769,4524.102564,4518.461538,4281.025641,4494.871794,4205.641025,4430.769230,4172.307692,4214.358974,4483.589743,4187.179487,4629.230769,3977.948718,4028.717948
189,4384.615384,4522.564102,4517.435897,4276.923076,4490.769230,4195.384615,4426.666666,4169.230769,4209.230769,4482.564102,4182.564102,4627.179487,3969.743590,4027.179487
190,4380.512820,4518.461538,4520.000000,4276.410256,4501.025641,4201.025641,4426.153846,4168.205128,4206.153846,4475.897435,4184.102564,4629.230769,3971.794872,4026.153846
191,4379.487179,4514.358974,4517.435897,4274.871794,4493.846153,4201.538461,4419.487179,4161.025641,4202.564102,4473.333333,4185.128205,4629.230769,3969.743590,4024.615384
192,4378.461538,4514.358974,4513.333333,4270.256410,4485.128205,4188.205128,4410.769230,4152.820512,4201.025641,4484.615384,4179.487179,4622.051282,3968.205129,4024.615384
193,4382.564102,4515.897435,4513.846153,4272.307692,4496.410256,4186.666666,4412.820512,4155.384615,4206.153846,4491.794871,4184.102564,4622.564102,3974.358975,4028.205128
194,4395.897435,4526.666666,4526.666666,4286.153846,4511.282051,4200.000000,4424.615384,4167.179487,4217.435897,4495.897435,4210.256410,4641.538461,3991.282052,4040.512820
195,4404.102564,4537.435897,4536.410256,4293.333333,4507.179487,4201.538461,4427.692307,4172.820512,4222.051282,4507.179487,4221.025641,4651.282051,4001.025641,4051.794871
196,4397.948717,4530.769230,4529.743589,4283.589743,4495.897435,4191.794871,4421.025641,4169.230769,4215.384615,4510.769230,4201.538461,4639.487179,3992.307693,4046.666666
197,4395.384615,4522.051282,4521.538461,4277.948717,4502.564102,4193.846153,4420.512820,4174.871794,4217.948717,4502.051282,4194.358974,4632.820512,3988.717949,4037.435897
198,4397.435897,4526.666666,4526.153846,4283.076923,4515.897435,4205.128205,4428.205128,4186.153846,4228.717948,4503.076923,4203.076923,4642.564102,3999.487180,4040.000000
199,4390.769230,4527.692307,4528.717948,4284.102564,4511.282051,4210.256410,4434.871794,4185.128205,4231.794871,4511.282051,4202.051282,4643.589743,4000.512820,4042.564102
200,4386.153846,4521.025641,4521.025641,4276.923076,4504.102564,4207.692307,4434.358974,4182.051282,4230.256410,4512.820512,4200.512820,4634.358974,3991.794872,4037.435897
201,4387.692307,4517.435897,4516.923076,4269.230769,4504.615384,4204.102564,4430.256410,4184.615384,4231.282051,4508.717948,4204.102564,4632.820512,3994.358975,4034.358974
202,4385.128205,4516.410256,4516.923076,4263.076923,4500.512820,4201.025641,4426.153846,4184.102564,4230.769230,4507.692307,4200.512820,4636.923076,4001.538461,4034.871794
203,4383.076923,4519.487179,4518.461538,4262.564102,4493.333333,4202.564102,4426.666666,4183.076923,4231.794871,4517.948717,4200.512820,4639.487179,4002.564102,4034.871794
204,4390.256410,4522.051282,4525.128205,4264.102564,4489.743589,4207.692307,4429.230769,4186.153846,4236.410256,4521.025641,4204.102564,4640.512820,4000.512820,4037.435897
205,4392.820512,4512.307692,4524.102564,4263.076923,4490.769230,4207.179487,4432.307692,4187.692307,4230.256410,4506.153846,4196.410256,4636.923076,3993.846154,4035.897435
206,4388.205128,4504.615384,4517.948717,4260.512820,4502.051282,4207.179487,4437.435897,4186.666666,4224.102564,4504.615384,4192.820512,4635.897435,3987.692308,4030.769230
207,4393.846153,4514.358974,4525.128205,4263.076923,4509.230769,4210.769230,4438.461538,4186.153846,4228.717948,4518.974358,4200.000000,4642.564102,3990.256411,4035.897435
208,4401.025641,4526.153846,4533.846153,4271.282051,4496.410256,4209.230769,4433.846153,4184.102564,4227.692307,4515.897435,4196.923076,4645.641025,3993.846154,4040.512820
209,4401.025641,4529.743589,4526.153846,4276.923076,4489.743589,4199.487179,4426.666666,4181.538461,4221.025641,4503.076923,4189.230769,4641.025641,3992.820513,4039.487179
210,4405.641025,4536.923076,4526.666666,4278.461538,4504.615384,4199.487179,4429.230769,4181.538461,4228.205128,4507.179487,4196.410256,4641.025641,3998.974359,4046.666666
211,4415.897435,4544.615384,4544.102564,4285.128205,4515.384615,4212.307692,4438.974358,4187.692307,4237.948717,4517.435897,4211.794871,4649.743589,4009.230769,4058.461538
212,4417.948717,4540.000000,4547.179487,4288.717948,4510.769230,4214.358974,4437.435897,4192.820512,4232.307692,4518.461538,4213.333333,4653.333333,4007.179487,4057.435897
213,4415.384615,4538.974358,4536.923076,4284.102564,4510.256410,4209.743589,4435.384615,4191.794871,4231.794871,4523.076923,4211.794871,4651.794871,4004.102564,4051.794871
214,4415.384615,4543.076923,4535.384615,4282.051282,4512.820512,4210.769230,4442.051282,4192.307692,4245.641025,4530.256410,4215.897435,4651.282051,4012.820512,4054.871794
215,4401.538461,4530.256410,4529.743589,4273.846153,4495.897435,4209.230769,4433.846153,4186.153846,4238.974358,4523.589743,4210.256410,4641.538461,4005.128205,4046.153846
216,4385.128205,4512.820512,4510.256410,4258.974358,4471.282051,4198.974358,4417.948717,4171.282051,4218.974358,4507.179487,4198.974358,4625.641025,3981.538462,4023.589743
217,4391.282051,4515.897435,4506.153846,4259.487179,4477.435897,4196.410256,4422.051282,4169.743589,4220.000000,4505.641025,4198.974358,4624.102564,3984.615385,4022.564102
218,4399.487179,4524.615384,4515.897435,4265.128205,4497.948717,4203.589743,4430.769230,4176.923076,4229.230769,4510.256410,4197.435897,4629.230769,3998.461539,4037.948717
219,4387.179487,4521.538461,4513.846153,4251.794871,4494.358974,4201.025641,4427.692307,4171.794871,4220.512820,4503.589743,4182.564102,4621.538461,3985.128206,4031.282051
220,4376.923076,4515.897435,4504.615384,4243.589743,4486.666666,4197.948717,4425.641025,4167.692307,4214.358974,4495.897435,4180.512820,4617.435897,3973.333334,4014.358974
221,4381.025641,4512.820512,4505.128205,4252.820512,4491.794871,4201.538461,4425.641025,4172.820512,4220.000000,4503.589743,4190.769230,4625.128205,3980.000000,4015.384615
222,4380.512820,4506.666666,4507.692307,4251.794871,4490.769230,4201.025641,4425.128205,4170.256410,4216.923076,4507.692307,4188.205128,4625.128205,3973.333334,4018.461538
223,4382.564102,4506.666666,4506.153846,4247.179487,4493.846153,4201.025641,4426.666666,4167.692307,4212.820512,4496.410256,4184.102564,4622.051282,3966.666667,4019.487179
224,4390.256410,4514.358974,4507.692307,4252.820512,4492.820512,4202.051282,4427.179487,4170.769230,4216.923076,4497.435897,4186.153846,4626.666666,3981.538462,4026.153846
225,4390.769230,4518.974358,4512.820512,4250.769230,4476.410256,4199.487179,4426.153846,4167.179487,4215.897435,4502.564102,4185.128205,4630.256410,3984.102565,4024.615384
226,4391.794871,4521.538461,4513.846153,4248.717948,4477.948717,4197.435897,4427.179487,4168.205128,4215.384615,4497.435897,4185.128205,4628.205128,3975.897436,4020.512820
227,4394.871794,4523.589743,4511.794871,4256.410256,4496.410256,4201.025641,4429.230769,4178.461538,4220.512820,4499.487179,4189.743589,4627.692307,3978.974359,4023.076923
228,4394.871794,4521.538461,4514.358974,4257.948717,4496.923076,4202.564102,4429.230769,4180.512820,4223.589743,4508.717948,4188.717948,4627.692307,3981.025642,4023.589743
229,4395.897435,4520.512820,4517.948717,4249.743589,4487.692307,4198.974358,4427.179487,4173.333333,4220.000000,4503.589743,4185.641025,4626.666666,3977.435898,4023.589743
230,4394.871794,4523.076923,4515.897435,4247.692307,4487.692307,4198.461538,4424.615384,4171.794871,4217.948717,4497.948717,4187.692307,4629.230769,3979.487180,4029.230769
231,4389.743589,4522.564102,4515.384615,4251.794871,4495.384615,4201.538461,4424.615384,4171.282051,4217.435897,4507.692307,4185.128205,4630.256410,3978.461539,4027.692307
232,4394.358974,4522.051282,4518.461538,4252.820512,4505.641025,4204.102564,4427.692307,4170.769230,4216.923076,4507.692307,4183.589743,4627.692307,3971.794872,4021.025641
233,4398.461538,4520.512820,4518.974358,4249.743589,4499.487179,4203.076923,4428.717948,4170.769230,4217.948717,4495.897435,4183.589743,4624.102564,3973.846154,4020.512820
234,4389.743589,4511.794871,4513.846153,4249.230769,4475.897435,4199.487179,4425.641025,4170.256410,4215.897435,4489.743589,4177.435897,4620.512820,3976.923077,4018.974358
235,4389.743589,4512.820512,4513.846153,4260.000000,4475.384615,4200.512820,4426.153846,4175.384615,4215.384615,4496.923076,4177.948717,4625.641025,3974.871795,4019.487179
236,4399.487179,4526.153846,4520.000000,4265.128205,4500.000000,4204.102564,4428.717948,4177.948717,4220.512820,4502.564102,4182.051282,4633.333333,3978.974359,4025.128205
237,4399.487179,4528.205128,4517.435897,4252.820512,4511.282051,4202.564102,4423.076923,4168.717948,4218.461538,4490.769230,4177.948717,4625.641025,3976.923077,4027.179487
238,4394.871794,4520.512820,4511.282051,4244.615384,4498.461538,4199.487179,4417.948717,4164.102564,4213.846153,4489.743589,4177.435897,4619.487179,3969.743590,4022.564102
239,4395.897435,4522.564102,4512.820512,4251.794871,4491.794871,4202.051282,4424.102564,4172.307692,4218.461538,4505.641025,4186.153846,4628.717948,3980.000000,4022.051282
240,4401.025641,4525.641025,4514.871794,4257.435897,4493.333333,4204.102564,4429.230769,4174.871794,4220.000000,4504.615384,4186.666666,4630.769230,3991.282052,4022.051282
241,4400.000000,4519.487179,4512.307692,4250.769230,4477.948717,4197.948717,4425.128205,4170.256410,4214.871794,4491.282051,4179.487179,4621.538461,3979.487180,4010.256410
242,4396.923076,4522.051282,4514.358974,4250.256410,4474.358974,4199.487179,4425.128205,4175.897435,4218.974358,4498.461538,4187.179487,4626.666666,3973.846154,3998.974359
243,4403.589743,4531.282051,4520.000000,4257.948717,4501.538461,4210.256410,4433.333333,4184.615384,4229.743589,4511.794871,4201.025641,4638.974358,3990.256411,4002.564102
244,4410.256410,4529.230769,4520.000000,4256.410256,4518.461538,4209.743589,4434.871794,4185.641025,4233.333333,4508.717948,4200.000000,4637.948717,4001.025641,4010.256410
245,4403.076923,4523.076923,4517.435897,4248.205128,4505.128205,4202.051282,4429.230769,4183.589743,4229.743589,4507.692307,4188.717948,4628.717948,3989.230770,4003.076923
246,4395.897435,4520.000000,4511.794871,4247.692307,4487.179487,4200.000000,4426.153846,4177.948717,4223.076923,4507.692307,4183.076923,4620.000000,3968.205129,3990.256411
247,4394.358974,4515.384615,4505.128205,4248.717948,4485.128205,4200.512820,4425.641025,4172.307692,4217.948717,4497.948717,4181.025641,4614.358974,3961.538462,3986.153847
248,4393.333333,4515.897435,4507.179487,4244.615384,4494.358974,4201.025641,4426.153846,4174.358974,4214.871794,4488.717948,4177.435897,4613.846153,3973.333334,3986.153847
249,4401.538461,4523.589743,4515.897435,4246.666666,4502.051282,4205.128205,4429.230769,4181.538461,4221.025641,4495.897435,4184.102564,4622.051282,3984.615385,3990.256411
250,4411.282051,4524.102564,4518.974358,4253.333333,4489.743589,4204.615384,4429.230769,4183.589743,4232.820512,4509.743589,4193.846153,4633.333333,3987.692308,3997.948718
251,4408.717948,4521.025641,4515.384615,4253.846153,4474.871794,4200.512820,4426.153846,4180.512820,4230.256410,4512.820512,4191.794871,4634.358974,3987.179488,4005.128205
252,4406.153846,4522.051282,4515.384615,4250.256410,4489.743589,4203.589743,4427.692307,4178.461538,4222.564102,4511.282051,4186.666666,4628.205128,3982.564103,4001.538461
253,4403.589743,4521.025641,4512.307692,4245.641025,4506.153846,4203.076923,4427.179487,4177.948717,4222.051282,4506.153846,4182.564102,4621.025641,3974.358975,3988.717949
254,4399.487179,4519.487179,4504.615384,4244.102564,4497.435897,4200.000000,4426.153846,4180.512820,4220.512820,4495.384615,4181.538461,4621.025641,3969.743590,3985.641026
255,4404.615384,4521.538461,4509.743589,4246.666666,4495.384615,4205.641025,4431.794871,4184.615384,4224.615384,4497.435897,4188.205128,4630.256410,3975.384616,3998.461539
