,AF3,F7,F3,FC5,T7,P7,O1,O2,P8,T8,FC6,F4,F8,AF4
0,4386.666666,4527.179487,4495.384615,4267.692307,4466.666666,4172.307692,4428.205128,4194.358974,4211.794871,4493.846153,4202.564102,4658.974358,3957.435898,4069.230769
1,4383.076923,4521.025641,4490.256410,4260.512820,4439.487179,4165.128205,4417.948717,4196.923076,4211.794871,4483.076923,4208.205128,4650.769230,3951.282052,4063.076923
2,4377.435897,4525.128205,4490.769230,4256.410256,4439.487179,4163.589743,4418.974358,4194.871794,4207.692307,4473.333333,4200.512820,4651.794871,3955.384616,4061.025641
3,4383.076923,4531.282051,4504.615384,4258.461538,4472.820512,4172.307692,4428.205128,4198.461538,4211.282051,4473.846153,4202.564102,4665.641025,3967.692308,4074.871794
4,4390.256410,4527.692307,4507.179487,4263.589743,4480.512820,4175.897435,4429.743589,4198.974358,4212.820512,4486.153846,4211.794871,4670.256410,3974.358975,4081.025641
5,4385.641025,4525.641025,4493.333333,4262.564102,4458.461538,4169.230769,4427.179487,4191.282051,4206.153846,4491.794871,4204.102564,4663.076923,3968.205129,4072.307692
6,4381.538461,4527.179487,4490.769230,4260.000000,4447.179487,4168.205128,4424.102564,4193.846153,4203.589743,4477.948717,4194.358974,4655.897435,3964.102565,4066.666666
7,4385.128205,4523.589743,4504.102564,4261.025641,4447.692307,4171.794871,4421.538461,4202.564102,4208.717948,4464.102564,4204.615384,4656.410256,3964.615385,4066.153846
8,4385.641025,4526.666666,4508.205128,4263.589743,4445.128205,4170.256410,4421.025641,4200.512820,4212.307692,4467.692307,4210.769230,4657.948717,3965.128206,4071.282051
9,4378.461538,4537.948717,4503.076923,4264.615384,4449.230769,4168.717948,4424.615384,4194.358974,4209.230769,4482.564102,4195.384615,4651.282051,3973.333334,4075.384615
10,4378.461538,4542.564102,4506.153846,4265.128205,4477.948717,4176.410256,4428.717948,4194.358974,4210.769230,4493.333333,4192.820512,4650.256410,3978.461539,4069.743589
11,4387.179487,4535.897435,4509.230769,4265.128205,4496.410256,4182.051282,4425.128205,4193.333333,4211.794871,4492.307692,4208.205128,4660.512820,3968.717949,4067.692307
12,4388.717948,4534.871794,4507.692307,4265.641025,4467.692307,4173.846153,4414.871794,4190.256410,4205.128205,4480.000000,4209.743589,4664.102564,3962.564103,4075.897435
13,4381.538461,4534.871794,4506.666666,4263.076923,4441.025641,4164.102564,4409.230769,4185.641025,4201.025641,4470.769230,4193.846153,4658.974358,3970.256411,4075.384615
14,4377.948717,4530.256410,4508.205128,4261.025641,4456.410256,4166.666666,4411.794871,4184.615384,4205.128205,4476.410256,4189.743589,4654.871794,3975.384616,4071.282051
15,4374.871794,4529.230769,4508.717948,4262.564102,4471.282051,4172.307692,4419.487179,4192.307692,4210.769230,4484.102564,4196.410256,4652.820512,3969.743590,4069.743589
16,4375.384615,4537.435897,4508.205128,4263.589743,4467.179487,4174.871794,4426.153846,4198.461538,4213.846153,4486.153846,4200.000000,4656.923076,3965.128206,4067.179487
17,4382.564102,4541.538461,4507.692307,4262.051282,4465.128205,4173.846153,4422.564102,4195.384615,4212.820512,4486.153846,4201.538461,4660.512820,3969.743590,4070.769230
18,4381.538461,4535.384615,4506.666666,4261.538461,4456.923076,4167.179487,4412.307692,4188.205128,4206.153846,4475.897435,4198.461538,4655.897435,3972.307693,4073.333333
19,4378.461538,4535.897435,4510.256410,4262.051282,4442.564102,4164.615384,4410.256410,4184.615384,4203.589743,4460.000000,4195.897435,4656.923076,3971.282052,4070.769230
20,4385.128205,4541.025641,4520.512820,4265.641025,4441.538461,4167.179487,4413.333333,4190.769230,4208.205128,4467.692307,4203.589743,4668.717948,3973.846154,4073.846153
21,4385.128205,4533.333333,4524.102564,4264.102564,4451.794871,4167.179487,4413.333333,4196.923076,4212.307692,4489.230769,4211.282051,4669.743589,3975.897436,4076.410256
22,4376.923076,4527.692307,4514.871794,4256.410256,4465.641025,4168.717948,4414.358974,4193.846153,4211.794871,4490.256410,4201.538461,4658.974358,3975.384616,4070.256410
23,4372.820512,4525.128205,4504.615384,4254.358974,4461.025641,4171.282051,4411.794871,4187.692307,4203.589743,4477.435897,4187.179487,4648.717948,3963.589744,4064.102564
24,4367.692307,4515.897435,4501.538461,4251.282051,4438.974358,4165.128205,4404.615384,4178.974358,4191.282051,4457.948717,4180.000000,4640.512820,3943.076924,4054.871794
25,4365.641025,4515.897435,4504.615384,4249.230769,4447.179487,4162.564102,4403.589743,4172.820512,4188.717948,4443.589743,4174.871794,4640.512820,3942.051283,4049.743589
26,4372.820512,4527.179487,4507.692307,4256.410256,4462.564102,4168.717948,4409.230769,4177.948717,4195.384615,4458.974358,4180.000000,4651.794871,3959.487180,4056.923076
27,4374.871794,4530.769230,4506.153846,4259.487179,4449.230769,4170.256410,4411.794871,4185.128205,4200.512820,4482.051282,4191.794871,4658.461538,3965.641026,4062.564102
28,4375.897435,4531.794871,4513.333333,4259.487179,4453.846153,4170.256410,4410.769230,4188.717948,4203.589743,4482.564102,4197.948717,4660.512820,3966.153847,4065.641025
29,4386.153846,4539.487179,4523.076923,4264.102564,4476.410256,4172.820512,4412.307692,4193.846153,4209.230769,4474.871794,4201.538461,4669.230769,3969.743590,4073.333333
30,4388.717948,4543.076923,4517.435897,4265.641025,4461.025641,4174.358974,4414.358974,4198.974358,4210.256410,4471.794871,4206.153846,4670.256410,3967.179488,4070.769230
31,4378.461538,4533.846153,4506.153846,4264.102564,4437.948717,4173.333333,4414.358974,4194.871794,4206.153846,4468.717948,4196.923076,4654.871794,3963.589744,4061.538461
32,4374.871794,4525.128205,4506.666666,4261.538461,4462.051282,4174.358974,4416.410256,4191.794871,4206.153846,4477.948717,4186.666666,4646.153846,3966.153847,4062.051282
33,4380.512820,4528.205128,4510.256410,4253.846153,4485.128205,4181.025641,4419.487179,4191.282051,4211.282051,4495.897435,4193.846153,4654.358974,3968.205129,4064.615384
34,4380.512820,4535.384615,4506.666666,4251.794871,4462.564102,4178.461538,4415.384615,4187.179487,4210.256410,4490.256410,4196.923076,4658.974358,3965.641026,4061.025641
35,4375.897435,4540.000000,4507.179487,4262.051282,4442.051282,4173.333333,4410.769230,4187.179487,4209.743589,4473.846153,4193.846153,4658.461538,3966.153847,4062.564102
36,4383.589743,4546.666666,4518.974358,4275.384615,4464.615384,4181.025641,4420.000000,4194.871794,4213.846153,4476.923076,4203.076923,4666.666666,3972.820513,4071.794871
37,4394.871794,4552.307692,4525.128205,4281.025641,4490.769230,4189.743589,4429.230769,4197.948717,4213.333333,4485.641025,4214.871794,4673.846153,3974.871795,4078.974358
38,4391.282051,4549.743589,4514.871794,4276.410256,4483.076923,4186.666666,4423.589743,4186.666666,4206.666666,4480.000000,4207.179487,4666.153846,3966.666667,4073.846153
39,4379.487179,4545.128205,4504.102564,4267.692307,4466.666666,4180.512820,4415.897435,4180.000000,4204.102564,4473.846153,4188.717948,4653.846153,3961.538462,4061.025641
40,4376.923076,4542.051282,4505.641025,4264.615384,4456.923076,4177.948717,4414.871794,4186.666666,4206.153846,4469.230769,4184.102564,4650.256410,3965.128206,4055.384615
41,4375.384615,4537.435897,4508.717948,4265.641025,4449.743589,4172.307692,4411.282051,4184.615384,4199.487179,4457.948717,4192.307692,4650.256410,3964.102565,4061.025641
42,4372.307692,4537.948717,4505.641025,4265.641025,4457.435897,4173.846153,4408.205128,4180.000000,4199.487179,4470.769230,4200.000000,4656.410256,3965.641026,4069.743589
43,4382.564102,4541.538461,4507.692307,4272.820512,4471.282051,4179.487179,4415.897435,4190.256410,4217.948717,4504.615384,4208.205128,4670.769230,3978.461539,4073.333333
44,4394.358974,4540.512820,4516.923076,4273.333333,4475.897435,4185.641025,4426.666666,4202.051282,4226.666666,4505.128205,4213.846153,4680.512820,3983.589744,4073.333333
45,4387.692307,4534.871794,4516.410256,4260.000000,4463.589743,4184.615384,4424.615384,4196.923076,4214.871794,4484.615384,4208.717948,4675.897435,3969.743590,4071.282051
46,4370.256410,4531.282051,4503.589743,4249.743589,4436.923076,4172.307692,4411.794871,4184.102564,4203.589743,4473.846153,4192.820512,4662.051282,3954.358975,4062.564102
47,4367.179487,4536.923076,4501.538461,4256.923076,4437.435897,4167.179487,4410.256410,4182.051282,4202.564102,4457.948717,4185.128205,4654.871794,3957.948718,4055.897435
48,4374.871794,4539.487179,4508.717948,4268.205128,4472.820512,4176.923076,4415.897435,4189.743589,4206.666666,4454.358974,4193.846153,4660.000000,3969.743590,4062.051282
49,4378.461538,4535.897435,4508.717948,4270.256410,4492.820512,4184.615384,4413.846153,4194.871794,4212.307692,4482.051282,4204.102564,4667.179487,3967.179488,4071.794871
50,4381.538461,4540.000000,4506.666666,4269.230769,4476.410256,4182.051282,4412.820512,4190.256410,4211.794871,4498.974358,4199.487179,4665.641025,3962.564103,4071.794871
51,4384.615384,4543.076923,4506.153846,4266.153846,4456.410256,4174.358974,4410.769230,4184.102564,4201.538461,4486.153846,4194.358974,4662.564102,3967.692308,4065.641025
52,4381.538461,4536.410256,4505.128205,4263.076923,4455.897435,4167.179487,4405.128205,4183.076923,4197.948717,4477.435897,4197.948717,4662.051282,3967.692308,4062.051282
53,4380.000000,4536.923076,4506.153846,4262.564102,4460.512820,4168.205128,4405.128205,4185.641025,4202.564102,4474.358974,4195.897435,4662.051282,3962.564103,4062.564102
54,4383.076923,4545.641025,4507.179487,4266.153846,4460.512820,4176.923076,4411.282051,4192.820512,4207.692307,4472.307692,4193.846153,4665.641025,3967.179488,4068.717948
55,4381.025641,4543.076923,4508.717948,4268.205128,4460.000000,4182.564102,4417.948717,4201.538461,4216.410256,4481.538461,4202.564102,4668.717948,3977.435898,4076.923076
56,4376.410256,4539.487179,4508.717948,4266.666666,4461.538461,4185.128205,4424.615384,4201.025641,4217.948717,4480.000000,4204.102564,4664.615384,3974.871795,4073.333333
57,4376.923076,4540.512820,4505.641025,4260.512820,4453.846153,4182.051282,4427.692307,4198.461538,4210.256410,4469.230769,4196.923076,4661.025641,3971.282052,4060.512820
58,4376.923076,4531.794871,4502.564102,4254.871794,4444.615384,4176.410256,4426.666666,4201.025641,4209.743589,4474.358974,4197.435897,4661.025641,3968.205129,4056.923076
59,4370.769230,4521.025641,4503.076923,4256.410256,4452.820512,4178.461538,4427.692307,4201.538461,4214.358974,4484.615384,4198.461538,4662.564102,3958.461539,4060.000000
60,4365.641025,4518.974358,4502.051282,4257.948717,4464.102564,4185.128205,4430.256410,4201.538461,4210.769230,4478.461538,4191.794871,4663.589743,3952.820513,4057.948717
61,4368.717948,4523.076923,4503.589743,4255.897435,4461.538461,4185.128205,4429.230769,4202.051282,4209.230769,4471.282051,4192.307692,4663.076923,3955.384616,4058.974358
62,4368.717948,4527.692307,4505.128205,4259.487179,4453.333333,4181.538461,4429.230769,4202.564102,4213.333333,4475.384615,4193.333333,4660.000000,3957.435898,4059.487179
63,4362.564102,4529.230769,4496.923076,4266.153846,4448.717948,4183.076923,4427.692307,4201.025641,4210.256410,4477.948717,4185.641025,4656.923076,3951.794872,4053.333333
64,4366.666666,4531.282051,4493.846153,4263.076923,4448.205128,4182.564102,4425.641025,4198.974358,4206.153846,4467.692307,4186.153846,4656.410256,3947.692308,4049.743589
65,4376.923076,4536.923076,4504.615384,4260.000000,4461.538461,4183.076923,4427.692307,4200.000000,4206.666666,4456.410256,4193.333333,4661.538461,3955.897436,4053.846153
66,4377.435897,4539.487179,4509.743589,4269.230769,4480.512820,4187.692307,4430.256410,4202.564102,4207.692307,4471.282051,4190.256410,4667.179487,3965.641026,4063.589743
67,4373.846153,4534.871794,4506.153846,4277.948717,4472.307692,4184.102564,4425.128205,4200.512820,4210.256410,4489.743589,4189.743589,4667.692307,3961.538462,4067.692307
68,4381.025641,4537.948717,4508.205128,4277.435897,4456.410256,4177.435897,4421.538461,4200.000000,4216.410256,4485.128205,4202.051282,4671.794871,3957.435898,4067.179487
69,4383.076923,4536.410256,4509.230769,4264.615384,4456.923076,4180.000000,4426.666666,4207.179487,4219.487179,4478.974358,4203.076923,4676.923076,3965.128206,4067.692307
70,4371.282051,4524.615384,4504.615384,4257.435897,4451.794871,4180.000000,4426.153846,4208.205128,4214.358974,4480.000000,4193.846153,4672.820512,3965.128206,4063.076923
71,4368.717948,4527.179487,4504.102564,4267.179487,4443.076923,4172.307692,4416.923076,4199.487179,4208.717948,4475.897435,4194.358974,4665.641025,3961.538462,4059.487179
72,4380.000000,4539.487179,4504.102564,4271.282051,4457.948717,4175.384615,4413.846153,4195.897435,4206.666666,4471.282051,4197.435897,4665.128205,3964.615385,4068.205128
73,4384.102564,4539.487179,4505.128205,4267.179487,4481.025641,4185.641025,4422.564102,4199.487179,4210.769230,4475.384615,4202.051282,4671.282051,3967.692308,4076.410256
74,4381.025641,4535.384615,4509.743589,4267.179487,4478.974358,4184.615384,4426.666666,4205.128205,4213.846153,4474.358974,4208.205128,4676.923076,3963.076924,4073.333333
75,4376.410256,4533.333333,4505.128205,4265.128205,4456.410256,4175.384615,4418.461538,4201.538461,4209.230769,4469.743589,4205.641025,4670.769230,3953.846154,4068.205128
76,4365.128205,4522.564102,4491.282051,4259.487179,4438.461538,4169.230769,4409.230769,4190.769230,4198.461538,4470.256410,4188.205128,4658.461538,3947.179488,4058.461538
77,4358.974358,4522.051282,4492.307692,4261.025641,4444.102564,4169.230769,4410.256410,4189.743589,4196.410256,4474.358974,4178.974358,4655.384615,3950.769231,4050.769230
78,4366.666666,4536.923076,4503.589743,4266.666666,4458.461538,4168.717948,4413.333333,4195.384615,4204.615384,4469.743589,4185.128205,4658.461538,3958.974359,4058.974358
79,4373.846153,4540.512820,4506.153846,4267.692307,4462.564102,4170.256410,4411.282051,4196.923076,4203.589743,4450.769230,4188.205128,4660.000000,3958.461539,4065.128205
80,4371.794871,4533.846153,4502.564102,4268.717948,4465.641025,4177.435897,4412.820512,4196.410256,4198.974358,4453.846153,4184.615384,4658.974358,3950.769231,4057.435897
81,4364.102564,4528.717948,4494.871794,4264.102564,4461.538461,4178.461538,4417.435897,4191.794871,4201.025641,4470.256410,4178.974358,4652.820512,3938.461539,4048.205128
82,4358.461538,4521.025641,4489.230769,4257.948717,4437.435897,4169.230769,4415.897435,4185.128205,4197.435897,4462.564102,4172.307692,4646.153846,3928.717949,4040.000000
83,4362.051282,4516.923076,4497.435897,4261.538461,4436.410256,4168.717948,4418.461538,4192.820512,4196.410256,4452.307692,4178.974358,4652.307692,3934.871795,4044.102564
84,4371.794871,4529.743589,4509.743589,4266.666666,4466.666666,4181.025641,4426.153846,4207.179487,4209.743589,4462.051282,4194.871794,4665.128205,3950.769231,4063.076923
85,4371.282051,4533.846153,4504.102564,4262.051282,4456.923076,4179.487179,4418.974358,4200.512820,4212.307692,4465.128205,4190.256410,4661.538461,3948.205129,4063.076923
86,4362.051282,4524.615384,4490.256410,4256.923076,4428.717948,4167.692307,4406.153846,4185.641025,4198.461538,4455.897435,4175.897435,4646.666666,3932.307693,4043.589743
87,4363.589743,4525.128205,4489.743589,4264.102564,4448.205128,4170.256410,4416.410256,4187.179487,4199.487179,4465.128205,4184.102564,4648.717948,3939.487180,4047.179487
88,4367.692307,4527.179487,4495.897435,4263.589743,4465.641025,4176.923076,4426.666666,4195.384615,4207.692307,4475.384615,4192.307692,4654.871794,3955.897436,4056.923076
89,4361.025641,4523.589743,4489.230769,4253.333333,4450.769230,4170.769230,4415.384615,4189.743589,4203.076923,4468.205128,4181.025641,4647.179487,3950.769231,4044.102564
90,4353.333333,4526.666666,4481.025641,4251.794871,4450.769230,4167.179487,4408.205128,4182.564102,4195.897435,4454.358974,4176.410256,4642.564102,3934.358975,4034.871794
91,4351.794871,4527.692307,4486.666666,4254.358974,4456.923076,4171.794871,4411.794871,4185.128205,4191.282051,4441.538461,4186.153846,4645.641025,3931.282052,4042.051282
92,4354.358974,4517.435897,4492.307692,4257.948717,4444.102564,4169.230769,4411.282051,4187.692307,4192.307692,4453.333333,4185.128205,4644.615384,3943.589744,4046.153846
93,4363.589743,4520.512820,4490.256410,4261.538461,4438.974358,4166.666666,4409.743589,4188.205128,4200.000000,4476.923076,4180.000000,4646.666666,3957.435898,4049.743589
94,4366.666666,4529.230769,4489.230769,4260.000000,4443.589743,4168.717948,4411.282051,4187.179487,4200.000000,4475.897435,4181.538461,4649.743589,3952.307693,4049.743589
95,4357.948717,4523.076923,4488.205128,4257.948717,4443.076923,4167.692307,4409.230769,4182.051282,4191.794871,4456.923076,4182.564102,4645.641025,3935.897436,4041.025641
96,4358.461538,4519.487179,4487.179487,4264.102564,4444.102564,4165.641025,4404.615384,4183.076923,4192.820512,4448.205128,4184.615384,4646.153846,3938.974359,4043.076923
97,4365.128205,4523.589743,4490.256410,4266.666666,4452.307692,4166.153846,4403.589743,4188.717948,4201.025641,4453.333333,4190.256410,4650.769230,3951.282052,4053.846153
98,4363.076923,4523.076923,4490.769230,4261.025641,4454.871794,4167.179487,4402.051282,4188.205128,4202.051282,4467.179487,4189.230769,4648.205128,3951.794872,4052.820512
99,4364.102564,4525.128205,4489.230769,4260.512820,4443.589743,4167.179487,4404.615384,4187.179487,4201.025641,4485.128205,4188.205128,4649.743589,3949.743590,4050.256410
100,4371.282051,4531.282051,4492.820512,4264.102564,4438.974358,4168.205128,4408.205128,4190.769230,4203.589743,4479.487179,4193.333333,4656.923076,3954.871795,4053.846153
101,4369.743589,4530.256410,4494.358974,4264.615384,4442.051282,4170.769230,4409.230769,4192.307692,4206.153846,4464.102564,4194.358974,4657.948717,3958.461539,4054.871794
102,4366.153846,4523.076923,4492.307692,4260.512820,4433.333333,4169.230769,4406.666666,4193.846153,4208.717948,4471.794871,4192.820512,4658.461538,3958.461539,4055.897435
103,4372.307692,4519.487179,4498.461538,4259.487179,4442.564102,4168.717948,4412.820512,4201.025641,4214.358974,4485.641025,4200.512820,4664.102564,3963.076924,4062.564102
104,4381.538461,4523.589743,4509.230769,4268.205128,4469.230769,4178.461538,4426.666666,4205.641025,4220.512820,4492.820512,4208.205128,4670.256410,3971.282052,4070.769230
105,4380.000000,4532.820512,4510.769230,4272.820512,4464.102564,4187.179487,4428.717948,4203.076923,4216.923076,4503.589743,4200.512820,4670.769230,3969.743590,4071.794871
106,4372.307692,4540.000000,4509.743589,4268.717948,4449.743589,4183.076923,4425.641025,4201.538461,4208.717948,4502.051282,4195.384615,4669.230769,3962.051283,4066.666666
107,4371.794871,4538.974358,4510.769230,4270.256410,4449.743589,4176.923076,4426.666666,4203.076923,4206.666666,4475.897435,4200.000000,4665.641025,3964.615385,4061.025641
108,4374.358974,4534.871794,4509.230769,4272.307692,4432.307692,4171.794871,4422.051282,4200.512820,4207.692307,4463.076923,4193.846153,4663.076923,3966.153847,4057.948717
109,4372.820512,4536.923076,4511.282051,4267.692307,4430.256410,4171.794871,4416.410256,4198.461538,4207.692307,4481.538461,4188.205128,4662.051282,3961.025642,4060.000000
110,4374.358974,4538.461538,4519.487179,4267.692307,4462.564102,4180.000000,4422.564102,4200.512820,4212.307692,4496.923076,4195.384615,4665.128205,3967.692308,4066.666666
111,4374.871794,4539.487179,4524.615384,4274.871794,4466.666666,4186.666666,4431.282051,4204.615384,4218.974358,4500.512820,4203.589743,4668.717948,3976.410257,4071.794871
112,4365.128205,4537.948717,4516.923076,4270.769230,4439.487179,4182.051282,4423.589743,4203.076923,4216.923076,4492.820512,4200.512820,4665.641025,3964.102565,4065.128205
113,4361.025641,4533.333333,4509.743589,4259.487179,4446.153846,4180.512820,4416.410256,4197.435897,4211.794871,4482.051282,4196.923076,4662.564102,3956.923077,4055.897435
114,4376.923076,4539.487179,4517.948717,4268.717948,4469.743589,4185.641025,4423.076923,4200.512820,4217.435897,4496.923076,4202.564102,4671.794871,3977.435898,4066.153846
115,4387.179487,4555.897435,4528.205128,4280.000000,4454.358974,4186.153846,4429.743589,4209.743589,4225.128205,4517.435897,4203.076923,4680.000000,3991.282052,4081.025641
116,4378.461538,4552.820512,4524.615384,4274.871794,4443.589743,4183.589743,4427.692307,4207.692307,4223.589743,4510.769230,4200.512820,4673.846153,3982.564103,4080.512820
117,4373.333333,4542.564102,4518.461538,4273.333333,4461.025641,4184.102564,4427.692307,4205.128205,4220.000000,4492.820512,4207.692307,4669.230769,3977.435898,4074.871794
118,4374.871794,4546.153846,4521.538461,4277.435897,4457.948717,4184.102564,4429.230769,4211.282051,4220.512820,4482.051282,4213.846153,4674.358974,3981.538462,4068.205128
119,4369.743589,4546.666666,4520.000000,4270.256410,4447.692307,4182.564102,4422.564102,4209.743589,4220.000000,4482.564102,4207.692307,4676.410256,3980.000000,4063.589743
120,4369.743589,4541.025641,4517.435897,4268.205128,4462.051282,4183.076923,4417.948717,4202.564102,4217.948717,4499.487179,4201.538461,4673.333333,3972.307693,4069.743589
121,4375.384615,4541.025641,4515.384615,4275.384615,4448.205128,4178.461538,4420.000000,4202.051282,4214.871794,4504.615384,4203.589743,4670.256410,3971.794872,4071.282051
122,4374.871794,4545.128205,4514.358974,4277.948717,4417.948717,4174.871794,4420.512820,4201.538461,4210.769230,4489.743589,4201.538461,4668.717948,3973.333334,4063.589743
123,4374.871794,4545.128205,4519.487179,4278.974358,4440.000000,4182.564102,4423.076923,4199.487179,4210.769230,4494.871794,4199.487179,4672.307692,3971.282052,4066.666666
124,4378.461538,4544.615384,4523.076923,4274.358974,4473.846153,4189.743589,4429.230769,4203.076923,4216.410256,4502.051282,4202.051282,4675.897435,3971.794872,4073.333333
125,4377.948717,4550.256410,4520.000000,4267.692307,4466.153846,4186.666666,4429.230769,4204.615384,4215.897435,4483.589743,4201.538461,4673.846153,3974.358975,4072.820512
126,4375.384615,4553.333333,4520.512820,4276.923076,4449.743589,4184.102564,4426.666666,4202.051282,4213.333333,4479.487179,4198.974358,4674.358974,3974.358975,4074.358974
127,4376.923076,4549.230769,4521.025641,4283.589743,4454.358974,4186.666666,4427.692307,4202.564102,4217.948717,4500.000000,4203.076923,4675.384615,3975.384616,4075.384615
128,4376.923076,4545.128205,4512.820512,4274.871794,4461.025641,4184.102564,4424.615384,4199.487179,4214.358974,4498.974358,4205.128205,4671.794871,3972.307693,4066.666666
129,4374.871794,4543.589743,4507.179487,4268.717948,4441.025641,4172.307692,4416.410256,4188.205128,4200.000000,4468.717948,4193.333333,4669.743589,3962.564103,4061.025641
130,4373.846153,4537.435897,4507.179487,4264.615384,4419.487179,4168.205128,4414.358974,4186.153846,4197.435897,4457.435897,4186.666666,4671.794871,3959.487180,4064.102564
131,4376.410256,4534.358974,4510.256410,4265.641025,4440.512820,4177.435897,4420.512820,4197.948717,4207.179487,4480.512820,4195.897435,4671.282051,3967.179488,4066.153846
132,4377.948717,4541.538461,4513.846153,4278.461538,4471.794871,4185.128205,4427.179487,4203.076923,4212.820512,4505.641025,4202.564102,4671.794871,3977.435898,4069.230769
133,4375.897435,4548.205128,4516.410256,4282.564102,4458.461538,4183.589743,4426.666666,4197.948717,4211.794871,4504.615384,4203.076923,4675.384615,3979.487180,4074.358974
134,4379.487179,4546.666666,4515.384615,4272.307692,4432.820512,4180.000000,4422.051282,4197.435897,4209.743589,4485.641025,4204.615384,4675.897435,3975.384616,4075.897435
135,4382.564102,4544.615384,4510.769230,4272.307692,4449.230769,4184.102564,4423.076923,4200.000000,4209.230769,4476.923076,4204.615384,4671.794871,3975.897436,4075.384615
136,4385.128205,4556.923076,4508.205128,4283.076923,4473.846153,4196.923076,4437.435897,4201.025641,4214.871794,4489.743589,4201.538461,4671.794871,3977.948718,4074.871794
137,4384.615384,4563.076923,4507.179487,4284.615384,4461.025641,4202.051282,4443.076923,4203.076923,4219.487179,4501.538461,4200.000000,4673.333333,3975.384616,4067.692307
138,4380.512820,4550.256410,4509.743589,4281.538461,4457.435897,4196.410256,4432.820512,4200.000000,4215.384615,4494.871794,4205.128205,4673.846153,3977.435898,4067.692307
139,4390.769230,4552.820512,4520.000000,4287.179487,4482.051282,4196.923076,4432.820512,4195.897435,4215.384615,4497.435897,4213.333333,4680.512820,3990.256411,4084.102564
140,4395.384615,4561.025641,4521.025641,4286.666666,4476.410256,4202.051282,4445.128205,4204.615384,4226.666666,4513.333333,4213.846153,4683.076923,3997.948718,4089.743589
141,4378.461538,4550.256410,4510.256410,4274.871794,4454.358974,4198.461538,4446.666666,4215.897435,4231.282051,4509.743589,4207.692307,4676.923076,3986.153847,4075.384615
142,4377.435897,4548.205128,4509.743589,4275.897435,4463.589743,4191.282051,4437.435897,4213.333333,4225.128205,4495.384615,4212.307692,4677.435897,3977.948718,4073.333333
143,4395.897435,4556.923076,4514.358974,4283.076923,4459.487179,4185.641025,4430.256410,4203.076923,4216.410256,4488.205128,4217.435897,4681.538461,3983.589744,4081.025641
144,4392.820512,4555.384615,4509.230769,4277.435897,4437.948717,4183.076923,4426.666666,4197.948717,4212.307692,4488.717948,4210.256410,4678.461538,3981.538462,4078.974358
145,4386.666666,4552.307692,4508.205128,4274.871794,4454.871794,4191.794871,4432.307692,4206.153846,4221.538461,4501.025641,4210.256410,4680.000000,3975.897436,4081.538461
146,4396.410256,4555.897435,4515.897435,4284.615384,4474.358974,4202.051282,4436.410256,4215.384615,4232.820512,4517.948717,4218.974358,4685.641025,3984.615385,4089.230769
147,4393.333333,4555.897435,4518.461538,4287.179487,4454.871794,4196.923076,4433.333333,4210.256410,4226.666666,4516.410256,4215.384615,4683.589743,3988.205129,4085.641025
148,4383.589743,4556.410256,4513.846153,4281.025641,4452.307692,4192.307692,4437.948717,4202.564102,4215.897435,4494.871794,4209.230769,4681.025641,3975.897436,4076.923076
149,4383.589743,4553.846153,4505.128205,4279.487179,4464.102564,4195.384615,4437.948717,4201.025641,4215.897435,4486.153846,4208.205128,4675.384615,3970.256411,4068.717948
150,4376.410256,4543.076923,4494.871794,4273.333333,4443.076923,4188.717948,4424.102564,4192.307692,4209.743589,4496.923076,4197.948717,4660.512820,3969.230770,4056.923076
151,4365.641025,4539.487179,4487.692307,4261.025641,4444.102564,4182.564102,4417.435897,4180.000000,4196.410256,4495.384615,4186.153846,4650.256410,3961.025642,4051.282051
152,4368.205128,4541.025641,4488.205128,4258.974358,4477.435897,4189.743589,4425.641025,4181.538461,4197.435897,4474.358974,4187.179487,4655.384615,3956.410257,4057.948717
153,4378.461538,4543.589743,4499.487179,4272.307692,4470.769230,4189.230769,4426.666666,4190.769230,4204.615384,4464.615384,4191.794871,4665.128205,3955.897436,4063.589743
154,4377.435897,4549.230769,4506.153846,4284.102564,4444.615384,4178.974358,4422.564102,4195.897435,4199.487179,4473.333333,4194.358974,4667.179487,3953.333334,4061.025641
155,4371.794871,4554.358974,4505.128205,4283.076923,4457.435897,4182.051282,4427.692307,4197.948717,4202.051282,4494.358974,4197.948717,4667.692307,3961.025642,4060.512820
156,4380.000000,4553.333333,4509.743589,4278.461538,4470.769230,4191.282051,4431.794871,4204.615384,4222.564102,4516.410256,4202.564102,4676.410256,3980.512821,4070.769230
157,4392.307692,4552.820512,4520.000000,4282.051282,4457.435897,4191.282051,4427.179487,4210.769230,4229.230769,4514.871794,4209.230769,4687.692307,3986.153847,4080.512820
158,4395.897435,4557.435897,4524.102564,4292.820512,4458.974358,4193.846153,4430.769230,4212.820512,4222.564102,4501.538461,4217.435897,4690.256410,3978.974359,4082.564102
159,4392.820512,4557.435897,4522.564102,4296.410256,4470.769230,4200.000000,4440.512820,4212.307692,4225.128205,4506.153846,4217.435897,4687.692307,3976.410257,4082.564102
160,4394.871794,4556.410256,4521.538461,4288.205128,4465.641025,4194.871794,4436.923076,4208.717948,4227.179487,4514.871794,4215.897435,4688.205128,3978.974359,4083.589743
161,4392.820512,4557.435897,4517.435897,4278.461538,4455.897435,4185.641025,4428.205128,4205.128205,4224.615384,4509.230769,4221.538461,4688.205128,3981.538462,4082.564102
162,4381.025641,4550.769230,4510.256410,4276.923076,4461.538461,4185.641025,4427.179487,4203.076923,4223.589743,4498.974358,4224.102564,4681.538461,3981.538462,4075.897435
163,4378.461538,4545.128205,4506.666666,4282.051282,4465.641025,4187.692307,4430.256410,4201.538461,4221.025641,4498.974358,4210.769230,4674.871794,3981.538462,4070.256410
164,4381.538461,4546.666666,4505.128205,4281.025641,4451.282051,4184.615384,4428.717948,4198.461538,4214.358974,4502.564102,4196.410256,4669.743589,3976.923077,4068.205128
165,4372.820512,4544.615384,4495.384615,4269.743589,4440.000000,4181.538461,4422.051282,4192.307692,4208.717948,4490.256410,4199.487179,4660.512820,3965.128206,4062.564102
166,4366.666666,4536.410256,4487.692307,4266.153846,4447.179487,4178.974358,4417.948717,4187.692307,4203.076923,4469.743589,4202.051282,4657.435897,3957.948718,4056.410256
167,4375.897435,4536.410256,4495.897435,4275.897435,4462.051282,4181.025641,4422.051282,4193.333333,4201.538461,4475.384615,4196.923076,4663.076923,3965.641026,4058.974358
168,4383.076923,4550.769230,4508.205128,4284.102564,4465.128205,4185.641025,4427.692307,4200.000000,4207.179487,4504.615384,4203.076923,4667.179487,3974.358975,4067.692307
169,4377.435897,4554.871794,4507.179487,4278.974358,4447.179487,4183.589743,4426.153846,4197.435897,4211.282051,4506.153846,4210.769230,4666.666666,3971.794872,4070.256410
170,4374.358974,4544.615384,4504.102564,4270.769230,4438.461538,4182.051282,4427.179487,4199.487179,4214.871794,4483.589743,4206.666666,4668.205128,3966.666667,4070.256410
171,4380.512820,4542.051282,4509.230769,4274.358974,4454.358974,4187.692307,4432.820512,4206.153846,4216.923076,4479.487179,4210.256410,4672.307692,3967.692308,4074.358974
172,4384.102564,4547.179487,4510.256410,4278.461538,4460.000000,4190.256410,4431.794871,4202.051282,4211.794871,4491.794871,4207.692307,4672.307692,3966.666667,4073.333333
173,4380.512820,4541.025641,4506.666666,4275.384615,4450.769230,4186.153846,4429.230769,4193.846153,4206.666666,4495.384615,4194.871794,4670.256410,3963.076924,4063.076923
174,4377.435897,4531.794871,4506.153846,4270.256410,4448.717948,4184.615384,4431.794871,4194.358974,4207.692307,4489.743589,4192.307692,4670.256410,3962.564103,4062.564102
175,4373.846153,4534.871794,4505.641025,4263.076923,4446.666666,4185.128205,4432.307692,4198.461538,4207.692307,4484.615384,4193.846153,4667.692307,3963.076924,4071.794871
176,4370.256410,4537.435897,4506.666666,4264.615384,4449.743589,4185.128205,4427.692307,4199.487179,4208.205128,4484.102564,4196.410256,4667.179487,3964.102565,4070.769230
177,4375.384615,4536.923076,4508.717948,4275.384615,4458.974358,4184.102564,4426.666666,4200.000000,4213.333333,4482.051282,4208.717948,4675.897435,3966.153847,4070.769230
178,4384.615384,4540.000000,4506.666666,4273.846153,4441.025641,4176.410256,4427.692307,4194.871794,4208.717948,4474.871794,4213.333333,4678.461538,3966.666667,4074.871794
179,4384.102564,4545.128205,4510.256410,4267.179487,4423.589743,4174.871794,4427.179487,4189.743589,4202.051282,4482.564102,4200.512820,4668.717948,3964.615385,4070.769230
180,4385.641025,4551.794871,4519.487179,4278.461538,4442.564102,4183.076923,4428.717948,4199.487179,4213.846153,4511.794871,4201.538461,4669.230769,3973.333334,4071.794871
181,4391.282051,4555.897435,4516.410256,4285.128205,4463.076923,4186.666666,4429.743589,4206.153846,4222.051282,4514.358974,4212.307692,4675.897435,3984.102565,4083.589743
182,4385.641025,4553.333333,4506.666666,4277.435897,4465.128205,4182.564102,4427.179487,4200.000000,4213.846153,4488.717948,4211.282051,4674.358974,3978.461539,4083.076923
183,4377.948717,4550.769230,4507.179487,4278.974358,4460.000000,4178.974358,4425.641025,4196.410256,4214.358974,4484.615384,4213.333333,4669.230769,3971.282052,4073.333333
184,4383.589743,4554.358974,4509.743589,4280.512820,4443.076923,4177.435897,4425.128205,4194.871794,4217.948717,4503.076923,4214.358974,4662.564102,3971.794872,4069.743589
185,4390.256410,4552.307692,4507.179487,4277.948717,4436.410256,4178.461538,4425.128205,4190.256410,4214.871794,4508.205128,4204.102564,4659.487179,3972.820513,4068.717948
186,4388.205128,4548.205128,4509.230769,4283.076923,4444.615384,4182.051282,4426.666666,4194.358974,4215.384615,4495.384615,4201.025641,4665.641025,3975.897436,4073.333333
187,4391.794871,4556.410256,4510.769230,4283.076923,4447.692307,4182.564102,4428.717948,4200.512820,4214.871794,4484.615384,4214.358974,4667.179487,3983.589744,4081.538461
188,4394.871794,4561.025641,4507.692307,4278.461538,4445.128205,4183.589743,4429.743589,4200.512820,4211.794871,4485.128205,4214.358974,4662.051282,3982.051283,4079.487179
189,4387.692307,4552.820512,4507.179487,4280.512820,4439.487179,4184.615384,4435.384615,4200.000000,4213.846153,4491.282051,4204.615384,4663.076923,3974.871795,4072.307692
190,4386.666666,4550.769230,4511.282051,4281.538461,4445.128205,4183.589743,4442.564102,4202.564102,4216.923076,4494.871794,4210.256410,4668.717948,3975.897436,4074.358974
191,4396.410256,4558.974358,4512.820512,4285.128205,4471.794871,4189.230769,4445.128205,4207.692307,4220.000000,4501.025641,4215.384615,4670.256410,3978.461539,4079.487179
192,4399.487179,4556.410256,4510.256410,4289.230769,4458.461538,4188.717948,4438.974358,4203.589743,4218.974358,4501.025641,4202.564102,4666.666666,3974.871795,4077.435897
193,4388.205128,4544.102564,4507.179487,4278.461538,4404.102564,4172.820512,4428.717948,4188.205128,4207.179487,4484.102564,4189.230769,4656.410256,3970.769231,4072.307692
194,4377.435897,4535.384615,4502.051282,4267.692307,4408.717948,4167.179487,4424.615384,4186.153846,4201.025641,4471.282051,4191.282051,4650.769230,3969.743590,4068.205128
195,4376.410256,4536.410256,4505.641025,4274.871794,4464.615384,4183.076923,4435.384615,4198.461538,4211.282051,4483.589743,4200.000000,4662.051282,3963.589744,4067.692307
196,4382.051282,4546.153846,4517.435897,4285.641025,4469.743589,4190.769230,4443.589743,4205.128205,4222.564102,4503.076923,4206.153846,4675.384615,3966.153847,4077.948717
197,4387.179487,4555.897435,4523.076923,4280.512820,4441.025641,4181.538461,4442.564102,4208.205128,4226.153846,4507.692307,4205.128205,4673.846153,3984.102565,4084.102564
198,4389.743589,4554.871794,4520.512820,4270.769230,4444.615384,4184.615384,4444.615384,4212.820512,4227.179487,4504.615384,4203.076923,4667.692307,3990.256411,4077.435897
199,4387.179487,4545.128205,4512.820512,4269.230769,4434.871794,4186.666666,4441.025641,4206.666666,4221.025641,4500.000000,4209.230769,4665.641025,3986.153847,4076.923076
200,4380.000000,4535.384615,4510.256410,4269.743589,4400.512820,4172.820512,4428.717948,4197.435897,4213.846153,4501.538461,4211.794871,4662.051282,3984.102565,4081.025641
201,4377.435897,4530.769230,4517.948717,4269.743589,4419.487179,4174.358974,4427.179487,4201.538461,4217.435897,4513.846153,4210.769230,4661.025641,3982.564103,4076.923076
202,4376.410256,4534.358974,4523.589743,4267.179487,4465.128205,4188.205128,4433.333333,4204.615384,4221.025641,4506.153846,4214.358974,4665.641025,3987.692308,4073.846153
203,4373.333333,4538.461538,4520.000000,4261.025641,4463.589743,4186.153846,4429.743589,4195.384615,4210.769230,4483.589743,4208.717948,4666.153846,3990.256411,4074.871794
204,4377.435897,4540.000000,4519.487179,4255.384615,4444.615384,4182.051282,4427.692307,4190.769230,4205.641025,4492.820512,4195.384615,4663.076923,3978.974359,4071.794871
205,4377.948717,4542.564102,4520.000000,4259.487179,4423.589743,4181.538461,4428.205128,4191.794871,4211.282051,4512.307692,4189.743589,4659.487179,3970.769231,4070.256410
206,4372.307692,4540.512820,4518.461538,4267.179487,4406.666666,4173.846153,4425.128205,4192.820512,4211.282051,4494.871794,4194.358974,4657.948717,3978.461539,4071.794871
207,4374.358974,4537.435897,4523.076923,4266.666666,4440.000000,4175.384615,4433.846153,4196.410256,4216.923076,4487.179487,4205.128205,4665.128205,3985.128206,4070.769230
208,4380.000000,4536.410256,4523.589743,4264.102564,4470.256410,4186.153846,4442.051282,4203.076923,4231.794871,4510.256410,4208.717948,4672.307692,3982.564103,4070.256410
209,4370.769230,4533.333333,4513.333333,4261.025641,4448.717948,4185.128205,4434.358974,4202.564102,4225.128205,4514.871794,4194.871794,4663.076923,3975.384616,4066.153846
210,4361.025641,4532.820512,4506.666666,4261.538461,4437.435897,4179.487179,4428.205128,4195.384615,4209.230769,4503.589743,4190.256410,4652.307692,3978.461539,4061.025641
211,4364.102564,4539.487179,4506.153846,4266.666666,4435.384615,4175.897435,4430.769230,4188.717948,4213.333333,4494.358974,4200.000000,4654.871794,3983.589744,4062.051282
212,4367.692307,4541.538461,4509.230769,4265.641025,4420.512820,4174.871794,4428.717948,4189.230769,4218.461538,4487.692307,4195.897435,4659.487179,3971.282052,4060.512820
213,4370.769230,4535.384615,4517.948717,4261.025641,4432.307692,4182.051282,4429.230769,4198.974358,4215.897435,4497.948717,4192.820512,4661.025641,3971.282052,4060.512820
214,4376.923076,4532.820512,4517.435897,4265.641025,4453.333333,4187.179487,4436.410256,4203.589743,4221.025641,4514.358974,4209.743589,4663.076923,3996.410257,4069.743589
215,4376.410256,4530.769230,4511.794871,4267.179487,4444.102564,4184.102564,4441.025641,4199.487179,4227.179487,4515.897435,4215.384615,4666.666666,4004.615384,4073.846153
216,4368.717948,4531.282051,4516.923076,4254.358974,4440.512820,4186.153846,4442.564102,4202.564102,4231.794871,4523.076923,4208.205128,4672.307692,3991.794872,4071.794871
217,4367.692307,4538.461538,4518.461538,4247.692307,4447.692307,4187.179487,4441.025641,4203.589743,4233.846153,4533.333333,4209.230769,4671.794871,3985.128206,4074.871794
218,4369.743589,4537.435897,4509.230769,4252.820512,4438.461538,4183.076923,4438.974358,4198.974358,4223.076923,4515.384615,4204.102564,4664.102564,3983.076924,4071.794871
219,4367.179487,4525.641025,4507.692307,4254.871794,4432.307692,4185.128205,4440.512820,4196.923076,4214.871794,4492.307692,4191.794871,4661.538461,3978.974359,4060.512820
220,4366.153846,4524.102564,4510.256410,4251.282051,4427.692307,4186.666666,4442.051282,4198.461538,4218.974358,4494.358974,4194.358974,4662.564102,3979.487180,4055.897435
221,4368.205128,4535.384615,4506.666666,4249.743589,4424.102564,4183.076923,4441.538461,4200.000000,4220.000000,4513.333333,4205.128205,4660.512820,3986.153847,4062.051282
222,4370.769230,4538.461538,4508.205128,4256.923076,4447.692307,4190.769230,4444.102564,4203.076923,4224.102564,4528.717948,4209.743589,4661.538461,3995.384616,4070.256410
223,4373.333333,4536.923076,4511.282051,4264.102564,4456.410256,4197.435897,4445.641025,4204.615384,4230.769230,4520.000000,4213.333333,4663.076923,3994.358975,4071.282051
224,4371.282051,4538.461538,4510.256410,4264.102564,4433.846153,4188.205128,4442.051282,4200.000000,4223.076923,4499.487179,4209.230769,4661.025641,3981.538462,4065.128205
225,4368.205128,4538.461538,4508.205128,4263.076923,4441.538461,4182.051282,4440.512820,4198.974358,4214.358974,4495.897435,4198.461538,4659.487179,3973.333334,4058.461538
226,4367.179487,4536.410256,4505.641025,4257.948717,4457.435897,4188.717948,4441.025641,4200.512820,4220.512820,4510.256410,4196.410256,4655.384615,3974.358975,4054.871794
227,4365.641025,4533.333333,4503.076923,4246.666666,4429.230769,4184.102564,4436.410256,4195.384615,4219.487179,4515.897435,4193.846153,4648.205128,3975.897436,4054.358974
228,4365.128205,4534.358974,4504.102564,4248.717948,4428.717948,4180.512820,4436.923076,4192.820512,4211.282051,4500.512820,4191.282051,4649.743589,3977.435898,4057.948717
229,4367.179487,4541.025641,4508.717948,4265.641025,4474.358974,4193.846153,4444.102564,4201.025641,4216.410256,4494.358974,4202.051282,4657.948717,3981.538462,4063.076923
230,4367.179487,4542.564102,4509.230769,4269.743589,4470.769230,4195.384615,4444.102564,4200.000000,4218.461538,4504.102564,4203.589743,4654.358974,3980.000000,4060.000000
231,4365.641025,4536.410256,4504.102564,4256.410256,4426.666666,4180.000000,4438.974358,4187.179487,4209.743589,4507.179487,4190.769230,4644.615384,3972.820513,4052.820512
232,4369.743589,4538.461538,4503.076923,4253.846153,4434.871794,4180.512820,4439.487179,4188.205128,4214.871794,4510.256410,4195.384615,4649.230769,3975.897436,4055.897435
233,4384.615384,4552.307692,4513.846153,4269.743589,4477.948717,4197.435897,4449.230769,4206.666666,4230.256410,4519.487179,4213.846153,4662.564102,3992.307693,4069.743589
234,4391.794871,4562.564102,4521.025641,4276.410256,4469.230769,4196.923076,4457.948717,4217.435897,4235.897435,4513.846153,4220.000000,4669.743589,4004.102564,4080.000000
235,4379.487179,4554.871794,4514.358974,4266.153846,4431.282051,4186.666666,4452.307692,4208.205128,4232.820512,4510.256410,4213.333333,4665.641025,3996.923077,4077.948717
236,4373.333333,4540.512820,4507.179487,4260.000000,4442.564102,4189.230769,4444.102564,4201.538461,4229.743589,4518.461538,4208.717948,4660.000000,3983.589744,4070.256410
237,4380.512820,4538.974358,4508.205128,4261.538461,4470.256410,4191.794871,4447.179487,4200.512820,4222.564102,4513.333333,4205.641025,4659.487179,3983.076924,4066.666666
238,4378.974358,4547.692307,4509.230769,4258.974358,4458.974358,4185.128205,4445.128205,4189.743589,4212.307692,4506.153846,4200.000000,4657.948717,3988.205129,4063.076923
239,4380.000000,4554.358974,4508.205128,4262.051282,4455.897435,4184.615384,4438.974358,4182.051282,4212.820512,4514.871794,4200.000000,4656.923076,3985.641026,4060.512820
240,4386.153846,4556.923076,4509.743589,4270.256410,4467.179487,4189.230769,4442.051282,4194.871794,4224.615384,4512.307692,4205.128205,4658.974358,3977.948718,4066.153846
241,4373.333333,4551.794871,4506.666666,4265.641025,4444.102564,4184.102564,4438.974358,4202.051282,4226.153846,4502.051282,4206.666666,4656.923076,3973.846154,4067.692307
242,4360.000000,4543.076923,4503.589743,4254.871794,4429.230769,4181.025641,4429.743589,4191.794871,4217.948717,4505.641025,4196.410256,4650.769230,3981.538462,4054.871794
243,4367.179487,4534.871794,4505.128205,4252.307692,4444.102564,4184.615384,4429.230769,4186.666666,4214.871794,4511.282051,4182.564102,4647.179487,3982.051283,4045.128205
244,4366.666666,4525.128205,4498.461538,4251.282051,4439.487179,4180.512820,4429.230769,4185.641025,4211.282051,4503.076923,4183.076923,4645.641025,3958.461539,4043.076923
245,4360.000000,4526.153846,4493.333333,4249.230769,4430.256410,4177.948717,4431.282051,4189.230769,4209.230769,4488.717948,4193.846153,4647.692307,3951.282052,4048.717948
246,4370.769230,4542.051282,4504.102564,4253.333333,4456.923076,4184.615384,4441.025641,4197.948717,4222.564102,4490.769230,4201.538461,4655.897435,3978.974359,4063.076923
247,4379.487179,4548.717948,4510.256410,4260.000000,4470.256410,4189.230769,4446.666666,4202.051282,4234.871794,4510.769230,4204.102564,4661.538461,3991.794872,4065.641025
248,4372.820512,4540.000000,4506.666666,4261.538461,4448.205128,4190.256410,4443.589743,4206.153846,4231.794871,4524.615384,4210.769230,4664.102564,3981.538462,4057.948717
249,4375.384615,4537.435897,4512.307692,4265.641025,4450.256410,4191.794871,4445.128205,4209.230769,4233.333333,4530.769230,4221.538461,4669.743589,3990.769231,4064.615384
250,4380.512820,4542.051282,4515.384615,4269.230769,4464.615384,4187.692307,4445.641025,4204.102564,4237.435897,4529.743589,4216.923076,4670.769230,4002.051282,4071.282051
251,4370.256410,4536.410256,4506.153846,4264.102564,4457.435897,4181.025641,4440.512820,4195.897435,4227.692307,4508.717948,4199.487179,4661.025641,3983.076924,4062.564102
252,4366.153846,4533.846153,4503.589743,4259.487179,4460.000000,4185.128205,4441.025641,4192.820512,4215.897435,4488.205128,4196.410256,4653.333333,3968.205129,4058.974358
253,4371.794871,4545.128205,4506.153846,4262.051282,4464.615384,4189.230769,4441.538461,4188.717948,4215.897435,4496.923076,4207.692307,4656.410256,3978.974359,4057.435897
254,4364.615384,4542.564102,4503.589743,4261.025641,4436.923076,4181.538461,4432.307692,4184.615384,4214.871794,4506.153846,4203.076923,4652.307692,3983.076924,4048.717948
255,4355.897435,4524.615384,4503.076923,4257.435897,4419.487179,4176.410256,4424.615384,4183.076923,4207.692307,4501.538461,4189.743589,4643.589743,3968.717949,4046.153846
