,AF3,F7,F3,FC5,T7,P7,O1,O2,P8,T8,FC6,F4,F8,AF4
0,4392.820512,4542.051282,4537.435897,4080.512820,4463.589743,4214.358974,4430.769230,4215.384615,4241.538461,4345.128205,4197.435897,4674.358974,3972.307693,4058.461538
1,4390.769230,4538.974358,4534.358974,4082.051282,4468.717948,4216.410256,4431.282051,4216.923076,4240.512820,4347.179487,4201.025641,4670.256410,3971.794872,4054.871794
2,4383.076923,4522.564102,4530.769230,4084.615384,4467.692307,4210.769230,4428.717948,4214.871794,4236.923076,4347.179487,4200.000000,4663.076923,3958.461539,4049.743589
3,4374.871794,4518.461538,4528.205128,4076.410256,4449.743589,4203.076923,4426.153846,4207.692307,4234.871794,4343.076923,4192.307692,4659.487179,3951.794872,4040.512820
4,4383.076923,4531.794871,4531.794871,4076.410256,4441.538461,4209.230769,4428.717948,4212.820512,4244.102564,4351.794871,4198.461538,4666.153846,3968.205129,4045.641025
5,4395.384615,4536.923076,4537.435897,4089.230769,4464.615384,4214.871794,4431.794871,4222.564102,4248.717948,4362.564102,4209.743589,4671.794871,3980.000000,4057.948717
6,4392.307692,4528.717948,4533.333333,4091.282051,4476.410256,4209.230769,4429.230769,4216.410256,4235.384615,4357.948717,4202.051282,4668.205128,3974.871795,4055.384615
7,4388.717948,4532.820512,4529.230769,4089.743589,4459.487179,4207.692307,4426.153846,4208.717948,4234.358974,4357.435897,4183.589743,4664.102564,3968.717949,4048.205128
8,4390.769230,4543.076923,4531.794871,4096.410256,4458.461538,4212.307692,4428.205128,4214.871794,4242.051282,4360.512820,4181.538461,4662.564102,3966.666667,4052.820512
9,4389.230769,4539.487179,4528.717948,4101.538461,4472.820512,4214.358974,4429.230769,4215.897435,4235.897435,4358.461538,4194.871794,4659.487179,3968.205129,4055.384615
10,4386.666666,4532.820512,4524.615384,4101.538461,4472.820512,4212.820512,4428.205128,4203.589743,4229.743589,4356.923076,4204.615384,4661.538461,3970.256411,4052.307692
11,4390.256410,4542.051282,4529.743589,4102.564102,4466.666666,4211.282051,4427.179487,4201.025641,4233.333333,4361.025641,4205.641025,4669.230769,3978.974359,4058.461538
12,4396.410256,4551.282051,4537.435897,4107.179487,4469.230769,4214.871794,4428.717948,4213.846153,4240.000000,4373.846153,4202.051282,4674.358974,3986.666667,4067.179487
13,4397.435897,4543.589743,4536.923076,4111.282051,4466.666666,4217.948717,4431.282051,4219.487179,4243.589743,4383.589743,4195.384615,4675.384615,3982.051283,4066.153846
14,4394.358974,4533.333333,4535.384615,4109.230769,4464.102564,4215.384615,4429.743589,4214.871794,4240.000000,4375.384615,4196.923076,4672.307692,3980.000000,4061.538461
15,4389.743589,4535.897435,4534.358974,4105.641025,4475.384615,4209.743589,4426.666666,4214.871794,4232.307692,4361.538461,4200.000000,4667.179487,3982.051283,4061.538461
16,4388.205128,4541.538461,4531.282051,4104.615384,4475.384615,4208.205128,4426.666666,4220.000000,4237.435897,4364.102564,4191.794871,4663.589743,3973.846154,4058.461538
17,4391.282051,4538.461538,4530.769230,4103.589743,4460.512820,4209.230769,4428.717948,4221.538461,4245.641025,4373.846153,4187.179487,4664.615384,3968.205129,4055.897435
18,4390.769230,4529.230769,4529.230769,4104.102564,4458.974358,4206.153846,4428.205128,4220.000000,4242.564102,4376.410256,4194.871794,4666.666666,3971.282052,4057.435897
19,4386.153846,4523.589743,4528.717948,4104.615384,4467.692307,4201.538461,4425.641025,4223.076923,4241.025641,4384.615384,4202.564102,4669.230769,3971.282052,4057.435897
20,4391.794871,4534.358974,4532.820512,4105.641025,4471.282051,4209.743589,4431.282051,4230.769230,4248.717948,4394.358974,4204.102564,4672.820512,3978.974359,4063.589743
21,4402.051282,4547.179487,4534.871794,4114.871794,4474.358974,4220.512820,4443.076923,4227.692307,4247.692307,4389.230769,4206.153846,4674.358974,3992.307693,4072.307692
22,4398.461538,4537.948717,4530.769230,4122.051282,4478.974358,4216.923076,4440.512820,4214.358974,4231.794871,4372.307692,4201.538461,4670.256410,3987.692308,4066.666666
23,4391.282051,4528.205128,4528.717948,4117.435897,4468.717948,4213.846153,4428.205128,4209.743589,4227.692307,4366.153846,4191.794871,4664.102564,3976.923077,4057.435897
24,4393.333333,4535.384615,4529.230769,4113.333333,4456.410256,4216.410256,4427.692307,4221.025641,4242.051282,4373.333333,4191.794871,4662.564102,3978.461539,4063.076923
25,4393.333333,4539.487179,4525.128205,4111.282051,4466.666666,4209.743589,4428.205128,4226.666666,4252.307692,4375.897435,4197.948717,4662.051282,3979.487180,4066.666666
26,4391.282051,4536.923076,4524.615384,4112.820512,4477.948717,4207.179487,4422.051282,4223.589743,4252.820512,4370.256410,4203.589743,4661.538461,3979.487180,4059.487179
27,4389.743589,4540.512820,4528.717948,4115.384615,4474.871794,4212.307692,4424.102564,4223.076923,4248.205128,4360.000000,4202.564102,4663.076923,3982.564103,4055.897435
28,4385.641025,4537.435897,4526.153846,4112.307692,4470.769230,4209.230769,4425.128205,4221.538461,4238.461538,4350.256410,4191.282051,4661.025641,3977.948718,4055.897435
29,4386.666666,4530.256410,4524.615384,4111.282051,4471.794871,4206.153846,4424.102564,4220.512820,4235.897435,4346.666666,4192.820512,4660.000000,3973.333334,4056.410256
30,4393.333333,4531.794871,4531.794871,4113.333333,4470.256410,4214.871794,4433.846153,4227.179487,4245.641025,4347.692307,4210.256410,4666.666666,3980.512821,4062.051282
31,4395.384615,4532.307692,4535.384615,4114.358974,4469.743589,4221.025641,4438.974358,4230.256410,4247.692307,4350.769230,4213.333333,4671.282051,3986.153847,4068.205128
32,4388.717948,4528.205128,4528.205128,4112.307692,4472.307692,4213.846153,4429.230769,4218.974358,4237.948717,4341.538461,4201.025641,4663.076923,3979.487180,4060.512820
33,4377.435897,4526.666666,4521.538461,4110.769230,4466.666666,4206.153846,4420.000000,4206.666666,4229.230769,4322.051282,4190.769230,4651.282051,3969.743590,4044.102564
34,4369.743589,4524.102564,4517.435897,4112.307692,4458.974358,4203.076923,4420.000000,4200.512820,4217.948717,4312.307692,4175.897435,4644.615384,3961.538462,4033.333333
35,4369.230769,4520.512820,4514.358974,4113.846153,4460.000000,4200.512820,4423.076923,4193.846153,4208.717948,4318.974358,4168.717948,4643.076923,3956.410257,4033.333333
36,4377.435897,4527.179487,4515.897435,4110.769230,4464.102564,4205.128205,4429.743589,4200.000000,4217.435897,4328.717948,4188.205128,4648.717948,3961.025642,4044.615384
37,4380.512820,4526.153846,4516.923076,4106.153846,4461.538461,4208.205128,4431.282051,4213.846153,4229.743589,4332.307692,4204.102564,4652.820512,3969.230770,4051.282051
38,4371.794871,4508.717948,4513.333333,4106.666666,4452.307692,4203.076923,4422.564102,4215.897435,4227.179487,4333.333333,4197.948717,4648.205128,3970.769231,4044.615384
39,4369.743589,4502.564102,4513.846153,4106.153846,4447.692307,4198.461538,4420.000000,4215.384615,4229.230769,4336.923076,4193.333333,4643.589743,3971.794872,4040.512820
40,4376.923076,4515.384615,4518.461538,4104.102564,4451.282051,4209.743589,4430.256410,4226.153846,4242.564102,4341.538461,4197.435897,4650.769230,3980.512821,4046.666666
41,4379.487179,4528.205128,4523.589743,4109.230769,4460.000000,4220.000000,4440.512820,4236.923076,4248.717948,4350.769230,4205.128205,4658.461538,3983.589744,4048.717948
42,4370.769230,4520.000000,4522.051282,4112.307692,4461.025641,4209.743589,4434.358974,4229.230769,4241.025641,4352.820512,4203.589743,4651.794871,3967.179488,4040.000000
43,4364.102564,4505.128205,4513.333333,4108.717948,4449.230769,4196.410256,4424.102564,4216.923076,4232.820512,4337.948717,4191.282051,4639.487179,3952.820513,4031.794871
44,4368.717948,4514.358974,4513.333333,4107.692307,4444.102564,4202.564102,4426.153846,4215.384615,4231.794871,4330.256410,4183.076923,4640.512820,3959.487180,4036.410256
45,4378.461538,4531.282051,4524.102564,4118.461538,4450.769230,4213.846153,4430.769230,4214.358974,4231.282051,4342.051282,4188.717948,4652.820512,3968.717949,4048.717948
46,4384.615384,4532.307692,4527.179487,4127.692307,4462.564102,4209.743589,4423.076923,4205.128205,4222.564102,4346.666666,4201.538461,4657.435897,3972.307693,4054.358974
47,4383.076923,4527.692307,4523.076923,4124.615384,4471.282051,4200.512820,4409.743589,4195.384615,4213.846153,4337.948717,4204.615384,4651.794871,3976.923077,4049.230769
48,4378.974358,4521.538461,4522.051282,4119.487179,4463.076923,4196.923076,4409.230769,4199.487179,4221.538461,4342.051282,4200.000000,4649.743589,3975.897436,4045.641025
49,4377.948717,4516.410256,4525.641025,4124.615384,4450.256410,4204.102564,4421.538461,4214.358974,4236.923076,4357.948717,4203.589743,4654.358974,3973.333334,4049.230769
50,4385.641025,4526.153846,4533.333333,4133.333333,4453.846153,4213.846153,4430.256410,4227.692307,4243.076923,4372.307692,4215.897435,4660.000000,3985.128206,4054.871794
51,4392.820512,4535.897435,4536.410256,4134.871794,4463.589743,4211.794871,4430.256410,4227.179487,4249.230769,4382.051282,4216.410256,4661.538461,3994.871795,4056.923076
52,4390.256410,4527.692307,4532.307692,4132.820512,4463.076923,4208.205128,4427.692307,4218.461538,4250.769230,4377.435897,4207.692307,4657.948717,3983.076924,4054.871794
53,4382.051282,4515.897435,4526.666666,4131.794871,4458.974358,4207.692307,4427.179487,4217.435897,4237.435897,4365.128205,4198.974358,4652.820512,3967.692308,4048.717948
54,4372.820512,4514.871794,4516.923076,4126.666666,4452.820512,4204.615384,4428.205128,4217.948717,4223.589743,4354.358974,4188.717948,4645.128205,3960.000000,4039.487179
55,4367.692307,4518.461538,4508.717948,4121.025641,4448.205128,4205.641025,4428.717948,4215.384615,4222.564102,4348.717948,4182.564102,4635.897435,3957.948718,4035.384615
56,4370.256410,4515.384615,4512.820512,4124.102564,4457.435897,4216.410256,4428.717948,4217.435897,4230.769230,4358.461538,4186.153846,4638.974358,3962.051283,4037.948717
57,4373.846153,4509.230769,4516.410256,4129.743589,4463.589743,4218.974358,4433.846153,4221.025641,4241.025641,4376.410256,4197.435897,4647.179487,3963.076924,4039.487179
58,4368.717948,4511.794871,4509.743589,4126.666666,4460.000000,4211.794871,4435.897435,4214.358974,4240.000000,4378.461538,4197.435897,4641.025641,3954.358975,4031.282051
59,4363.589743,4514.871794,4503.589743,4123.076923,4456.923076,4210.769230,4432.307692,4207.179487,4231.794871,4375.897435,4184.102564,4628.717948,3953.333334,4026.153846
60,4362.564102,4506.153846,4502.051282,4125.128205,4453.846153,4213.846153,4436.923076,4211.282051,4232.307692,4382.564102,4178.974358,4631.282051,3962.051283,4028.717948
61,4364.102564,4503.076923,4501.538461,4126.153846,4452.820512,4217.948717,4444.102564,4219.487179,4236.923076,4383.589743,4187.179487,4636.923076,3963.076924,4030.769230
62,4367.179487,4505.641025,4505.128205,4123.589743,4453.846153,4215.897435,4442.051282,4223.076923,4235.384615,4380.000000,4191.794871,4635.897435,3960.000000,4031.282051
63,4371.794871,4507.179487,4514.871794,4124.615384,4449.230769,4212.307692,4440.512820,4225.128205,4237.948717,4388.717948,4194.871794,4641.538461,3961.538462,4036.410256
64,4376.923076,4506.666666,4518.974358,4133.846153,4453.333333,4216.410256,4440.000000,4225.128205,4242.564102,4395.384615,4203.076923,4650.256410,3964.102565,4043.076923
65,4374.871794,4501.025641,4513.846153,4139.487179,4463.589743,4217.435897,4430.256410,4220.512820,4235.897435,4381.538461,4199.487179,4643.589743,3964.102565,4042.051282
66,4369.743589,4510.769230,4507.692307,4136.923076,4464.102564,4214.871794,4425.641025,4215.384615,4230.769230,4371.794871,4187.179487,4633.846153,3962.051283,4037.435897
67,4373.846153,4528.205128,4503.589743,4140.512820,4466.666666,4216.410256,4428.205128,4214.358974,4233.846153,4383.589743,4186.666666,4635.897435,3956.923077,4038.461538
68,4380.512820,4527.179487,4502.051282,4148.717948,4472.307692,4217.435897,4427.692307,4212.820512,4230.769230,4389.230769,4190.769230,4640.512820,3957.435898,4043.589743
69,4379.487179,4520.000000,4506.153846,4146.153846,4473.846153,4215.384615,4427.692307,4207.692307,4223.076923,4382.564102,4187.692307,4637.948717,3963.076924,4044.615384
70,4376.923076,4525.128205,4510.256410,4144.615384,4471.794871,4214.871794,4428.717948,4203.076923,4223.076923,4388.717948,4190.256410,4635.897435,3958.461539,4041.025641
71,4378.461538,4523.076923,4507.692307,4147.179487,4467.179487,4213.333333,4426.666666,4202.564102,4224.615384,4400.000000,4196.923076,4639.487179,3957.948718,4038.974358
72,4377.948717,4510.769230,4503.589743,4146.153846,4461.538461,4206.153846,4420.512820,4203.076923,4220.512820,4395.897435,4195.384615,4638.974358,3972.307693,4040.000000
73,4375.384615,4511.794871,4500.000000,4145.641025,4460.512820,4198.974358,4416.923076,4200.512820,4216.923076,4389.230769,4190.256410,4633.846153,3976.410257,4039.487179
74,4378.974358,4521.538461,4499.487179,4146.153846,4458.461538,4199.487179,4421.025641,4200.512820,4220.512820,4393.846153,4189.230769,4635.384615,3974.358975,4038.461538
75,4384.102564,4525.641025,4504.102564,4147.179487,4460.512820,4210.769230,4429.230769,4207.692307,4231.282051,4403.589743,4194.871794,4641.538461,3976.923077,4043.589743
76,4381.538461,4516.410256,4506.153846,4146.666666,4469.230769,4217.435897,4432.820512,4213.333333,4235.384615,4406.153846,4198.461538,4642.564102,3964.615385,4049.230769
77,4375.897435,4506.666666,4497.948717,4146.153846,4467.179487,4209.230769,4428.717948,4207.692307,4227.179487,4400.512820,4189.743589,4639.487179,3952.820513,4047.692307
78,4377.948717,4512.307692,4495.384615,4145.128205,4458.974358,4202.051282,4425.641025,4200.000000,4221.538461,4394.871794,4179.487179,4637.435897,3963.589744,4045.641025
79,4383.076923,4525.128205,4501.025641,4153.333333,4462.564102,4206.153846,4427.692307,4201.538461,4220.512820,4395.384615,4176.923076,4637.948717,3971.794872,4048.717948
80,4376.923076,4526.153846,4497.435897,4160.512820,4464.615384,4207.179487,4424.615384,4202.051282,4212.307692,4392.820512,4172.307692,4635.384615,3958.974359,4044.615384
81,4368.717948,4514.871794,4488.205128,4153.846153,4456.923076,4198.461538,4414.871794,4192.307692,4207.692307,4386.153846,4165.641025,4629.230769,3944.102565,4031.794871
82,4373.333333,4513.846153,4487.179487,4149.230769,4458.974358,4198.461538,4415.384615,4190.256410,4214.871794,4396.923076,4175.897435,4631.794871,3952.820513,4030.769230
83,4384.102564,4524.615384,4494.358974,4153.846153,4470.256410,4209.230769,4425.641025,4197.948717,4220.512820,4416.410256,4189.743589,4640.000000,3976.410257,4043.076923
84,4377.948717,4517.948717,4492.307692,4154.358974,4463.589743,4202.564102,4421.025641,4190.256410,4209.743589,4410.769230,4183.076923,4634.358974,3977.435898,4040.000000
85,4364.615384,4500.000000,4480.512820,4144.615384,4448.205128,4188.205128,4409.230769,4179.487179,4200.512820,4395.384615,4169.230769,4624.615384,3958.974359,4024.102564
86,4367.692307,4497.948717,4477.948717,4143.076923,4450.256410,4191.282051,4410.256410,4187.692307,4212.307692,4410.256410,4171.282051,4629.230769,3958.974359,4028.205128
87,4380.512820,4512.820512,4489.230769,4152.820512,4460.512820,4203.589743,4418.461538,4201.538461,4230.256410,4433.333333,4185.641025,4640.000000,3974.358975,4045.641025
88,4390.256410,4525.128205,4499.487179,4161.538461,4469.230769,4208.205128,4427.179487,4209.743589,4237.948717,4440.512820,4196.410256,4650.256410,3988.205129,4054.871794
89,4389.230769,4517.948717,4493.333333,4161.025641,4469.743589,4205.128205,4427.692307,4210.769230,4235.384615,4439.487179,4192.307692,4649.230769,3986.153847,4050.256410
90,4382.051282,4509.743589,4487.692307,4156.410256,4458.461538,4201.538461,4423.589743,4205.128205,4228.205128,4432.820512,4177.948717,4637.948717,3970.256411,4041.025641
91,4380.512820,4516.410256,4492.307692,4158.974358,4453.846153,4202.051282,4425.641025,4201.538461,4219.487179,4421.538461,4168.205128,4634.871794,3959.487180,4032.820512
92,4378.974358,4517.435897,4492.307692,4162.051282,4462.051282,4205.128205,4425.641025,4196.923076,4209.230769,4409.230769,4164.615384,4635.384615,3952.307693,4024.615384
93,4376.923076,4511.282051,4484.102564,4160.000000,4467.179487,4202.051282,4417.948717,4188.717948,4207.179487,4408.205128,4162.564102,4633.846153,3945.128206,4025.641025
94,4378.461538,4516.923076,4481.538461,4165.641025,4469.230769,4197.948717,4413.333333,4184.102564,4209.743589,4414.871794,4166.666666,4634.358974,3950.256411,4034.871794
95,4380.512820,4520.000000,4480.512820,4171.794871,4467.179487,4198.461538,4413.333333,4182.564102,4207.692307,4417.948717,4172.307692,4631.794871,3961.025642,4040.512820
96,4377.435897,4510.769230,4476.923076,4167.179487,4459.487179,4199.487179,4411.282051,4182.051282,4207.179487,4424.615384,4172.820512,4629.230769,3960.512821,4038.461538
97,4371.282051,4508.717948,4472.307692,4164.615384,4461.025641,4196.410256,4409.230769,4178.974358,4206.153846,4430.256410,4166.153846,4625.128205,3954.871795,4034.871794
98,4369.230769,4520.512820,4463.589743,4169.230769,4465.128205,4191.794871,4406.666666,4173.333333,4202.564102,4423.589743,4160.512820,4616.410256,3952.820513,4031.282051
99,4374.871794,4531.282051,4465.128205,4175.384615,4466.153846,4196.923076,4407.692307,4184.102564,4208.205128,4427.692307,4171.282051,4620.000000,3956.410257,4034.358974
100,4385.128205,4534.358974,4478.461538,4183.076923,4475.384615,4205.641025,4420.512820,4203.076923,4222.051282,4448.205128,4186.666666,4635.897435,3967.179488,4045.128205
101,4390.769230,4531.282051,4483.076923,4181.538461,4477.948717,4204.615384,4427.692307,4203.589743,4224.615384,4452.307692,4186.153846,4640.000000,3973.846154,4049.743589
102,4389.743589,4528.717948,4482.564102,4172.820512,4465.641025,4200.512820,4420.000000,4198.461538,4221.025641,4444.615384,4186.153846,4637.948717,3979.487180,4051.794871
103,4387.692307,4524.615384,4483.076923,4173.333333,4459.487179,4198.974358,4415.897435,4202.051282,4220.512820,4443.076923,4188.717948,4641.025641,3978.461539,4055.384615
104,4390.256410,4522.564102,4483.076923,4183.076923,4468.717948,4200.000000,4424.102564,4201.538461,4220.000000,4443.076923,4183.589743,4645.128205,3971.794872,4056.923076
105,4394.358974,4525.128205,4482.564102,4186.153846,4477.948717,4204.615384,4429.743589,4203.076923,4226.153846,4444.102564,4185.128205,4648.205128,3973.333334,4058.461538
106,4390.769230,4521.538461,4484.102564,4180.000000,4466.153846,4202.051282,4425.128205,4209.230769,4229.743589,4446.153846,4186.666666,4643.589743,3974.358975,4055.897435
107,4391.794871,4521.025641,4483.589743,4178.974358,4451.282051,4196.410256,4424.615384,4206.666666,4230.769230,4452.820512,4181.025641,4644.102564,3969.230770,4058.461538
108,4404.102564,4533.333333,4491.282051,4191.282051,4467.692307,4210.769230,4428.717948,4207.692307,4241.025641,4469.743589,4193.333333,4660.000000,3973.846154,4074.358974
109,4405.641025,4535.897435,4497.948717,4201.025641,4490.256410,4219.487179,4428.717948,4211.282051,4244.102564,4473.333333,4205.641025,4663.076923,3981.538462,4076.410256
110,4391.794871,4528.717948,4489.743589,4195.897435,4484.615384,4208.205128,4426.153846,4207.692307,4233.846153,4460.000000,4191.282051,4646.153846,3981.025642,4058.461538
111,4388.205128,4533.846153,4481.538461,4185.128205,4471.794871,4207.179487,4428.717948,4207.179487,4231.794871,4460.512820,4180.512820,4638.461538,3979.487180,4051.794871
112,4393.333333,4534.871794,4482.051282,4183.589743,4475.384615,4211.794871,4430.769230,4210.769230,4235.897435,4469.743589,4186.153846,4637.435897,3978.974359,4054.358974
113,4389.230769,4521.025641,4479.487179,4186.666666,4476.410256,4202.051282,4426.666666,4205.641025,4228.205128,4465.641025,4182.564102,4630.256410,3979.487180,4050.769230
114,4386.153846,4524.615384,4474.358974,4187.692307,4470.256410,4198.461538,4423.589743,4197.435897,4223.076923,4457.435897,4175.384615,4630.769230,3979.487180,4048.717948
115,4394.871794,4544.615384,4477.435897,4194.871794,4481.025641,4212.820512,4425.641025,4200.000000,4230.769230,4464.102564,4184.102564,4638.974358,3974.871795,4054.358974
116,4397.435897,4541.538461,4483.076923,4204.102564,4494.358974,4219.487179,4428.205128,4203.076923,4233.846153,4472.820512,4190.769230,4639.487179,3975.384616,4056.923076
117,4390.256410,4526.666666,4478.461538,4201.538461,4483.076923,4210.256410,4428.205128,4200.512820,4226.666666,4465.641025,4181.025641,4633.846153,3982.051283,4053.333333
118,4387.692307,4531.794871,4474.358974,4191.282051,4463.076923,4203.076923,4427.179487,4198.461538,4221.538461,4455.384615,4176.923076,4633.333333,3977.435898,4050.769230
119,4391.794871,4535.384615,4477.435897,4191.794871,4465.641025,4202.564102,4427.692307,4198.461538,4220.512820,4454.358974,4180.000000,4637.948717,3967.179488,4048.717948
120,4394.358974,4523.076923,4484.102564,4200.512820,4479.487179,4202.564102,4428.717948,4200.512820,4220.512820,4461.538461,4174.358974,4643.076923,3973.333334,4046.153846
121,4396.923076,4521.025641,4488.205128,4204.102564,4477.435897,4206.153846,4429.230769,4200.512820,4224.102564,4470.769230,4177.948717,4648.205128,3977.948718,4049.743589
122,4403.076923,4531.282051,4492.820512,4200.000000,4471.282051,4210.256410,4427.692307,4200.512820,4228.717948,4476.923076,4193.846153,4654.358974,3970.769231,4059.487179
123,4406.153846,4533.846153,4496.923076,4201.538461,4478.461538,4205.641025,4428.205128,4199.487179,4224.102564,4476.923076,4194.358974,4657.948717,3973.846154,4064.615384
124,4404.102564,4532.307692,4493.846153,4209.743589,4487.179487,4201.538461,4429.743589,4200.000000,4215.897435,4469.230769,4183.589743,4655.897435,3984.102565,4062.051282
125,4392.820512,4528.717948,4482.564102,4205.641025,4484.102564,4201.025641,4422.564102,4196.923076,4216.410256,4458.974358,4176.410256,4645.128205,3971.282052,4052.307692
126,4377.435897,4516.923076,4469.230769,4193.333333,4475.897435,4193.846153,4410.256410,4191.282051,4214.871794,4461.538461,4168.717948,4631.794871,3945.641026,4038.974358
127,4379.487179,4516.923076,4470.769230,4194.871794,4471.794871,4192.307692,4411.282051,4193.333333,4216.410256,4476.410256,4173.846153,4630.769230,3948.717949,4042.051282
128,4394.871794,4530.769230,4478.974358,4205.641025,4474.358974,4204.102564,4423.589743,4203.076923,4231.794871,4487.692307,4193.333333,4640.512820,3974.358975,4056.923076
129,4393.333333,4527.692307,4474.871794,4201.025641,4483.076923,4201.025641,4421.538461,4204.102564,4234.871794,4486.666666,4188.205128,4640.512820,3980.512821,4057.948717
130,4378.974358,4514.358974,4466.666666,4188.205128,4476.410256,4183.589743,4408.717948,4190.256410,4217.948717,4479.487179,4167.692307,4629.743589,3964.615385,4047.692307
131,4386.153846,4520.512820,4471.794871,4190.256410,4457.948717,4185.128205,4412.307692,4190.769230,4217.435897,4483.589743,4173.333333,4631.794871,3962.564103,4051.794871
132,4398.974358,4534.358974,4481.538461,4202.051282,4463.589743,4200.000000,4427.179487,4207.692307,4232.307692,4492.307692,4187.692307,4644.615384,3975.897436,4066.153846
133,4393.846153,4528.717948,4478.974358,4205.641025,4479.487179,4203.076923,4425.128205,4209.743589,4230.769230,4484.615384,4188.205128,4644.615384,3979.487180,4063.589743
134,4387.179487,4516.923076,4475.897435,4199.487179,4480.512820,4195.897435,4416.410256,4198.974358,4221.025641,4480.000000,4186.666666,4636.410256,3971.282052,4053.333333
135,4389.743589,4517.948717,4480.000000,4200.512820,4481.025641,4196.923076,4417.948717,4198.974358,4220.512820,4488.717948,4184.102564,4637.435897,3973.846154,4055.384615
136,4393.333333,4525.128205,4482.051282,4206.666666,4482.051282,4202.564102,4420.000000,4201.538461,4221.025641,4480.512820,4177.948717,4638.974358,3980.000000,4061.025641
137,4389.743589,4528.205128,4476.923076,4201.538461,4473.333333,4199.487179,4415.897435,4195.384615,4215.897435,4460.000000,4178.461538,4632.820512,3966.153847,4055.384615
138,4389.230769,4525.641025,4473.333333,4197.948717,4469.743589,4198.461538,4415.384615,4197.435897,4216.410256,4459.487179,4181.538461,4633.846153,3954.358975,4051.794871
139,4394.358974,4528.717948,4477.948717,4202.051282,4481.538461,4202.564102,4421.025641,4203.076923,4222.564102,4464.102564,4181.025641,4641.025641,3968.717949,4057.948717
140,4396.410256,4533.333333,4477.435897,4203.076923,4484.615384,4202.051282,4420.000000,4202.051282,4221.025641,4454.358974,4182.564102,4642.564102,3981.538462,4061.025641
141,4395.897435,4530.769230,4474.358974,4202.564102,4479.487179,4200.000000,4420.000000,4201.025641,4225.641025,4451.794871,4190.769230,4644.102564,3982.051283,4062.564102
142,4396.923076,4527.692307,4477.948717,4204.615384,4486.153846,4206.153846,4424.102564,4201.025641,4232.307692,4455.897435,4195.384615,4644.615384,3982.564103,4062.564102
143,4394.871794,4530.256410,4478.461538,4197.948717,4490.769230,4207.692307,4423.076923,4202.564102,4225.641025,4443.076923,4192.820512,4637.948717,3980.512821,4056.923076
144,4384.102564,4530.769230,4469.743589,4192.307692,4481.538461,4200.000000,4417.948717,4202.564102,4220.512820,4424.615384,4187.179487,4630.256410,3972.307693,4048.717948
145,4376.410256,4523.076923,4463.589743,4192.307692,4471.282051,4196.410256,4414.358974,4194.358974,4221.538461,4420.000000,4176.923076,4629.230769,3968.205129,4042.051282
146,4380.512820,4525.128205,4469.230769,4193.333333,4468.717948,4198.461538,4412.307692,4191.794871,4219.487179,4429.743589,4176.410256,4633.846153,3969.230770,4044.102564
147,4389.743589,4530.256410,4476.923076,4201.025641,4468.717948,4200.000000,4415.384615,4197.948717,4217.948717,4437.948717,4193.846153,4638.974358,3972.307693,4053.333333
148,4393.846153,4527.692307,4475.897435,4207.179487,4475.384615,4202.564102,4426.153846,4195.384615,4222.051282,4433.846153,4197.435897,4638.461538,3976.410257,4055.897435
149,4389.230769,4528.717948,4469.743589,4203.589743,4483.076923,4206.153846,4428.205128,4189.230769,4221.538461,4425.641025,4175.384615,4633.333333,3976.410257,4049.230769
150,4383.076923,4531.282051,4469.230769,4192.307692,4476.410256,4197.948717,4415.384615,4189.743589,4213.333333,4423.589743,4171.282051,4630.256410,3967.692308,4044.102564
151,4388.205128,4528.717948,4472.307692,4190.256410,4466.153846,4189.743589,4410.256410,4193.846153,4214.871794,4426.153846,4194.871794,4634.871794,3961.538462,4049.230769
152,4403.589743,4532.820512,4478.974358,4203.589743,4464.102564,4196.923076,4422.564102,4204.615384,4233.333333,4432.307692,4209.743589,4649.743589,3975.897436,4064.615384
153,4407.179487,4539.487179,4488.205128,4211.794871,4472.307692,4201.538461,4426.153846,4211.282051,4245.641025,4444.102564,4207.179487,4660.000000,3989.743590,4073.333333
154,4396.923076,4531.794871,4483.589743,4203.076923,4480.000000,4189.230769,4409.743589,4203.589743,4235.897435,4450.769230,4202.564102,4649.743589,3975.897436,4060.000000
155,4389.230769,4522.564102,4473.333333,4197.435897,4470.256410,4179.487179,4401.538461,4197.435897,4227.179487,4443.076923,4198.461538,4638.461538,3961.538462,4046.153846
156,4390.769230,4524.102564,4474.358974,4202.564102,4456.410256,4182.564102,4411.282051,4195.897435,4227.692307,4432.307692,4191.282051,4640.000000,3971.282052,4050.256410
157,4393.333333,4527.179487,4480.512820,4203.076923,4462.051282,4191.794871,4416.410256,4192.820512,4226.153846,4434.358974,4187.692307,4641.538461,3978.461539,4055.384615
158,4390.256410,4531.282051,4475.384615,4198.974358,4472.820512,4192.820512,4412.307692,4188.205128,4218.974358,4439.487179,4184.615384,4634.358974,3971.282052,4049.230769
159,4391.794871,4533.846153,4470.256410,4197.435897,4475.897435,4188.717948,4411.794871,4187.179487,4218.461538,4436.923076,4186.153846,4637.435897,3971.794872,4051.794871
160,4400.000000,4534.358974,4478.974358,4201.538461,4477.948717,4193.333333,4414.871794,4190.769230,4227.692307,4441.538461,4205.128205,4649.230769,3984.615385,4062.564102
161,4404.102564,4539.487179,4486.153846,4205.641025,4480.000000,4194.871794,4412.307692,4190.256410,4231.794871,4453.333333,4220.000000,4650.256410,3994.358975,4064.615384
162,4404.102564,4542.051282,4480.512820,4206.666666,4474.871794,4185.128205,4407.179487,4187.692307,4227.692307,4455.897435,4211.794871,4644.615384,3994.358975,4063.589743
163,4406.153846,4535.384615,4479.487179,4207.692307,4467.692307,4181.538461,4408.205128,4196.410256,4230.256410,4453.333333,4208.717948,4647.692307,3989.743590,4065.641025
164,4403.076923,4532.307692,4485.128205,4206.666666,4470.256410,4189.230769,4413.333333,4204.615384,4234.871794,4454.871794,4212.307692,4649.743589,3985.641026,4064.615384
165,4393.846153,4532.820512,4480.000000,4201.025641,4469.230769,4190.256410,4414.358974,4196.923076,4227.179487,4451.282051,4201.025641,4642.564102,3982.564103,4057.948717
166,4392.820512,4529.230769,4478.461538,4202.051282,4460.512820,4188.205128,4414.358974,4188.205128,4219.487179,4449.230769,4194.358974,4640.512820,3980.000000,4054.358974
167,4401.025641,4528.205128,4489.230769,4204.102564,4465.641025,4191.794871,4421.025641,4188.717948,4222.051282,4453.846153,4200.000000,4646.153846,3978.461539,4058.974358
168,4404.615384,4533.846153,4491.794871,4199.487179,4477.948717,4192.820512,4423.076923,4193.333333,4229.743589,4455.897435,4202.051282,4650.256410,3974.871795,4064.102564
169,4403.589743,4531.282051,4489.230769,4206.153846,4470.769230,4187.692307,4416.410256,4200.000000,4234.358974,4453.846153,4202.051282,4650.256410,3978.974359,4061.538461
170,4404.615384,4518.461538,4492.820512,4214.871794,4456.923076,4183.589743,4410.256410,4199.487179,4230.256410,4455.897435,4198.974358,4650.256410,3986.153847,4055.897435
171,4405.641025,4520.000000,4493.846153,4210.769230,4460.512820,4186.153846,4412.307692,4191.794871,4225.128205,4462.051282,4195.897435,4650.769230,3982.564103,4052.820512
172,4400.000000,4527.692307,4487.692307,4207.692307,4466.153846,4187.692307,4414.871794,4191.282051,4221.025641,4464.102564,4199.487179,4650.256410,3970.769231,4052.307692
173,4394.871794,4521.538461,4485.128205,4210.256410,4463.076923,4185.641025,4413.846153,4193.846153,4216.923076,4464.102564,4207.692307,4650.256410,3967.179488,4050.769230
174,4397.435897,4520.512820,4486.153846,4210.256410,4461.025641,4187.179487,4415.384615,4189.743589,4215.384615,4465.641025,4207.692307,4647.179487,3972.820513,4049.743589
175,4400.000000,4529.230769,4485.128205,4210.256410,4467.692307,4187.692307,4416.410256,4192.307692,4220.512820,4467.692307,4200.000000,4645.641025,3975.897436,4051.282051
176,4402.564102,4528.717948,4486.666666,4217.948717,4472.307692,4188.205128,4416.410256,4199.487179,4233.333333,4476.923076,4200.000000,4651.794871,3976.410257,4056.410256
177,4399.487179,4525.128205,4486.153846,4217.948717,4465.128205,4185.641025,4412.307692,4195.897435,4234.871794,4480.512820,4205.128205,4653.846153,3976.923077,4057.948717
178,4394.871794,4528.205128,4481.538461,4212.820512,4466.153846,4181.538461,4407.692307,4193.333333,4227.179487,4472.307692,4200.512820,4647.692307,3984.615385,4052.820512
179,4396.923076,4529.230769,4480.000000,4214.358974,4476.923076,4188.205128,4415.897435,4200.000000,4229.230769,4469.743589,4196.410256,4646.153846,3992.820513,4053.846153
180,4398.974358,4528.205128,4481.538461,4215.384615,4475.384615,4201.025641,4427.692307,4203.589743,4235.897435,4475.897435,4207.692307,4646.666666,3986.666667,4057.435897
181,4398.461538,4526.666666,4481.025641,4215.897435,4473.333333,4198.974358,4424.102564,4200.512820,4231.794871,4475.897435,4208.717948,4644.615384,3975.897436,4055.384615
182,4392.307692,4524.615384,4471.282051,4215.384615,4479.487179,4185.641025,4412.820512,4194.358974,4223.076923,4471.282051,4188.717948,4637.948717,3971.282052,4046.666666
183,4387.179487,4522.564102,4467.179487,4213.846153,4474.871794,4187.179487,4415.897435,4191.794871,4222.051282,4469.230769,4181.025641,4633.333333,3975.897436,4041.538461
184,4394.358974,4524.102564,4476.410256,4215.897435,4469.743589,4200.512820,4427.179487,4201.538461,4230.769230,4475.384615,4195.384615,4635.897435,3984.102565,4051.282051
185,4403.076923,4532.820512,4483.076923,4219.487179,4478.461538,4205.128205,4425.641025,4206.666666,4236.923076,4482.564102,4204.615384,4639.487179,3986.153847,4062.051282
186,4394.871794,4536.923076,4474.358974,4213.333333,4482.564102,4192.820512,4414.358974,4194.358974,4226.153846,4475.384615,4197.948717,4634.358974,3978.461539,4054.358974
187,4386.153846,4525.641025,4468.717948,4207.179487,4476.923076,4183.589743,4409.230769,4185.128205,4213.846153,4462.051282,4187.179487,4627.179487,3973.333334,4043.076923
188,4392.820512,4524.615384,4477.435897,4215.384615,4470.769230,4193.333333,4418.461538,4193.846153,4219.487179,4464.615384,4180.512820,4633.333333,3982.564103,4051.282051
189,4398.974358,4535.384615,4481.025641,4216.923076,4465.128205,4198.974358,4425.641025,4203.589743,4230.769230,4476.410256,4183.076923,4641.025641,3984.102565,4060.512820
190,4396.923076,4533.333333,4476.923076,4217.948717,4465.128205,4196.410256,4420.512820,4201.025641,4232.820512,4484.615384,4195.897435,4637.435897,3973.333334,4056.410256
191,4397.948717,4526.153846,4479.487179,4226.666666,4472.820512,4197.435897,4418.974358,4197.948717,4229.230769,4482.564102,4197.948717,4637.435897,3975.384616,4055.897435
192,4401.025641,4534.358974,4484.102564,4226.153846,4478.461538,4194.358974,4421.538461,4201.025641,4230.769230,4476.923076,4190.256410,4645.641025,3987.692308,4062.564102
193,4397.948717,4536.923076,4482.564102,4222.564102,4476.410256,4185.641025,4415.384615,4200.000000,4232.307692,4481.025641,4193.333333,4648.205128,3981.025642,4061.025641
194,4389.230769,4525.641025,4478.461538,4224.615384,4469.230769,4184.102564,4410.769230,4199.487179,4227.179487,4485.128205,4192.307692,4637.948717,3961.025642,4051.282051
195,4388.205128,4519.487179,4472.820512,4222.051282,4460.512820,4185.128205,4415.897435,4201.538461,4218.974358,4473.333333,4178.974358,4632.820512,3958.461539,4046.666666
196,4389.230769,4521.538461,4468.717948,4214.871794,4453.333333,4183.076923,4413.846153,4195.384615,4214.358974,4466.666666,4178.461538,4632.820512,3968.205129,4045.641025
197,4385.641025,4524.615384,4467.179487,4216.923076,4457.948717,4186.153846,4413.846153,4187.692307,4217.435897,4478.461538,4187.179487,4630.256410,3973.846154,4045.641025
198,4384.102564,4523.589743,4467.179487,4217.948717,4470.769230,4188.205128,4424.615384,4191.794871,4224.102564,4482.051282,4184.615384,4630.256410,3973.333334,4045.641025
199,4385.641025,4520.512820,4468.205128,4214.871794,4470.769230,4185.641025,4424.615384,4198.461538,4224.102564,4476.923076,4183.589743,4635.384615,3967.692308,4043.589743
200,4389.230769,4522.564102,4469.230769,4217.948717,4460.512820,4185.128205,4418.461538,4200.000000,4225.128205,4485.641025,4189.230769,4637.948717,3962.051283,4047.179487
201,4392.820512,4527.692307,4469.743589,4223.589743,4461.025641,4187.179487,4418.974358,4198.461538,4229.230769,4488.717948,4187.692307,4635.897435,3967.179488,4052.307692
202,4390.256410,4527.179487,4469.230769,4223.589743,4469.743589,4188.205128,4417.435897,4191.282051,4224.102564,4477.948717,4181.538461,4636.410256,3972.820513,4047.179487
203,4381.538461,4519.487179,4465.641025,4216.410256,4467.692307,4186.666666,4412.820512,4185.128205,4215.897435,4478.974358,4177.948717,4637.435897,3963.589744,4040.000000
204,4378.461538,4512.820512,4465.641025,4214.358974,4460.512820,4185.128205,4413.333333,4184.615384,4214.358974,4483.076923,4180.512820,4632.307692,3954.871795,4040.512820
205,4381.538461,4511.794871,4468.717948,4221.538461,4460.512820,4187.179487,4417.948717,4188.205128,4216.410256,4475.897435,4186.153846,4629.230769,3958.974359,4041.538461
206,4387.692307,4520.000000,4472.820512,4227.179487,4459.487179,4189.743589,4423.589743,4194.358974,4217.948717,4472.820512,4188.205128,4637.435897,3967.692308,4046.153846
207,4393.846153,4526.153846,4481.025641,4231.794871,4458.974358,4187.179487,4424.615384,4200.000000,4221.538461,4480.512820,4182.051282,4643.589743,3974.358975,4055.897435
208,4392.307692,4525.641025,4488.205128,4235.384615,4465.128205,4187.179487,4421.538461,4197.948717,4222.564102,4483.076923,4178.461538,4641.025641,3971.282052,4055.897435
209,4393.846153,4530.256410,4490.256410,4234.871794,4474.358974,4193.846153,4424.102564,4197.435897,4220.512820,4478.974358,4184.102564,4644.615384,3969.230770,4053.846153
210,4400.000000,4534.871794,4487.692307,4236.410256,4482.051282,4197.435897,4429.743589,4202.051282,4225.128205,4481.538461,4190.769230,4654.358974,3977.435898,4060.512820
211,4396.923076,4525.641025,4484.615384,4234.871794,4475.384615,4190.256410,4425.641025,4201.538461,4231.282051,4492.307692,4192.307692,4652.820512,3976.923077,4061.538461
212,4392.307692,4519.487179,4483.076923,4230.256410,4459.487179,4182.564102,4420.512820,4200.512820,4227.692307,4497.948717,4190.256410,4643.589743,3965.641026,4055.897435
213,4395.897435,4531.282051,4485.128205,4235.897435,4465.128205,4190.256410,4424.102564,4201.538461,4224.615384,4495.384615,4184.615384,4644.615384,3972.307693,4060.000000
214,4399.487179,4541.025641,4487.692307,4248.205128,4484.615384,4201.025641,4427.179487,4201.025641,4226.666666,4496.923076,4184.102564,4651.282051,3985.641026,4065.641025
215,4400.512820,4533.333333,4484.102564,4243.076923,4485.641025,4196.410256,4422.564102,4198.974358,4224.102564,4498.974358,4189.230769,4648.205128,3978.461539,4060.000000
216,4397.948717,4522.051282,4480.000000,4230.256410,4475.384615,4185.128205,4415.384615,4199.487179,4217.948717,4491.794871,4186.666666,4639.487179,3967.692308,4053.333333
217,4390.769230,4517.435897,4478.974358,4232.820512,4470.769230,4184.615384,4414.358974,4198.974358,4216.923076,4489.230769,4182.051282,4638.974358,3968.717949,4051.794871
218,4390.256410,4516.923076,4478.974358,4237.435897,4472.307692,4190.256410,4418.974358,4200.000000,4222.051282,4492.820512,4186.666666,4641.538461,3974.358975,4051.282051
219,4395.384615,4518.461538,4480.000000,4232.307692,4469.230769,4192.820512,4425.641025,4206.153846,4227.179487,4493.846153,4186.666666,4638.461538,3974.871795,4051.794871
220,4394.871794,4524.102564,4483.076923,4230.769230,4463.076923,4197.948717,4430.256410,4212.307692,4231.794871,4495.897435,4181.025641,4636.923076,3973.846154,4056.923076
221,4392.307692,4525.641025,4485.641025,4231.282051,4467.179487,4200.512820,4430.256410,4215.897435,4235.897435,4504.615384,4187.179487,4643.076923,3976.410257,4058.974358
222,4391.282051,4516.410256,4484.102564,4230.256410,4475.897435,4192.307692,4429.230769,4216.923076,4238.974358,4508.717948,4192.820512,4646.153846,3979.487180,4054.871794
223,4390.769230,4512.820512,4484.102564,4232.307692,4469.230769,4187.692307,4429.230769,4216.410256,4234.871794,4500.000000,4192.307692,4645.128205,3979.487180,4052.307692
224,4391.282051,4521.025641,4485.641025,4231.282051,4465.128205,4196.923076,4429.230769,4215.384615,4230.769230,4500.512820,4195.897435,4648.205128,3971.282052,4054.358974
225,4391.282051,4521.538461,4486.153846,4230.769230,4477.948717,4202.051282,4428.717948,4215.384615,4233.333333,4510.256410,4193.333333,4646.666666,3966.666667,4057.435897
226,4392.820512,4515.897435,4491.794871,4237.435897,4478.461538,4198.974358,4433.333333,4217.435897,4237.435897,4507.692307,4189.230769,4646.153846,3978.461539,4058.974358
227,4395.897435,4517.948717,4495.897435,4239.487179,4472.307692,4202.051282,4441.025641,4220.000000,4240.512820,4505.128205,4193.846153,4653.333333,3988.205129,4060.512820
228,4395.384615,4517.948717,4486.666666,4234.358974,4477.948717,4201.025641,4435.897435,4216.923076,4235.897435,4509.230769,4195.897435,4652.820512,3978.461539,4057.948717
229,4395.384615,4513.333333,4485.128205,4236.410256,4472.307692,4193.846153,4426.153846,4211.794871,4230.769230,4505.128205,4191.794871,4647.179487,3972.307693,4056.923076
230,4401.538461,4520.512820,4494.871794,4241.538461,4461.025641,4197.948717,4426.666666,4215.384615,4237.948717,4507.692307,4195.897435,4655.897435,3986.153847,4066.666666
231,4407.179487,4533.333333,4496.410256,4242.051282,4468.205128,4201.025641,4435.384615,4220.000000,4246.666666,4527.692307,4205.641025,4664.615384,3996.410257,4073.846153
232,4407.692307,4531.794871,4493.333333,4245.641025,4480.512820,4198.974358,4441.538461,4217.435897,4250.769230,4534.358974,4210.769230,4662.564102,3995.384616,4072.307692
233,4408.717948,4531.794871,4497.948717,4251.794871,4481.025641,4201.025641,4440.000000,4217.435897,4248.205128,4527.179487,4210.769230,4662.564102,3993.846154,4071.794871
234,4405.641025,4536.410256,4497.435897,4250.256410,4479.487179,4203.076923,4433.333333,4214.871794,4235.384615,4521.538461,4203.589743,4660.512820,3987.179488,4069.230769
235,4398.974358,4531.282051,4487.179487,4245.128205,4476.923076,4202.051282,4429.743589,4203.589743,4225.641025,4513.333333,4192.307692,4651.794871,3981.538462,4061.538461
236,4401.538461,4526.153846,4487.179487,4247.179487,4476.923076,4202.564102,4430.256410,4205.641025,4234.358974,4513.846153,4191.794871,4650.769230,3990.769231,4062.051282
237,4409.230769,4532.820512,4495.384615,4251.282051,4483.589743,4201.025641,4429.743589,4215.384615,4246.153846,4528.717948,4203.589743,4654.871794,3993.333334,4067.692307
238,4406.666666,4532.307692,4496.923076,4252.820512,4484.102564,4200.000000,4424.615384,4214.358974,4242.564102,4534.871794,4212.820512,4655.384615,3980.512821,4066.153846
239,4396.923076,4520.512820,4493.333333,4251.282051,4477.948717,4198.974358,4418.974358,4210.769230,4232.820512,4524.102564,4203.589743,4653.846153,3981.538462,4062.051282
240,4392.820512,4515.897435,4487.692307,4241.538461,4470.769230,4189.743589,4416.923076,4206.666666,4226.666666,4511.794871,4187.692307,4649.230769,3995.384616,4057.435897
241,4393.846153,4517.948717,4485.641025,4237.435897,4462.564102,4186.153846,4421.025641,4204.102564,4226.153846,4513.333333,4187.692307,4644.102564,3995.384616,4053.333333
242,4394.871794,4519.487179,4492.307692,4242.051282,4464.615384,4197.948717,4427.179487,4210.256410,4228.717948,4526.666666,4197.948717,4648.205128,3985.128206,4056.410256
243,4396.923076,4521.538461,4496.410256,4242.564102,4476.923076,4204.102564,4430.256410,4216.410256,4233.333333,4535.897435,4202.564102,4653.333333,3988.717949,4062.564102
244,4402.051282,4524.615384,4493.846153,4243.076923,4484.615384,4200.000000,4429.230769,4214.358974,4240.512820,4531.282051,4202.051282,4652.820512,4001.025641,4066.666666
245,4405.128205,4529.230769,4497.435897,4251.282051,4483.076923,4201.538461,4429.743589,4216.410256,4241.538461,4525.128205,4202.564102,4653.846153,4002.051282,4069.743589
246,4406.666666,4528.717948,4501.538461,4252.820512,4481.025641,4203.076923,4430.769230,4219.487179,4241.025641,4533.333333,4205.641025,4654.871794,3993.333334,4069.230769
247,4405.128205,4518.461538,4496.410256,4246.153846,4474.358974,4199.487179,4429.230769,4216.410256,4241.538461,4534.358974,4207.692307,4652.820512,3986.153847,4064.615384
248,4401.025641,4512.820512,4492.820512,4248.717948,4471.282051,4198.461538,4429.743589,4215.897435,4237.948717,4517.435897,4203.076923,4651.282051,3984.102565,4060.512820
249,4394.871794,4515.384615,4494.871794,4250.769230,4473.333333,4199.487179,4428.717948,4214.871794,4229.743589,4511.794871,4188.717948,4649.743589,3982.051283,4057.948717
250,4394.871794,4518.974358,4493.846153,4246.153846,4470.256410,4197.948717,4425.128205,4213.333333,4224.615384,4517.435897,4180.000000,4649.743589,3985.641026,4056.410256
251,4404.615384,4529.230769,4497.948717,4251.282051,4474.871794,4204.102564,4429.743589,4213.846153,4231.282051,4518.461538,4195.384615,4655.897435,3992.307693,4065.641025
252,4414.358974,4537.948717,4506.666666,4264.615384,4488.717948,4214.358974,4435.897435,4215.384615,4241.025641,4526.666666,4214.871794,4665.128205,3998.461539,4077.948717
253,4414.871794,4533.333333,4506.153846,4266.153846,4486.153846,4210.256410,4433.846153,4215.897435,4242.564102,4539.487179,4213.846153,4665.128205,4005.641025,4078.974358
254,4407.179487,4525.128205,4499.487179,4251.794871,4474.358974,4201.025641,4428.717948,4217.435897,4235.897435,4532.820512,4204.102564,4658.461538,4006.153846,4071.794871
255,4400.000000,4527.179487,4497.948717,4246.153846,4480.512820,4204.615384,4428.717948,4214.871794,4231.282051,4514.358974,4197.948717,4652.820512,3992.820513,4067.692307
256,4396.923076,4526.666666,4496.923076,4248.717948,4487.179487,4205.641025,4429.743589,4208.205128,4229.743589,4504.102564,4194.358974,4646.666666,3979.487180,4065.128205
257,4396.410256,4515.897435,4495.384615,4246.666666,4473.846153,4199.487179,4430.256410,4209.230769,4228.205128,4498.461538,4194.871794,4645.641025,3983.076924,4061.538461
258,4398.974358,4517.435897,4498.974358,4244.102564,4470.256410,4200.000000,4430.769230,4213.846153,4226.666666,4489.743589,4199.487179,4652.307692,3984.615385,4062.564102
259,4397.435897,4523.589743,4498.974358,4245.128205,4475.897435,4203.589743,4428.717948,4212.307692,4224.615384,4477.435897,4196.923076,4653.846153,3976.410257,4063.076923
260,4394.358974,4517.435897,4495.897435,4245.128205,4471.282051,4197.948717,4424.615384,4209.743589,4223.589743,4473.333333,4193.846153,4648.717948,3979.487180,4060.000000
