,AF3,F7,F3,FC5,T7,P7,O1,O2,P8,T8,FC6,F4,F8,AF4
0,4386.153846,4402.564102,4554.358974,4299.487179,4485.641025,4187.179487,4467.179487,4223.076923,4269.743589,4507.692307,4223.589743,4426.666666,4000.512820,4022.564102
1,4381.538461,4391.282051,4551.794871,4291.282051,4484.615384,4188.717948,4467.179487,4224.102564,4268.205128,4501.025641,4218.461538,4422.564102,4003.076923,4015.897435
2,4390.769230,4387.179487,4553.846153,4295.384615,4483.589743,4191.282051,4469.230769,4225.641025,4276.410256,4517.435897,4228.717948,4427.692307,4013.333333,4021.538461
3,4396.410256,4388.717948,4553.333333,4292.307692,4480.512820,4189.743589,4468.717948,4223.076923,4275.897435,4520.000000,4221.538461,4429.230769,4007.692307,4022.564102
4,4388.717948,4383.076923,4550.256410,4288.717948,4477.948717,4188.717948,4466.666666,4217.435897,4259.487179,4501.025641,4200.512820,4427.179487,3990.256411,4013.846153
5,4385.641025,4385.128205,4550.256410,4296.923076,4480.000000,4186.666666,4461.025641,4213.333333,4254.358974,4497.435897,4213.333333,4428.717948,3994.358975,4015.897435
6,4385.641025,4389.743589,4549.743589,4299.487179,4481.025641,4180.000000,4455.897435,4211.282051,4261.025641,4507.179487,4238.974358,4427.692307,4003.076923,4020.000000
7,4381.538461,4381.025641,4552.307692,4295.897435,4479.487179,4179.487179,4458.461538,4213.846153,4264.102564,4510.769230,4236.923076,4427.179487,4003.589743,4018.461538
8,4378.974358,4376.410256,4554.358974,4294.871794,4479.487179,4187.179487,4458.974358,4218.974358,4267.179487,4514.358974,4224.615384,4431.282051,4009.743589,4020.512820
9,4376.923076,4380.512820,4544.615384,4287.692307,4478.461538,4184.615384,4452.820512,4215.897435,4266.666666,4515.897435,4218.461538,4428.205128,4008.205128,4014.871794
10,4367.179487,4375.897435,4533.846153,4279.487179,4473.333333,4176.923076,4447.692307,4207.692307,4256.410256,4507.692307,4206.153846,4419.487179,3990.256411,4001.538461
11,4361.025641,4371.282051,4535.384615,4281.538461,4477.948717,4179.487179,4447.692307,4210.256410,4254.358974,4500.000000,4207.692307,4421.025641,3985.641026,4002.051282
12,4370.256410,4376.410256,4541.025641,4286.153846,4483.589743,4183.076923,4450.769230,4217.948717,4266.153846,4504.102564,4216.410256,4427.692307,3999.487180,4010.769230
13,4377.948717,4376.923076,4544.615384,4287.179487,4476.923076,4180.512820,4453.333333,4217.948717,4270.256410,4514.871794,4214.358974,4426.666666,4010.769230,4012.820512
14,4375.384615,4374.871794,4546.666666,4285.641025,4475.897435,4176.923076,4451.282051,4213.333333,4262.051282,4514.358974,4216.923076,4427.692307,4009.230769,4013.333333
15,4371.282051,4374.871794,4542.564102,4285.128205,4477.948717,4175.897435,4448.205128,4206.666666,4252.307692,4500.512820,4212.307692,4430.769230,3995.384616,4010.256410
16,4369.230769,4370.769230,4536.410256,4286.666666,4472.307692,4174.358974,4449.230769,4200.512820,4247.692307,4492.820512,4198.974358,4421.025641,3983.589744,4003.076923
17,4365.128205,4366.153846,4536.923076,4285.641025,4474.358974,4176.923076,4448.205128,4202.051282,4249.230769,4495.384615,4200.000000,4412.307692,3982.051283,3998.461539
18,4361.538461,4365.641025,4538.461538,4286.666666,4483.076923,4181.538461,4446.153846,4209.230769,4254.871794,4497.435897,4206.153846,4414.358974,3981.025642,4000.000000
19,4365.641025,4364.615384,4539.487179,4289.230769,4483.589743,4181.538461,4446.666666,4215.384615,4256.410256,4497.948717,4204.102564,4415.897435,3982.564103,4002.051282
20,4369.743589,4364.102564,4540.000000,4287.692307,4477.948717,4179.487179,4448.205128,4217.948717,4251.794871,4502.564102,4203.076923,4413.846153,3985.641026,4000.512820
21,4366.153846,4361.538461,4538.461538,4284.102564,4474.358974,4178.461538,4445.128205,4211.282051,4247.179487,4498.461538,4198.974358,4411.282051,3981.538462,3996.410257
22,4360.000000,4356.410256,4534.358974,4283.589743,4472.307692,4176.923076,4438.974358,4202.564102,4238.461538,4482.564102,4184.102564,4408.205128,3975.897436,3991.794872
23,4358.974358,4355.897435,4532.820512,4283.076923,4472.820512,4172.820512,4438.974358,4206.153846,4237.948717,4481.025641,4191.794871,4407.692307,3978.461539,3989.743590
24,4364.102564,4361.538461,4537.435897,4283.076923,4470.256410,4172.820512,4444.615384,4216.410256,4257.435897,4500.000000,4213.846153,4411.794871,3983.076924,3996.923077
25,4367.692307,4361.538461,4539.487179,4280.000000,4467.692307,4174.871794,4444.102564,4221.538461,4267.692307,4504.102564,4214.358974,4413.846153,3983.076924,4003.589743
26,4364.615384,4352.820512,4536.923076,4273.846153,4466.153846,4173.846153,4437.948717,4212.820512,4249.230769,4488.717948,4200.512820,4410.256410,3981.025642,4000.512820
27,4362.051282,4344.615384,4534.358974,4277.948717,4465.128205,4173.846153,4434.871794,4202.051282,4235.897435,4484.615384,4193.333333,4404.102564,3978.461539,3996.410257
28,4363.589743,4341.538461,4534.871794,4282.051282,4467.179487,4176.410256,4438.461538,4205.128205,4244.102564,4495.384615,4195.384615,4406.153846,3976.923077,3997.948718
29,4365.641025,4341.538461,4535.384615,4276.923076,4472.820512,4177.948717,4442.564102,4214.871794,4250.769230,4497.435897,4201.025641,4412.307692,3975.897436,3998.461539
30,4370.769230,4348.205128,4536.410256,4281.025641,4476.923076,4180.000000,4442.564102,4213.846153,4251.794871,4494.871794,4203.589743,4412.307692,3977.435898,4002.564102
31,4380.000000,4361.025641,4538.461538,4290.769230,4477.435897,4181.025641,4440.512820,4211.282051,4255.897435,4502.564102,4202.051282,4416.923076,3987.692308,4009.743589
32,4382.564102,4363.589743,4539.487179,4287.692307,4475.384615,4177.435897,4439.487179,4217.948717,4260.512820,4513.846153,4210.769230,4428.717948,3994.871795,4011.794871
33,4378.974358,4354.871794,4540.000000,4287.692307,4469.743589,4173.846153,4441.538461,4221.025641,4261.025641,4512.307692,4221.025641,4432.307692,3991.282052,4013.333333
34,4377.435897,4348.717948,4538.461538,4292.307692,4470.769230,4181.025641,4448.717948,4217.948717,4257.435897,4503.076923,4212.820512,4426.666666,3989.743590,4015.897435
35,4377.435897,4352.307692,4537.948717,4288.205128,4476.410256,4189.230769,4453.846153,4219.487179,4258.461538,4501.538461,4207.692307,4426.153846,3995.897436,4013.333333
36,4376.923076,4354.871794,4538.974358,4286.666666,4474.871794,4186.666666,4451.282051,4220.000000,4258.974358,4500.000000,4212.307692,4427.692307,3987.692308,4009.743589
37,4373.846153,4352.307692,4538.974358,4290.769230,4471.794871,4180.512820,4448.205128,4212.307692,4249.230769,4491.794871,4206.666666,4423.589743,3972.307693,4008.205128
38,4370.769230,4352.820512,4536.923076,4289.230769,4472.820512,4178.974358,4445.641025,4209.230769,4243.589743,4492.307692,4200.000000,4420.000000,3979.487180,4009.230769
39,4373.846153,4357.435897,4537.948717,4288.205128,4469.743589,4177.948717,4442.051282,4213.333333,4248.717948,4501.025641,4207.179487,4423.076923,3993.333334,4012.820512
40,4374.358974,4363.589743,4537.948717,4295.384615,4465.128205,4176.923076,4441.025641,4211.794871,4252.307692,4505.128205,4206.666666,4429.230769,3989.743590,4016.410256
41,4368.205128,4368.205128,4530.256410,4295.384615,4469.230769,4175.897435,4443.589743,4211.282051,4252.820512,4500.512820,4196.410256,4426.666666,3977.948718,4011.282051
42,4364.102564,4367.692307,4521.538461,4287.179487,4470.769230,4175.384615,4442.051282,4214.358974,4252.820512,4492.820512,4198.461538,4415.384615,3971.282052,4003.076923
43,4368.205128,4367.179487,4523.076923,4289.230769,4465.128205,4176.923076,4439.487179,4216.410256,4251.794871,4492.820512,4206.666666,4411.794871,3977.948718,4007.692307
44,4377.435897,4374.871794,4535.384615,4293.333333,4468.205128,4181.025641,4442.051282,4216.410256,4254.358974,4506.666666,4216.923076,4423.076923,3993.333334,4020.000000
45,4381.025641,4382.051282,4536.923076,4286.153846,4476.410256,4181.025641,4443.589743,4211.794871,4258.461538,4517.948717,4225.641025,4432.307692,4001.025641,4021.025641
46,4373.333333,4381.025641,4526.153846,4281.025641,4472.820512,4178.461538,4443.076923,4204.102564,4253.333333,4509.230769,4214.871794,4426.153846,3991.794872,4011.282051
47,4371.282051,4385.641025,4523.589743,4291.794871,4470.256410,4184.102564,4448.205128,4205.128205,4251.794871,4497.948717,4208.717948,4421.538461,3987.692308,4010.769230
48,4377.435897,4392.307692,4530.256410,4294.871794,4475.897435,4189.743589,4449.230769,4208.205128,4254.871794,4497.948717,4220.512820,4433.333333,3997.948718,4013.846153
49,4371.794871,4386.666666,4526.666666,4277.948717,4473.846153,4180.000000,4437.948717,4198.974358,4251.794871,4494.871794,4209.230769,4440.512820,3999.487180,4008.205128
50,4365.128205,4384.615384,4518.974358,4271.794871,4468.205128,4176.410256,4434.871794,4200.512820,4249.743589,4491.794871,4192.820512,4433.333333,3993.846154,4005.128205
51,4370.769230,4396.923076,4527.179487,4280.000000,4471.794871,4186.153846,4447.179487,4216.923076,4255.897435,4496.923076,4209.743589,4427.692307,4001.025641,4007.692307
52,4372.307692,4398.974358,4534.871794,4274.358974,4472.820512,4185.641025,4449.743589,4217.435897,4256.410256,4502.564102,4217.948717,4427.692307,4009.743589,4009.230769
53,4366.153846,4389.743589,4529.230769,4266.153846,4464.615384,4176.923076,4441.538461,4209.230769,4250.769230,4495.897435,4204.615384,4425.641025,4003.076923,4008.717948
54,4368.205128,4388.205128,4521.538461,4268.205128,4461.538461,4175.384615,4445.128205,4210.256410,4249.743589,4485.641025,4204.615384,4424.102564,3994.871795,4006.153846
55,4370.256410,4391.282051,4524.102564,4270.769230,4463.076923,4176.410256,4449.743589,4210.256410,4252.820512,4487.179487,4207.692307,4427.179487,4000.512820,4003.589743
56,4369.230769,4388.205128,4532.307692,4272.307692,4463.589743,4174.871794,4446.153846,4206.153846,4254.358974,4496.410256,4203.589743,4433.846153,4011.282051,4006.153846
57,4374.358974,4390.256410,4536.923076,4278.974358,4469.230769,4178.974358,4446.153846,4210.256410,4254.871794,4500.000000,4207.692307,4442.051282,4015.897435,4013.846153
58,4383.589743,4401.538461,4546.153846,4285.128205,4478.461538,4182.051282,4449.230769,4216.410256,4255.897435,4499.487179,4216.410256,4444.615384,4017.435897,4020.000000
59,4384.102564,4406.666666,4549.743589,4284.102564,4478.461538,4183.589743,4448.205128,4213.846153,4253.333333,4502.564102,4215.897435,4444.102564,4013.333333,4017.948717
60,4376.410256,4401.538461,4543.076923,4276.410256,4471.282051,4184.102564,4447.179487,4206.666666,4246.153846,4501.025641,4203.589743,4441.025641,4003.589743,4008.717948
61,4369.230769,4393.846153,4536.923076,4270.769230,4468.205128,4180.000000,4446.153846,4201.025641,4246.153846,4493.333333,4195.384615,4431.282051,3996.923077,4003.589743
62,4367.179487,4391.794871,4536.923076,4273.846153,4466.666666,4175.384615,4443.076923,4201.538461,4251.282051,4489.230769,4202.564102,4424.102564,3997.435898,4005.128205
63,4373.333333,4398.974358,4538.461538,4281.538461,4466.153846,4178.974358,4447.179487,4210.256410,4251.794871,4494.871794,4210.769230,4430.769230,4002.051282,4009.230769
64,4375.897435,4405.641025,4540.512820,4282.564102,4471.794871,4185.128205,4457.948717,4216.923076,4254.871794,4502.051282,4212.307692,4435.897435,4005.641025,4010.769230
65,4366.666666,4400.000000,4535.897435,4273.846153,4473.846153,4184.615384,4460.512820,4217.948717,4254.871794,4494.871794,4210.769230,4423.076923,3996.923077,4002.051282
66,4359.487179,4394.358974,4522.564102,4264.102564,4464.102564,4180.000000,4456.923076,4215.384615,4248.205128,4483.589743,4203.589743,4413.333333,3980.000000,3992.307693
67,4363.589743,4401.538461,4525.128205,4264.102564,4464.102564,4180.512820,4458.974358,4214.358974,4248.205128,4487.692307,4195.384615,4421.025641,3981.025642,3996.410257
68,4368.205128,4406.153846,4534.871794,4272.820512,4475.897435,4187.179487,4464.615384,4216.923076,4255.384615,4495.897435,4191.794871,4428.205128,3997.948718,4003.589743
69,4366.153846,4404.615384,4532.307692,4276.410256,4477.435897,4193.846153,4464.615384,4223.076923,4256.410256,4497.948717,4193.333333,4425.128205,4001.025641,4002.051282
70,4363.589743,4400.512820,4530.769230,4268.717948,4471.282051,4190.769230,4461.025641,4227.179487,4253.846153,4499.487179,4203.076923,4422.051282,3992.307693,3998.974359
71,4365.641025,4395.897435,4536.923076,4263.076923,4474.871794,4187.179487,4461.025641,4226.666666,4258.974358,4501.025641,4206.153846,4422.564102,3989.743590,4002.564102
72,4372.307692,4401.025641,4541.025641,4267.692307,4481.538461,4191.794871,4466.153846,4230.769230,4265.128205,4501.025641,4205.641025,4428.205128,4000.512820,4011.794871
73,4376.410256,4409.743589,4542.051282,4272.820512,4481.025641,4195.897435,4468.205128,4233.846153,4265.128205,4505.128205,4217.948717,4434.871794,4012.307692,4019.487179
74,4369.743589,4405.128205,4538.974358,4272.820512,4480.000000,4191.282051,4463.076923,4223.589743,4258.974358,4504.615384,4222.051282,4430.769230,4007.692307,4016.923076
75,4362.564102,4399.487179,4533.333333,4273.846153,4480.512820,4187.179487,4460.000000,4212.307692,4251.794871,4497.948717,4211.282051,4421.538461,3996.410257,4010.769230
76,4365.128205,4406.153846,4535.897435,4273.846153,4478.461538,4187.179487,4460.000000,4215.897435,4256.923076,4500.000000,4210.769230,4423.076923,4000.512820,4013.333333
77,4364.102564,4400.000000,4538.461538,4264.615384,4473.333333,4183.589743,4457.948717,4222.051282,4268.205128,4502.564102,4213.846153,4426.153846,3997.435898,4014.358974
78,4364.102564,4392.307692,4535.384615,4263.589743,4470.769230,4181.025641,4455.897435,4222.564102,4264.615384,4498.461538,4213.333333,4426.666666,3986.666667,4010.769230
79,4374.871794,4412.307692,4540.512820,4275.897435,4475.384615,4183.589743,4453.846153,4225.128205,4257.435897,4503.076923,4221.538461,4434.871794,4001.025641,4021.025641
80,4383.589743,4428.717948,4549.743589,4282.564102,4481.025641,4183.589743,4447.692307,4224.102564,4263.589743,4514.358974,4227.692307,4446.666666,4018.461538,4036.923076
81,4384.102564,4421.025641,4549.230769,4284.102564,4482.564102,4182.564102,4446.153846,4218.974358,4264.615384,4514.358974,4222.564102,4447.179487,4013.846153,4035.384615
82,4382.051282,4418.974358,4541.025641,4284.102564,4477.435897,4184.615384,4451.794871,4216.410256,4255.897435,4502.564102,4218.974358,4437.435897,4002.564102,4025.128205
83,4373.333333,4424.615384,4533.846153,4275.897435,4474.358974,4184.102564,4451.794871,4207.692307,4253.333333,4492.820512,4212.307692,4428.205128,3986.153847,4019.487179
84,4368.717948,4421.538461,4531.794871,4269.743589,4481.025641,4182.564102,4449.743589,4204.615384,4253.333333,4495.384615,4207.692307,4425.641025,3985.641026,4020.000000
85,4374.871794,4421.538461,4535.897435,4273.846153,4487.179487,4185.128205,4452.820512,4214.358974,4253.846153,4502.051282,4212.307692,4429.230769,4005.128205,4022.051282
86,4371.794871,4425.641025,4534.871794,4273.846153,4482.051282,4181.025641,4449.230769,4213.333333,4256.923076,4501.025641,4207.692307,4428.717948,4000.000000,4018.461538
87,4368.717948,4423.589743,4531.282051,4272.820512,4474.358974,4177.435897,4442.051282,4204.102564,4252.820512,4499.487179,4194.871794,4427.179487,3982.051283,4014.358974
88,4377.435897,4424.102564,4534.871794,4275.897435,4474.871794,4180.512820,4444.102564,4209.230769,4245.641025,4503.076923,4199.487179,4429.230769,3989.743590,4021.025641
89,4378.974358,4421.025641,4537.948717,4276.923076,4476.923076,4180.000000,4448.717948,4212.820512,4248.717948,4502.051282,4214.871794,4428.717948,3996.410257,4025.128205
90,4373.333333,4410.769230,4535.897435,4273.333333,4473.333333,4177.435897,4450.769230,4210.769230,4253.846153,4497.435897,4212.820512,4428.205128,3992.307693,4022.564102
91,4375.384615,4406.153846,4538.974358,4269.230769,4469.743589,4177.948717,4454.358974,4215.897435,4254.358974,4500.512820,4203.076923,4435.384615,3998.461539,4024.615384
92,4380.000000,4406.153846,4543.076923,4273.846153,4472.820512,4179.487179,4455.897435,4216.410256,4254.871794,4503.589743,4207.179487,4443.589743,3997.948718,4025.641025
93,4377.435897,4408.717948,4540.512820,4280.000000,4471.794871,4177.948717,4455.384615,4214.358974,4253.846153,4500.512820,4217.948717,4439.487179,3992.820513,4022.564102
94,4374.358974,4410.769230,4538.461538,4270.256410,4464.102564,4172.820512,4449.230769,4216.410256,4249.230769,4496.410256,4210.256410,4428.205128,3995.384616,4021.538461
95,4370.256410,4409.230769,4536.410256,4261.025641,4464.102564,4168.205128,4440.000000,4209.743589,4249.743589,4495.384615,4201.025641,4424.102564,3988.717949,4015.897435
96,4367.692307,4412.820512,4536.923076,4273.333333,4472.820512,4170.769230,4440.000000,4202.564102,4257.435897,4500.512820,4213.846153,4427.179487,3983.589744,4011.282051
97,4372.307692,4422.564102,4538.974358,4281.538461,4476.410256,4174.358974,4442.564102,4208.717948,4256.923076,4504.102564,4221.025641,4427.692307,3992.820513,4017.435897
98,4377.948717,4426.153846,4540.000000,4279.487179,4474.871794,4173.333333,4438.974358,4212.820512,4252.307692,4498.461538,4213.333333,4427.179487,4000.000000,4022.051282
99,4375.897435,4423.589743,4540.000000,4282.564102,4478.974358,4175.897435,4440.000000,4203.589743,4251.794871,4498.461538,4216.410256,4428.717948,3997.948718,4018.974358
100,4369.743589,4422.564102,4538.974358,4282.564102,4485.641025,4182.564102,4449.230769,4201.025641,4248.717948,4502.051282,4217.948717,4426.666666,3993.846154,4015.897435
101,4371.282051,4426.153846,4538.974358,4279.487179,4488.717948,4185.641025,4453.846153,4213.333333,4252.307692,4499.487179,4209.230769,4426.153846,3987.179488,4012.820512
102,4377.435897,4428.717948,4538.461538,4281.025641,4490.769230,4183.076923,4451.282051,4222.051282,4261.025641,4496.410256,4211.282051,4428.205128,3989.230770,4012.820512
103,4373.333333,4424.102564,4535.897435,4282.564102,4485.128205,4177.948717,4444.615384,4216.923076,4256.923076,4496.410256,4214.358974,4426.153846,3994.358975,4011.794871
104,4365.641025,4417.435897,4533.846153,4281.538461,4475.897435,4173.846153,4441.538461,4208.205128,4250.769230,4497.435897,4209.743589,4421.538461,3984.102565,4004.102564
105,4362.051282,4415.897435,4529.230769,4278.461538,4476.923076,4171.794871,4444.615384,4203.076923,4251.282051,4492.307692,4208.717948,4420.000000,3973.333334,3996.410257
106,4358.974358,4414.871794,4520.512820,4271.282051,4478.461538,4170.769230,4440.000000,4198.974358,4241.538461,4481.538461,4204.615384,4410.769230,3968.717949,3991.282052
107,4362.564102,4416.923076,4522.564102,4274.871794,4477.435897,4173.846153,4437.948717,4199.487179,4233.846153,4482.564102,4201.538461,4405.128205,3971.282052,3991.282052
108,4375.897435,4422.051282,4535.384615,4285.641025,4481.538461,4180.512820,4447.179487,4203.076923,4245.128205,4498.461538,4206.666666,4417.948717,3983.589744,4001.538461
109,4379.487179,4422.564102,4538.974358,4285.641025,4484.102564,4183.076923,4450.256410,4202.051282,4250.769230,4501.025641,4208.717948,4431.282051,3989.743590,4010.769230
110,4376.923076,4425.641025,4536.410256,4283.076923,4483.076923,4181.538461,4443.589743,4202.564102,4249.230769,4495.897435,4211.794871,4435.384615,3985.641026,4010.256410
111,4382.564102,4425.641025,4540.512820,4286.666666,4487.179487,4183.589743,4448.205128,4213.846153,4261.538461,4504.615384,4219.487179,4436.410256,3990.769231,4012.820512
112,4379.487179,4412.307692,4540.000000,4282.564102,4490.769230,4185.128205,4454.871794,4220.512820,4266.153846,4504.615384,4216.410256,4433.846153,3990.256411,4012.820512
113,4367.179487,4408.717948,4526.666666,4275.384615,4484.102564,4177.948717,4443.589743,4203.589743,4241.538461,4484.615384,4203.589743,4422.564102,3970.256411,4000.512820
114,4366.666666,4418.974358,4518.461538,4280.000000,4479.487179,4173.333333,4430.256410,4185.641025,4222.051282,4471.794871,4202.564102,4416.410256,3958.974359,3992.307693
115,4368.717948,4415.897435,4521.025641,4281.025641,4482.051282,4173.846153,4428.205128,4181.538461,4226.153846,4475.384615,4208.205128,4416.923076,3962.051283,3990.769231
116,4365.128205,4405.641025,4520.512820,4274.871794,4482.051282,4171.282051,4431.794871,4181.025641,4230.769230,4480.512820,4200.000000,4414.358974,3963.589744,3988.717949
117,4366.153846,4407.692307,4518.461538,4276.923076,4478.974358,4172.820512,4436.923076,4187.179487,4236.410256,4484.102564,4191.282051,4416.410256,3968.205129,3990.256411
118,4370.256410,4411.282051,4522.051282,4281.025641,4477.435897,4175.897435,4441.538461,4201.538461,4246.153846,4485.128205,4192.307692,4426.153846,3967.692308,3991.794872
119,4368.205128,4407.179487,4523.076923,4278.974358,4476.410256,4174.871794,4438.974358,4204.615384,4242.564102,4482.564102,4193.333333,4432.820512,3958.461539,3988.205129
120,4369.230769,4403.076923,4523.076923,4276.923076,4478.461538,4176.410256,4437.435897,4203.076923,4236.410256,4481.025641,4201.538461,4429.743589,3961.025642,3990.769231
121,4375.897435,4400.000000,4530.256410,4281.538461,4481.538461,4180.512820,4444.102564,4212.307692,4250.769230,4490.256410,4215.384615,4427.179487,3975.384616,4000.000000
122,4378.461538,4401.025641,4532.307692,4284.102564,4482.051282,4182.051282,4447.179487,4215.897435,4264.102564,4500.000000,4218.461538,4426.153846,3984.102565,4000.000000
123,4371.282051,4400.512820,4524.102564,4280.000000,4484.102564,4182.564102,4442.564102,4203.589743,4250.256410,4488.205128,4208.717948,4413.333333,3976.923077,3991.282052
124,4367.179487,4398.974358,4520.512820,4278.461538,4488.205128,4183.589743,4437.435897,4190.256410,4232.307692,4471.282051,4198.461538,4398.461538,3966.153847,3989.743590
125,4370.769230,4401.025641,4523.076923,4284.102564,4486.153846,4181.025641,4434.358974,4184.615384,4229.230769,4473.333333,4193.846153,4400.512820,3968.717949,3993.333334
126,4366.153846,4398.974358,4522.564102,4284.102564,4486.153846,4178.461538,4432.820512,4181.538461,4230.769230,4480.000000,4193.846153,4406.153846,3971.794872,3990.769231
127,4360.512820,4397.435897,4520.512820,4278.974358,4491.794871,4178.974358,4430.769230,4182.564102,4230.256410,4477.435897,4196.410256,4402.051282,3965.128206,3987.692308
128,4368.717948,4398.974358,4525.128205,4283.076923,4489.743589,4181.025641,4434.358974,4197.435897,4240.000000,4482.564102,4202.051282,4403.076923,3963.589744,3993.333334
129,4379.487179,4395.384615,4529.743589,4287.692307,4483.076923,4180.512820,4446.153846,4213.846153,4257.435897,4495.384615,4210.256410,4413.846153,3977.948718,4002.051282
130,4376.410256,4387.179487,4527.179487,4281.538461,4478.974358,4178.974358,4450.256410,4214.358974,4259.487179,4496.923076,4215.897435,4415.384615,3984.102565,4007.179487
131,4368.205128,4380.000000,4521.025641,4277.948717,4475.384615,4174.871794,4442.051282,4198.461538,4240.000000,4485.128205,4207.692307,4410.256410,3969.230770,4003.076923
132,4366.153846,4373.333333,4520.512820,4280.000000,4475.384615,4170.256410,4432.820512,4186.666666,4225.128205,4473.333333,4195.384615,4410.769230,3956.410257,3995.384616
133,4367.692307,4373.333333,4522.564102,4278.461538,4482.051282,4172.307692,4433.333333,4188.717948,4230.769230,4476.410256,4195.897435,4412.307692,3961.538462,3998.461539
134,4369.743589,4381.538461,4523.076923,4281.538461,4485.641025,4173.846153,4433.333333,4191.794871,4240.000000,4486.153846,4208.717948,4415.384615,3972.820513,4008.205128
135,4371.794871,4383.589743,4523.076923,4290.769230,4479.487179,4166.153846,4423.589743,4188.717948,4237.948717,4483.076923,4205.128205,4416.923076,3969.230770,4006.666666
136,4375.384615,4383.076923,4523.076923,4289.743589,4474.871794,4161.025641,4418.974358,4187.179487,4231.794871,4476.923076,4193.846153,4413.333333,3956.923077,4002.051282
137,4376.410256,4386.666666,4523.589743,4281.538461,4476.923076,4167.692307,4429.743589,4192.307692,4234.358974,4483.076923,4201.025641,4414.358974,3956.923077,4006.153846
138,4373.846153,4391.794871,4525.641025,4281.025641,4479.487179,4175.897435,4444.102564,4197.948717,4241.538461,4491.282051,4205.128205,4424.615384,3969.743590,4010.769230
139,4376.410256,4392.820512,4524.615384,4281.538461,4481.538461,4175.384615,4444.615384,4196.923076,4237.435897,4486.666666,4196.923076,4427.179487,3975.384616,4009.743589
140,4378.974358,4390.256410,4521.025641,4278.461538,4479.487179,4170.256410,4436.410256,4190.256410,4227.179487,4480.512820,4196.410256,4416.410256,3973.846154,4006.153846
141,4372.307692,4387.692307,4519.487179,4276.923076,4472.820512,4166.666666,4432.307692,4183.589743,4224.102564,4477.948717,4201.025641,4411.794871,3970.256411,4001.025641
142,4364.615384,4387.179487,4519.487179,4269.230769,4472.820512,4168.205128,4431.282051,4184.102564,4231.282051,4479.487179,4204.102564,4415.384615,3969.230770,3997.435898
143,4368.717948,4388.205128,4519.487179,4266.153846,4475.384615,4167.692307,4432.307692,4191.282051,4238.974358,4484.615384,4205.641025,4420.000000,3980.512821,3999.487180
144,4378.974358,4393.333333,4522.051282,4275.384615,4474.358974,4168.205128,4434.871794,4198.461538,4240.512820,4488.717948,4204.615384,4425.641025,3990.256411,4005.128205
145,4378.974358,4402.051282,4525.128205,4275.384615,4478.461538,4173.846153,4436.923076,4202.564102,4235.897435,4492.820512,4202.564102,4429.230769,3986.153847,4006.153846
146,4373.846153,4403.076923,4524.615384,4269.230769,4483.589743,4174.358974,4436.923076,4206.666666,4240.000000,4498.461538,4208.717948,4427.179487,3988.717949,4000.512820
147,4375.384615,4402.051282,4523.589743,4275.897435,4478.974358,4170.769230,4436.923076,4210.256410,4252.820512,4496.410256,4213.846153,4428.717948,3999.487180,4002.051282
148,4379.487179,4403.076923,4524.102564,4281.538461,4473.846153,4170.769230,4435.897435,4209.230769,4253.333333,4486.153846,4214.871794,4430.769230,3998.974359,4010.256410
149,4375.384615,4397.948717,4523.076923,4267.692307,4477.435897,4173.846153,4436.923076,4204.102564,4246.666666,4486.153846,4214.358974,4428.717948,3996.923077,4008.205128
150,4369.743589,4392.820512,4521.025641,4253.846153,4475.897435,4172.820512,4442.051282,4201.538461,4243.589743,4492.307692,4212.307692,4427.692307,3999.487180,3999.487180
151,4368.717948,4391.794871,4520.512820,4252.820512,4468.205128,4170.769230,4446.153846,4204.615384,4242.051282,4491.794871,4208.205128,4430.256410,3992.820513,3997.435898
152,4367.692307,4391.794871,4521.025641,4260.000000,4471.282051,4171.794871,4447.692307,4205.128205,4236.923076,4485.128205,4200.512820,4430.256410,3986.153847,3995.897436
153,4369.230769,4395.897435,4521.538461,4267.179487,4476.410256,4172.820512,4449.230769,4204.102564,4237.435897,4477.435897,4189.230769,4426.666666,3980.512821,3991.794872
154,4374.358974,4401.538461,4523.589743,4269.230769,4474.358974,4174.871794,4451.794871,4207.692307,4241.538461,4478.461538,4180.000000,4427.692307,3981.538462,3994.871795
155,4375.384615,4400.000000,4524.615384,4267.692307,4474.871794,4175.897435,4450.256410,4207.179487,4238.974358,4484.615384,4176.410256,4431.794871,3991.794872,3998.461539
156,4370.769230,4400.000000,4524.615384,4264.615384,4474.871794,4173.846153,4443.589743,4198.974358,4236.410256,4486.666666,4180.000000,4432.307692,3995.384616,3991.282052
157,4367.179487,4399.487179,4523.589743,4262.051282,4471.794871,4171.794871,4438.974358,4197.948717,4235.384615,4483.076923,4187.179487,4428.205128,3990.769231,3983.589744
158,4368.205128,4397.435897,4521.025641,4261.025641,4474.358974,4171.282051,4437.435897,4198.974358,4233.333333,4483.076923,4190.769230,4426.666666,3995.384616,3986.666667
159,4376.410256,4404.102564,4526.666666,4266.666666,4477.435897,4168.717948,4441.025641,4201.538461,4239.487179,4491.282051,4202.051282,4434.871794,4011.794871,3998.461539
160,4387.692307,4416.923076,4540.000000,4272.820512,4471.282051,4168.717948,4447.692307,4214.358974,4250.769230,4500.000000,4219.487179,4447.179487,4017.948717,4008.717948
161,4387.692307,4423.589743,4540.000000,4267.179487,4469.230769,4174.358974,4454.871794,4217.435897,4246.666666,4500.000000,4223.076923,4452.307692,4010.769230,4008.717948
162,4376.410256,4417.948717,4527.692307,4260.512820,4471.794871,4172.820512,4452.820512,4203.076923,4236.410256,4489.230769,4215.384615,4446.153846,4001.538461,3998.974359
163,4368.205128,4409.230769,4519.487179,4264.102564,4470.256410,4168.717948,4444.615384,4189.230769,4235.897435,4481.025641,4209.743589,4435.897435,3997.435898,3988.205129
164,4370.769230,4413.333333,4521.538461,4267.179487,4471.794871,4176.410256,4447.692307,4192.307692,4236.410256,4486.666666,4211.794871,4432.307692,3996.410257,3989.743590
165,4381.025641,4425.641025,4528.205128,4266.153846,4476.410256,4184.102564,4457.435897,4208.205128,4246.153846,4504.615384,4225.641025,4440.512820,4000.000000,4005.128205
166,4387.179487,4428.205128,4534.358974,4271.282051,4480.512820,4181.025641,4454.358974,4214.358974,4260.000000,4512.307692,4231.794871,4451.794871,4008.205128,4011.794871
167,4386.153846,4428.717948,4533.846153,4273.333333,4483.076923,4176.410256,4445.128205,4202.564102,4250.769230,4501.025641,4222.051282,4450.256410,4009.230769,4004.615384
168,4384.615384,4434.871794,4528.205128,4269.230769,4481.538461,4175.897435,4444.102564,4199.487179,4238.461538,4494.871794,4220.512820,4445.128205,4007.179487,4002.051282
169,4383.076923,4429.743589,4525.641025,4266.153846,4476.923076,4172.820512,4446.666666,4210.256410,4248.205128,4498.461538,4231.794871,4444.102564,4013.846153,4006.666666
170,4380.000000,4424.615384,4526.153846,4266.153846,4474.358974,4170.769230,4449.230769,4218.974358,4260.512820,4509.230769,4231.282051,4444.102564,4017.948717,4005.641025
171,4378.974358,4429.743589,4525.128205,4265.128205,4475.897435,4175.897435,4452.307692,4218.974358,4259.487179,4515.897435,4223.076923,4444.102564,4008.205128,4000.000000
172,4374.358974,4424.615384,4521.025641,4260.512820,4472.820512,4175.384615,4449.230769,4205.128205,4246.153846,4504.102564,4222.051282,4441.025641,3993.846154,3991.794872
173,4368.205128,4415.384615,4521.025641,4261.025641,4468.205128,4170.769230,4445.128205,4198.461538,4238.974358,4493.333333,4224.102564,4441.025641,3995.897436,3991.794872
174,4372.820512,4420.000000,4525.641025,4265.128205,4469.230769,4170.256410,4448.205128,4209.230769,4247.692307,4498.974358,4224.102564,4447.179487,4006.153846,4000.512820
175,4380.512820,4424.615384,4525.128205,4266.666666,4470.769230,4171.282051,4451.794871,4210.769230,4248.205128,4500.512820,4223.076923,4445.641025,4005.641025,4000.512820
176,4379.487179,4422.051282,4528.717948,4271.794871,4471.794871,4175.384615,4449.743589,4204.102564,4246.666666,4504.102564,4226.666666,4444.102564,4008.205128,3995.897436
177,4379.487179,4420.512820,4539.487179,4280.000000,4472.307692,4177.435897,4447.692307,4207.692307,4256.923076,4516.923076,4236.410256,4451.282051,4011.794871,3997.435898
178,4378.974358,4417.948717,4536.410256,4282.051282,4469.230769,4170.769230,4444.615384,4206.153846,4251.794871,4510.256410,4242.051282,4452.307692,4001.538461,3997.948718
179,4375.897435,4417.948717,4529.230769,4277.948717,4465.128205,4165.641025,4443.076923,4197.435897,4235.384615,4490.769230,4234.358974,4450.769230,3996.923077,3995.384616
180,4380.000000,4420.512820,4533.333333,4277.435897,4472.820512,4172.820512,4445.641025,4195.384615,4237.435897,4490.769230,4224.102564,4455.897435,4001.538461,4000.000000
181,4385.128205,4416.410256,4532.307692,4280.512820,4482.051282,4174.358974,4442.051282,4189.230769,4237.948717,4495.897435,4226.666666,4450.769230,3999.487180,4005.128205
182,4383.076923,4408.205128,4523.589743,4280.512820,4472.820512,4167.692307,4436.923076,4183.076923,4232.820512,4491.282051,4227.692307,4441.025641,3997.948718,4002.564102
183,4383.076923,4400.000000,4523.589743,4270.769230,4462.564102,4171.282051,4440.512820,4187.692307,4238.974358,4491.794871,4222.564102,4445.641025,3999.487180,3998.461539
184,4384.102564,4391.282051,4526.153846,4265.128205,4466.666666,4172.307692,4444.615384,4191.794871,4241.025641,4493.846153,4220.512820,4448.205128,3990.256411,3993.846154
185,4380.512820,4388.717948,4523.076923,4275.897435,4470.769230,4167.179487,4444.615384,4194.871794,4234.871794,4489.743589,4223.076923,4444.615384,3985.641026,3992.307693
186,4383.076923,4390.256410,4528.205128,4284.615384,4469.230769,4173.333333,4450.256410,4201.538461,4240.512820,4492.820512,4232.820512,4446.666666,4000.512820,3998.974359
187,4392.307692,4388.205128,4537.435897,4281.025641,4471.282051,4179.487179,4455.384615,4203.589743,4250.769230,4504.615384,4244.102564,4447.179487,4015.384615,4004.615384
188,4393.333333,4388.717948,4537.435897,4278.974358,4476.410256,4174.871794,4451.794871,4202.564102,4254.358974,4507.179487,4241.538461,4446.153846,4010.256410,4002.564102
189,4387.692307,4392.820512,4535.897435,4281.538461,4474.871794,4177.435897,4456.410256,4210.256410,4249.743589,4506.666666,4227.692307,4445.128205,3993.333334,3998.974359
190,4384.615384,4390.769230,4536.923076,4276.410256,4475.897435,4185.641025,4466.153846,4218.974358,4246.666666,4509.743589,4228.205128,4444.615384,3991.282052,3997.948718
191,4385.128205,4383.076923,4532.307692,4270.256410,4478.974358,4183.589743,4464.102564,4212.307692,4250.769230,4508.717948,4236.923076,4448.205128,4007.692307,4001.538461
192,4384.102564,4382.564102,4524.102564,4268.205128,4474.358974,4178.974358,4455.897435,4200.512820,4249.230769,4501.025641,4233.846153,4447.692307,4014.358974,4001.025641
193,4380.512820,4385.641025,4522.051282,4264.615384,4467.179487,4175.897435,4452.307692,4197.948717,4244.102564,4498.461538,4225.128205,4442.051282,4001.538461,3992.307693
194,4379.487179,4387.179487,4521.538461,4265.128205,4468.205128,4174.871794,4451.282051,4199.487179,4241.025641,4498.974358,4225.128205,4439.487179,3994.871795,3988.717949
195,4382.564102,4392.307692,4520.512820,4272.307692,4476.410256,4178.974358,4452.307692,4200.000000,4242.564102,4500.000000,4227.179487,4443.076923,4000.512820,3995.384616
196,4385.128205,4395.897435,4523.076923,4281.025641,4477.435897,4181.025641,4451.794871,4203.076923,4251.794871,4510.256410,4221.538461,4447.179487,4003.589743,3999.487180
197,4385.641025,4393.846153,4524.102564,4280.000000,4470.769230,4180.000000,4449.230769,4204.102564,4251.794871,4512.307692,4219.487179,4447.692307,4000.512820,3996.923077
198,4381.538461,4394.358974,4521.025641,4270.256410,4469.743589,4179.487179,4452.820512,4196.923076,4239.487179,4495.897435,4225.641025,4444.102564,3990.769231,3990.769231
199,4376.923076,4398.974358,4520.512820,4270.256410,4474.358974,4180.000000,4453.333333,4193.333333,4238.461538,4487.179487,4227.692307,4442.051282,3986.153847,3988.717949
200,4380.512820,4404.102564,4524.615384,4274.358974,4471.794871,4178.974358,4447.179487,4196.410256,4243.589743,4494.871794,4223.076923,4444.102564,3993.333334,3993.846154
201,4384.615384,4407.692307,4525.641025,4271.282051,4462.564102,4174.871794,4447.179487,4198.974358,4239.487179,4502.564102,4220.000000,4448.205128,3999.487180,3997.948718
202,4389.230769,4413.846153,4530.256410,4273.846153,4465.128205,4173.333333,4452.820512,4206.153846,4243.076923,4508.205128,4224.102564,4455.897435,4002.051282,3997.435898
203,4393.333333,4416.923076,4538.461538,4278.974358,4470.256410,4179.487179,4453.846153,4209.743589,4251.794871,4510.769230,4228.717948,4465.128205,4005.641025,4000.512820
204,4391.282051,4414.358974,4533.846153,4270.769230,4468.205128,4180.512820,4452.307692,4206.666666,4251.794871,4507.179487,4227.692307,4463.076923,4003.589743,4003.589743
205,4386.153846,4415.384615,4528.205128,4269.743589,4468.205128,4177.435897,4455.384615,4206.153846,4252.307692,4502.051282,4224.102564,4456.923076,3994.871795,4000.512820
206,4388.205128,4421.538461,4533.846153,4282.051282,4474.358974,4185.641025,4460.000000,4207.179487,4253.333333,4499.487179,4222.051282,4456.923076,3993.333334,3997.435898
207,4393.846153,4423.589743,4537.435897,4281.025641,4478.974358,4190.769230,4462.051282,4206.666666,4248.717948,4500.512820,4223.076923,4459.487179,3990.769231,3995.384616
208,4394.871794,4425.641025,4534.358974,4276.923076,4481.025641,4186.153846,4464.615384,4211.282051,4245.641025,4504.102564,4229.230769,4461.538461,3985.128206,3995.384616
209,4394.871794,4429.230769,4536.410256,4282.564102,4480.512820,4187.179487,4465.641025,4216.923076,4249.230769,4503.076923,4230.256410,4461.538461,3989.743590,3995.384616
210,4395.897435,4426.153846,4538.974358,4281.025641,4474.358974,4190.769230,4466.153846,4214.871794,4253.846153,4500.512820,4226.153846,4461.025641,3997.435898,3993.846154
211,4395.897435,4428.717948,4535.384615,4275.897435,4474.871794,4191.282051,4468.717948,4217.435897,4256.410256,4506.666666,4228.205128,4467.179487,3998.974359,3994.358975
212,4394.358974,4432.307692,4535.384615,4277.948717,4477.435897,4186.666666,4467.179487,4222.051282,4255.384615,4512.820512,4228.205128,4476.410256,4000.000000,3994.358975
213,4391.794871,4423.589743,4535.897435,4276.923076,4467.179487,4180.512820,4463.076923,4217.948717,4253.846153,4510.769230,4230.256410,4473.846153,4002.051282,3994.358975
214,4391.794871,4419.487179,4529.743589,4268.205128,4460.000000,4179.487179,4462.051282,4212.820512,4252.307692,4506.666666,4235.384615,4465.641025,3998.974359,3995.384616
215,4391.282051,4422.564102,4526.153846,4268.205128,4468.205128,4182.564102,4462.051282,4210.769230,4247.692307,4502.564102,4228.205128,4455.384615,3996.923077,3993.333334
216,4391.282051,4422.564102,4533.333333,4277.435897,4473.333333,4184.102564,4462.564102,4213.846153,4249.230769,4505.641025,4232.307692,4446.666666,4003.589743,3994.871795
217,4394.358974,4427.179487,4541.025641,4281.025641,4469.743589,4189.230769,4467.179487,4217.948717,4258.461538,4515.897435,4252.820512,4452.307692,4012.307692,4004.102564
218,4397.948717,4435.384615,4540.512820,4283.589743,4472.307692,4193.333333,4468.717948,4216.923076,4258.461538,4518.974358,4251.794871,4457.435897,4016.410256,4008.205128
219,4396.923076,4437.435897,4538.461538,4287.692307,4478.974358,4190.769230,4464.102564,4214.358974,4250.256410,4512.820512,4235.897435,4446.666666,4008.717948,4000.000000
220,4384.615384,4429.230769,4535.897435,4283.076923,4476.923076,4188.717948,4459.487179,4212.307692,4250.256410,4505.128205,4228.205128,4435.384615,3987.692308,3986.666667
221,4374.871794,4419.487179,4531.794871,4276.923076,4472.820512,4186.666666,4461.538461,4213.846153,4255.384615,4504.102564,4229.230769,4438.461538,3980.512821,3983.076924
222,4386.153846,4423.589743,4534.871794,4281.025641,4473.333333,4182.051282,4463.589743,4213.846153,4254.358974,4509.743589,4232.307692,4444.102564,3996.410257,3993.333334
223,4396.923076,4436.923076,4541.025641,4283.589743,4469.230769,4177.948717,4456.923076,4205.641025,4246.153846,4512.820512,4231.282051,4443.589743,4004.615384,3999.487180
224,4391.282051,4438.461538,4540.000000,4280.000000,4466.153846,4174.871794,4449.743589,4197.948717,4239.487179,4506.666666,4230.256410,4443.076923,4001.025641,3995.897436
225,4392.820512,4433.846153,4542.564102,4284.615384,4475.384615,4177.948717,4452.307692,4200.000000,4247.179487,4503.076923,4242.564102,4449.743589,4004.102564,3997.435898
226,4402.564102,4438.461538,4551.282051,4290.769230,4476.410256,4182.051282,4452.820512,4203.589743,4254.871794,4507.179487,4252.820512,4458.974358,4003.076923,4002.564102
227,4404.615384,4444.102564,4553.846153,4291.794871,4464.615384,4179.487179,4451.282051,4205.641025,4253.846153,4512.307692,4254.871794,4461.538461,4001.025641,4006.153846
228,4406.153846,4444.102564,4555.384615,4297.435897,4467.692307,4182.051282,4462.564102,4217.948717,4262.051282,4518.974358,4264.102564,4461.538461,4011.282051,4013.846153
229,4406.666666,4437.435897,4556.410256,4301.538461,4478.974358,4192.307692,4468.717948,4222.051282,4266.153846,4517.435897,4258.461538,4457.435897,4010.769230,4012.307692
230,4397.435897,4431.282051,4542.564102,4292.307692,4476.923076,4188.717948,4457.948717,4208.205128,4248.205128,4501.025641,4235.897435,4446.666666,3988.205129,3999.487180
231,4393.846153,4437.435897,4534.871794,4287.692307,4473.333333,4183.076923,4455.897435,4200.000000,4241.025641,4496.410256,4237.435897,4448.205128,3983.076924,4000.000000
232,4401.538461,4440.512820,4546.153846,4296.410256,4477.435897,4187.179487,4462.051282,4206.153846,4252.307692,4511.282051,4263.589743,4461.025641,4001.025641,4010.769230
233,4400.000000,4429.743589,4548.717948,4296.923076,4478.974358,4186.666666,4461.025641,4213.333333,4250.256410,4512.820512,4269.743589,4460.000000,4003.076923,4008.717948
234,4392.307692,4424.615384,4538.461538,4289.230769,4473.333333,4184.102564,4458.974358,4214.871794,4247.692307,4496.410256,4246.666666,4448.205128,3988.205129,3997.435898
235,4392.820512,4429.743589,4538.974358,4289.743589,4468.205128,4186.666666,4458.461538,4214.871794,4254.358974,4497.948717,4233.333333,4438.461538,3985.641026,3993.846154
236,4394.358974,4428.205128,4541.538461,4294.358974,4471.282051,4182.564102,4454.871794,4213.846153,4250.769230,4512.820512,4245.641025,4424.615384,3997.948718,3999.487180
237,4397.435897,4429.230769,4541.025641,4290.256410,4475.897435,4177.435897,4455.897435,4214.871794,4248.205128,4518.974358,4255.897435,4416.923076,4008.717948,4006.666666
238,4404.102564,4441.025641,4549.743589,4289.230769,4473.333333,4181.538461,4461.538461,4220.000000,4258.461538,4516.410256,4249.230769,4422.051282,4004.102564,4008.717948
239,4402.051282,4441.025641,4553.333333,4293.846153,4472.820512,4183.076923,4462.051282,4216.410256,4257.435897,4507.179487,4243.589743,4420.512820,3991.282052,4003.589743
240,4392.307692,4425.128205,4540.512820,4288.717948,4475.384615,4180.512820,4456.923076,4203.076923,4246.153846,4499.487179,4243.589743,4406.666666,3985.128206,3996.923077
241,4386.666666,4418.461538,4535.897435,4279.487179,4470.769230,4181.025641,4455.384615,4197.948717,4240.000000,4495.897435,4243.076923,4397.435897,3983.589744,3988.205129
242,4383.076923,4422.051282,4534.871794,4275.384615,4462.051282,4175.384615,4455.897435,4202.564102,4236.410256,4490.769230,4238.974358,4396.410256,3981.025642,3981.025642
243,4381.538461,4421.025641,4527.179487,4269.230769,4457.948717,4171.794871,4454.358974,4201.025641,4235.897435,4485.128205,4229.230769,4397.948717,3984.615385,3983.076924
244,4385.641025,4417.948717,4531.794871,4265.128205,4457.435897,4175.897435,4454.358974,4197.948717,4238.461538,4485.641025,4228.717948,4404.102564,3991.282052,3993.333334
245,4385.128205,4419.487179,4543.076923,4273.333333,4457.948717,4180.000000,4458.461538,4202.051282,4241.025641,4494.871794,4235.384615,4406.153846,3987.692308,3995.384616
246,4381.025641,4421.538461,4538.974358,4275.384615,4462.051282,4181.025641,4462.051282,4202.051282,4239.487179,4499.487179,4231.282051,4402.564102,3983.076924,3984.615385
247,4385.641025,4426.666666,4537.435897,4272.820512,4468.205128,4185.128205,4462.051282,4200.000000,4236.410256,4497.948717,4228.717948,4405.641025,3994.871795,3985.641026
248,4401.025641,4435.897435,4553.846153,4283.589743,4473.333333,4191.794871,4467.179487,4208.205128,4245.128205,4503.589743,4246.153846,4418.461538,4014.871794,4004.102564
249,4411.794871,4442.564102,4565.128205,4291.282051,4476.410256,4193.846153,4470.769230,4219.487179,4263.589743,4516.923076,4256.410256,4428.717948,4025.128205,4013.846153
250,4410.256410,4444.615384,4560.512820,4284.102564,4478.461538,4192.820512,4465.128205,4218.974358,4264.615384,4521.025641,4257.435897,4429.743589,4027.692307,4009.743589
251,4406.666666,4444.615384,4554.358974,4275.384615,4477.435897,4191.794871,4462.051282,4213.846153,4250.256410,4514.358974,4260.000000,4429.230769,4027.179487,4007.692307
252,4405.128205,4441.025641,4552.820512,4279.487179,4473.846153,4191.282051,4466.153846,4213.333333,4245.641025,4510.256410,4248.205128,4433.846153,4024.102564,4009.230769
253,4406.666666,4438.461538,4560.000000,4284.102564,4473.846153,4192.307692,4471.282051,4215.384615,4256.410256,4513.333333,4234.358974,4443.076923,4025.641025,4008.717948
254,4409.743589,4441.025641,4569.230769,4283.589743,4475.897435,4195.384615,4472.307692,4217.435897,4265.128205,4517.435897,4236.923076,4446.153846,4030.256410,4008.717948
255,4411.282051,4439.487179,4563.589743,4280.512820,4476.923076,4194.871794,4471.282051,4216.923076,4262.564102,4514.871794,4238.461538,4439.487179,4029.230769,4005.641025
256,4408.205128,4437.435897,4553.333333,4277.948717,4478.974358,4193.333333,4471.282051,4216.923076,4256.410256,4510.256410,4234.871794,4436.923076,4023.589743,4001.025641
257,4405.128205,4443.076923,4556.410256,4279.487179,4478.461538,4196.410256,4472.820512,4217.948717,4256.923076,4514.871794,4236.923076,4441.538461,4019.487179,4005.128205
258,4408.717948,4447.179487,4559.487179,4285.641025,4482.051282,4199.487179,4471.794871,4220.000000,4257.435897,4518.461538,4245.128205,4446.153846,4018.974358,4009.230769
259,4407.692307,4441.025641,4554.358974,4288.717948,4485.128205,4194.871794,4467.179487,4214.871794,4251.794871,4504.102564,4252.307692,4442.051282,4020.512820,4002.051282
