,AF3,F7,F3,FC5,T7,P7,O1,O2,P8,T8,FC6,F4,F8,AF4
0,4398.974358,4548.205128,4522.051282,4266.153846,4505.128205,4184.102564,4448.717948,4228.717948,4245.128205,4535.384615,4215.384615,4659.487179,4010.256410,4073.846153
1,4396.923076,4551.282051,4515.384615,4258.974358,4502.564102,4183.589743,4446.153846,4216.410256,4228.205128,4520.000000,4212.307692,4656.410256,4006.153846,4073.333333
2,4393.846153,4553.846153,4514.871794,4250.256410,4501.538461,4182.564102,4442.564102,4214.358974,4219.487179,4518.974358,4213.846153,4656.410256,3997.435898,4067.692307
3,4392.820512,4551.282051,4519.487179,4252.820512,4502.564102,4183.076923,4443.076923,4217.435897,4220.512820,4522.564102,4215.384615,4655.384615,3992.820513,4062.564102
4,4396.410256,4551.282051,4527.692307,4266.153846,4502.051282,4183.589743,4444.102564,4218.974358,4228.205128,4520.512820,4220.000000,4660.512820,3997.435898,4069.230769
5,4399.487179,4553.333333,4531.794871,4269.743589,4497.948717,4182.051282,4443.589743,4221.025641,4236.410256,4521.538461,4208.717948,4664.102564,4003.589743,4077.435897
6,4401.025641,4554.871794,4527.179487,4261.025641,4497.948717,4180.512820,4441.025641,4222.051282,4233.846153,4521.025641,4197.435897,4658.461538,3998.461539,4072.820512
7,4401.538461,4553.846153,4526.153846,4263.076923,4503.589743,4182.564102,4439.487179,4221.538461,4223.589743,4519.487179,4214.358974,4654.358974,3994.358975,4067.179487
8,4398.461538,4553.333333,4524.615384,4269.743589,4505.128205,4185.641025,4437.435897,4220.000000,4221.025641,4522.051282,4223.076923,4652.820512,3998.974359,4063.589743
9,4393.333333,4551.282051,4516.923076,4256.923076,4500.512820,4182.564102,4430.769230,4216.923076,4222.564102,4524.102564,4202.564102,4649.230769,3998.461539,4054.358974
10,4392.820512,4544.615384,4511.794871,4247.179487,4498.461538,4178.974358,4426.666666,4216.923076,4227.179487,4525.128205,4194.358974,4645.641025,3984.615385,4050.769230
11,4394.871794,4545.128205,4517.948717,4263.589743,4501.538461,4183.076923,4435.897435,4220.000000,4231.794871,4521.025641,4212.307692,4647.179487,3980.512821,4060.512820
12,4396.410256,4554.871794,4525.128205,4277.435897,4509.743589,4189.743589,4444.102564,4222.051282,4228.205128,4518.461538,4217.435897,4650.256410,3998.974359,4067.692307
13,4397.948717,4549.743589,4523.589743,4269.230769,4510.256410,4189.743589,4440.000000,4219.487179,4225.128205,4527.179487,4203.589743,4650.769230,4002.051282,4061.538461
14,4393.333333,4533.333333,4517.435897,4256.923076,4504.615384,4185.641025,4431.794871,4215.384615,4227.179487,4525.641025,4193.333333,4647.692307,3982.564103,4055.384615
15,4389.743589,4539.487179,4516.410256,4254.358974,4505.128205,4184.615384,4431.282051,4215.384615,4226.153846,4514.871794,4194.871794,4644.615384,3981.538462,4056.410256
16,4393.333333,4554.871794,4522.051282,4265.128205,4506.666666,4184.615384,4437.435897,4215.384615,4226.666666,4516.923076,4206.666666,4647.179487,3999.487180,4060.000000
17,4397.435897,4547.692307,4527.692307,4274.871794,4505.641025,4185.128205,4443.076923,4212.307692,4228.205128,4518.974358,4214.358974,4651.794871,3997.435898,4063.589743
18,4397.435897,4538.461538,4528.205128,4266.666666,4506.666666,4188.205128,4442.564102,4210.256410,4223.589743,4517.435897,4205.641025,4652.307692,3985.128206,4065.641025
19,4396.923076,4548.205128,4528.717948,4260.000000,4510.769230,4188.717948,4439.487179,4213.846153,4222.051282,4525.128205,4201.538461,4652.307692,3990.769231,4065.128205
20,4398.974358,4557.948717,4532.307692,4265.641025,4513.846153,4189.743589,4442.051282,4218.461538,4232.307692,4528.717948,4214.358974,4657.435897,4002.051282,4067.179487
21,4404.102564,4556.923076,4534.358974,4268.717948,4509.743589,4194.358974,4444.102564,4218.461538,4236.923076,4530.256410,4219.487179,4660.512820,4004.102564,4070.769230
22,4405.641025,4549.230769,4533.333333,4269.230769,4507.179487,4193.846153,4438.461538,4218.461538,4235.384615,4533.333333,4209.230769,4659.487179,4004.102564,4070.256410
23,4401.538461,4546.153846,4532.820512,4267.179487,4508.205128,4187.179487,4434.358974,4218.974358,4234.358974,4530.769230,4208.205128,4659.487179,4005.128205,4070.769230
24,4397.948717,4550.769230,4530.256410,4264.102564,4508.205128,4184.615384,4434.358974,4215.384615,4227.692307,4525.641025,4216.923076,4656.410256,3997.948718,4068.205128
25,4398.461538,4547.692307,4529.743589,4269.230769,4505.128205,4185.641025,4431.794871,4214.358974,4228.205128,4526.153846,4221.025641,4655.384615,3997.435898,4063.076923
26,4398.974358,4537.435897,4532.307692,4268.205128,4503.589743,4184.102564,4426.666666,4216.410256,4232.307692,4526.153846,4218.461538,4658.461538,4007.179487,4066.153846
27,4400.512820,4545.128205,4535.897435,4258.974358,4505.641025,4184.102564,4429.230769,4216.923076,4231.794871,4532.307692,4217.435897,4663.076923,4006.153846,4073.846153
28,4409.230769,4560.512820,4535.897435,4265.641025,4507.179487,4186.666666,4433.846153,4218.974358,4232.307692,4543.076923,4221.025641,4663.076923,4003.589743,4074.871794
29,4410.769230,4552.307692,4532.307692,4281.538461,4506.153846,4184.615384,4431.282051,4221.025641,4234.358974,4540.000000,4218.461538,4658.461538,4009.743589,4068.717948
30,4401.538461,4539.487179,4531.282051,4277.948717,4505.641025,4183.589743,4428.205128,4218.461538,4233.333333,4533.846153,4213.333333,4657.948717,4004.615384,4065.128205
31,4399.487179,4549.743589,4533.333333,4264.102564,4504.615384,4183.589743,4433.333333,4218.461538,4235.897435,4537.435897,4220.000000,4663.076923,3995.384616,4069.743589
32,4404.615384,4556.410256,4534.871794,4262.051282,4504.615384,4187.179487,4441.538461,4222.564102,4241.025641,4540.000000,4233.846153,4666.153846,4005.128205,4080.000000
33,4401.025641,4544.102564,4531.282051,4267.179487,4508.717948,4188.717948,4444.615384,4221.025641,4236.923076,4529.743589,4232.307692,4662.051282,4006.666666,4076.410256
34,4394.358974,4538.461538,4526.666666,4267.179487,4509.230769,4185.128205,4440.512820,4216.923076,4229.743589,4517.948717,4207.179487,4654.871794,3990.769231,4060.512820
35,4394.871794,4551.282051,4528.205128,4266.153846,4504.102564,4183.589743,4436.410256,4218.461538,4225.128205,4521.538461,4197.435897,4652.307692,3987.692308,4058.461538
36,4397.948717,4554.871794,4530.769230,4264.615384,4505.128205,4186.153846,4438.974358,4218.461538,4225.128205,4531.282051,4215.384615,4654.358974,3994.358975,4064.102564
37,4396.410256,4546.666666,4527.692307,4262.051282,4508.205128,4187.179487,4442.051282,4215.897435,4225.128205,4526.153846,4218.974358,4655.384615,3992.820513,4060.512820
38,4391.794871,4546.666666,4523.076923,4263.076923,4505.641025,4185.128205,4440.000000,4215.384615,4222.051282,4513.333333,4205.128205,4650.769230,3992.820513,4054.871794
39,4392.820512,4550.256410,4526.153846,4269.743589,4504.102564,4186.153846,4439.487179,4217.435897,4223.589743,4514.358974,4210.256410,4649.743589,3997.948718,4056.410256
40,4399.487179,4551.282051,4527.179487,4268.717948,4507.179487,4186.153846,4437.948717,4218.461538,4225.128205,4525.128205,4216.923076,4650.256410,3990.769231,4058.974358
41,4398.461538,4553.846153,4523.076923,4262.051282,4509.743589,4186.666666,4431.282051,4215.897435,4220.512820,4526.666666,4210.256410,4649.230769,3984.615385,4060.512820
42,4396.410256,4554.871794,4525.641025,4262.564102,4509.230769,4190.769230,4429.230769,4214.358974,4222.564102,4520.000000,4210.256410,4651.282051,3999.487180,4063.589743
43,4398.461538,4547.179487,4528.717948,4269.230769,4508.717948,4189.743589,4430.769230,4216.923076,4233.846153,4521.538461,4216.923076,4651.794871,4008.717948,4065.128205
44,4398.461538,4545.128205,4526.666666,4265.641025,4509.230769,4186.153846,4432.820512,4217.948717,4235.384615,4527.179487,4219.487179,4651.794871,3992.820513,4062.564102
45,4392.307692,4554.358974,4524.102564,4252.307692,4505.641025,4184.615384,4436.410256,4216.410256,4228.717948,4526.666666,4211.794871,4649.743589,3983.589744,4054.358974
46,4390.769230,4550.256410,4521.025641,4253.333333,4504.102564,4184.102564,4436.923076,4217.435897,4228.205128,4526.666666,4205.128205,4646.153846,3994.871795,4050.256410
47,4392.820512,4536.410256,4515.897435,4268.205128,4508.205128,4185.128205,4433.846153,4215.897435,4226.666666,4523.076923,4214.358974,4647.692307,3997.435898,4057.948717
48,4390.256410,4537.435897,4515.897435,4262.051282,4504.615384,4183.076923,4431.282051,4215.897435,4228.205128,4520.000000,4217.948717,4650.769230,3989.230770,4060.000000
49,4385.128205,4540.512820,4518.461538,4243.589743,4500.512820,4182.051282,4434.358974,4223.589743,4235.897435,4527.692307,4208.717948,4651.282051,3987.692308,4053.333333
50,4385.128205,4535.384615,4518.461538,4251.794871,4498.974358,4177.948717,4436.410256,4223.589743,4233.333333,4527.179487,4211.282051,4649.743589,3986.666667,4055.384615
51,4387.692307,4534.871794,4518.461538,4265.128205,4496.410256,4175.897435,4433.333333,4217.948717,4219.487179,4515.384615,4210.256410,4648.205128,3982.051283,4060.512820
52,4382.051282,4537.948717,4518.461538,4255.384615,4499.487179,4177.948717,4430.769230,4214.871794,4213.846153,4515.384615,4192.307692,4646.153846,3977.948718,4049.230769
53,4376.923076,4535.897435,4518.974358,4241.025641,4501.538461,4174.871794,4429.230769,4206.153846,4216.410256,4515.897435,4198.461538,4645.128205,3973.333334,4039.487179
54,4386.666666,4537.435897,4523.589743,4246.666666,4502.564102,4176.410256,4429.743589,4203.076923,4215.384615,4512.820512,4223.589743,4652.820512,3977.948718,4052.820512
55,4395.897435,4546.153846,4531.794871,4262.564102,4502.564102,4182.564102,4437.948717,4214.358974,4216.923076,4522.051282,4214.871794,4660.000000,3990.769231,4064.102564
56,4388.717948,4544.615384,4531.282051,4263.076923,4498.461538,4178.974358,4446.153846,4216.923076,4218.461538,4518.461538,4188.205128,4652.307692,3980.000000,4052.820512
57,4377.435897,4531.794871,4522.564102,4248.205128,4497.435897,4175.384615,4442.564102,4206.666666,4212.820512,4503.589743,4188.205128,4642.564102,3961.025642,4041.025641
58,4381.538461,4531.794871,4519.487179,4243.589743,4502.564102,4181.538461,4442.564102,4204.615384,4210.256410,4512.307692,4203.589743,4647.179487,3969.230770,4044.102564
59,4389.743589,4542.564102,4521.025641,4250.769230,4504.102564,4184.102564,4445.128205,4210.256410,4213.333333,4520.000000,4209.230769,4651.282051,3981.025642,4048.717948
60,4387.179487,4538.461538,4519.487179,4252.307692,4498.461538,4177.948717,4442.051282,4211.282051,4213.333333,4503.589743,4197.435897,4645.641025,3975.897436,4048.717948
61,4379.487179,4524.615384,4516.410256,4251.282051,4496.923076,4178.974358,4442.051282,4213.846153,4216.923076,4504.102564,4187.692307,4642.051282,3972.820513,4044.102564
62,4382.564102,4532.307692,4517.435897,4250.256410,4500.512820,4181.538461,4444.615384,4216.410256,4226.666666,4524.615384,4203.589743,4642.564102,3980.512821,4042.564102
63,4388.717948,4547.179487,4519.487179,4245.641025,4504.102564,4183.589743,4445.641025,4212.307692,4226.153846,4528.717948,4211.794871,4646.153846,3991.794872,4048.717948
64,4385.641025,4543.589743,4519.487179,4248.717948,4505.128205,4187.692307,4445.641025,4210.256410,4222.564102,4524.615384,4204.102564,4648.205128,3995.384616,4053.846153
65,4383.076923,4534.358974,4520.000000,4257.948717,4500.000000,4184.102564,4443.076923,4215.897435,4226.666666,4528.717948,4206.153846,4643.589743,3985.641026,4052.307692
66,4386.666666,4538.974358,4521.538461,4257.948717,4498.461538,4177.435897,4440.512820,4218.461538,4225.128205,4528.205128,4209.743589,4641.538461,3980.000000,4049.230769
67,4387.179487,4542.051282,4517.948717,4249.230769,4503.589743,4179.487179,4442.051282,4216.923076,4227.179487,4528.717948,4208.717948,4642.564102,3988.205129,4049.743589
68,4385.128205,4536.923076,4513.846153,4247.179487,4504.615384,4182.051282,4444.615384,4215.897435,4232.820512,4527.692307,4203.076923,4638.974358,3988.205129,4049.230769
69,4381.538461,4537.948717,4514.358974,4249.743589,4498.461538,4180.000000,4442.564102,4212.307692,4224.615384,4519.487179,4195.897435,4632.820512,3978.974359,4043.589743
70,4379.487179,4538.461538,4517.948717,4247.692307,4498.974358,4180.512820,4442.051282,4210.256410,4213.333333,4517.435897,4204.102564,4634.358974,3981.025642,4040.000000
71,4382.051282,4528.717948,4520.512820,4244.615384,4504.102564,4179.487179,4443.076923,4212.820512,4221.025641,4527.692307,4216.923076,4642.564102,3987.179488,4044.615384
72,4384.615384,4528.205128,4518.974358,4247.692307,4499.487179,4175.384615,4443.076923,4212.307692,4228.717948,4536.410256,4209.743589,4643.076923,3981.538462,4048.717948
73,4380.512820,4535.384615,4514.358974,4246.153846,4496.410256,4176.923076,4441.538461,4209.743589,4221.025641,4528.717948,4196.410256,4636.923076,3975.384616,4046.666666
74,4374.358974,4528.717948,4510.769230,4238.974358,4497.948717,4175.384615,4436.923076,4204.615384,4215.384615,4514.871794,4190.256410,4633.846153,3981.025642,4044.102564
75,4372.820512,4519.487179,4510.256410,4237.435897,4492.820512,4167.692307,4434.358974,4198.974358,4215.384615,4512.307692,4191.794871,4635.384615,3983.589744,4038.974358
76,4371.282051,4518.461538,4509.743589,4236.923076,4488.205128,4167.692307,4431.282051,4200.512820,4214.871794,4524.102564,4195.897435,4635.384615,3974.358975,4036.923076
77,4369.743589,4522.564102,4509.230769,4236.410256,4490.769230,4169.743589,4428.205128,4203.076923,4215.897435,4529.230769,4189.743589,4632.820512,3971.794872,4037.435897
78,4373.846153,4534.358974,4509.230769,4242.051282,4495.384615,4170.256410,4434.871794,4200.512820,4212.820512,4521.025641,4189.230769,4633.333333,3980.000000,4034.358974
79,4374.358974,4536.410256,4509.743589,4238.974358,4494.871794,4172.307692,4437.435897,4198.974358,4206.666666,4511.794871,4201.025641,4631.794871,3984.102565,4033.333333
80,4374.358974,4526.153846,4511.282051,4233.333333,4489.743589,4170.769230,4433.333333,4200.512820,4213.846153,4510.256410,4198.974358,4632.820512,3983.589744,4042.051282
81,4380.512820,4533.333333,4513.846153,4240.512820,4489.743589,4170.769230,4437.435897,4200.512820,4225.128205,4513.846153,4193.846153,4638.461538,3983.076924,4049.743589
82,4381.025641,4547.179487,4516.410256,4243.589743,4491.794871,4170.769230,4443.589743,4202.051282,4215.897435,4516.923076,4198.461538,4638.974358,3982.051283,4046.666666
83,4370.769230,4540.000000,4511.282051,4232.307692,4489.743589,4165.128205,4436.410256,4197.435897,4199.487179,4512.307692,4194.358974,4631.794871,3976.923077,4038.461538
84,4369.230769,4534.871794,4508.717948,4229.743589,4490.256410,4166.666666,4434.871794,4189.230769,4197.948717,4505.641025,4184.102564,4629.743589,3978.974359,4039.487179
85,4383.589743,4549.230769,4521.025641,4238.974358,4497.435897,4175.897435,4443.589743,4196.923076,4208.205128,4512.307692,4186.153846,4638.461538,3987.179488,4050.769230
86,4391.282051,4558.974358,4525.641025,4241.538461,4498.461538,4174.358974,4445.641025,4206.153846,4216.923076,4521.538461,4194.358974,4645.641025,3988.717949,4057.435897
87,4388.717948,4559.487179,4521.025641,4249.743589,4495.897435,4173.333333,4445.128205,4206.666666,4218.461538,4520.512820,4197.948717,4646.666666,3993.846154,4059.487179
88,4386.153846,4558.461538,4523.076923,4257.948717,4498.974358,4181.538461,4446.666666,4208.205128,4215.897435,4517.435897,4199.487179,4646.153846,4002.051282,4057.948717
89,4380.512820,4554.871794,4522.564102,4244.102564,4500.512820,4180.000000,4445.641025,4207.692307,4214.871794,4517.435897,4195.897435,4640.512820,3993.846154,4048.205128
90,4376.923076,4552.307692,4518.974358,4234.871794,4499.487179,4175.897435,4445.128205,4206.666666,4214.358974,4512.820512,4189.230769,4635.384615,3976.923077,4045.641025
91,4380.000000,4554.358974,4522.051282,4242.564102,4500.512820,4180.000000,4444.102564,4205.641025,4214.871794,4507.179487,4188.205128,4636.923076,3975.384616,4052.820512
92,4381.538461,4554.358974,4520.512820,4241.538461,4496.410256,4175.897435,4443.076923,4202.564102,4216.923076,4510.769230,4187.692307,4636.923076,3984.615385,4050.256410
93,4378.974358,4550.256410,4514.871794,4235.384615,4488.205128,4166.153846,4443.076923,4204.102564,4215.897435,4518.974358,4191.794871,4638.461538,3986.666667,4044.615384
94,4378.974358,4551.794871,4519.487179,4240.512820,4489.743589,4169.743589,4444.102564,4211.282051,4209.743589,4519.487179,4200.512820,4644.102564,3980.512821,4047.692307
95,4378.461538,4558.461538,4521.025641,4236.410256,4492.820512,4173.333333,4444.102564,4209.230769,4208.717948,4509.230769,4198.461538,4642.051282,3980.000000,4048.205128
96,4375.384615,4550.769230,4513.333333,4227.692307,4489.230769,4167.692307,4441.025641,4201.538461,4209.743589,4503.589743,4187.179487,4631.794871,3987.179488,4046.153846
97,4374.358974,4535.384615,4512.820512,4234.358974,4489.743589,4167.179487,4439.487179,4204.102564,4212.820512,4510.256410,4187.692307,4632.307692,3983.076924,4046.153846
98,4374.871794,4541.538461,4516.923076,4235.897435,4491.794871,4170.769230,4441.538461,4210.256410,4215.897435,4514.358974,4187.692307,4641.025641,3976.923077,4047.179487
99,4378.461538,4550.769230,4519.487179,4230.769230,4492.820512,4172.820512,4440.000000,4209.743589,4213.333333,4513.846153,4185.641025,4642.051282,3987.179488,4050.769230
100,4380.512820,4546.666666,4513.333333,4231.282051,4492.307692,4169.743589,4436.923076,4203.076923,4208.205128,4514.871794,4192.307692,4640.512820,3993.846154,4053.333333
101,4377.435897,4545.641025,4510.769230,4233.333333,4490.769230,4167.692307,4439.487179,4199.487179,4209.743589,4517.435897,4195.384615,4642.564102,3982.051283,4047.179487
102,4378.974358,4546.153846,4514.871794,4237.948717,4487.692307,4169.230769,4437.435897,4202.051282,4215.897435,4511.794871,4193.846153,4644.102564,3975.897436,4044.102564
103,4384.615384,4541.025641,4515.897435,4233.846153,4486.666666,4169.230769,4433.333333,4205.128205,4221.025641,4506.153846,4195.384615,4643.076923,3988.205129,4051.794871
104,4382.564102,4547.692307,4514.871794,4231.794871,4489.230769,4167.692307,4439.487179,4209.230769,4222.051282,4517.948717,4204.615384,4645.641025,4004.102564,4060.512820
105,4382.564102,4558.461538,4518.974358,4243.589743,4495.897435,4174.358974,4446.666666,4211.282051,4221.538461,4535.897435,4208.717948,4652.307692,4001.025641,4061.025641
106,4388.717948,4553.333333,4522.051282,4252.307692,4496.410256,4180.000000,4443.589743,4212.820512,4224.102564,4535.384615,4201.025641,4654.358974,3984.102565,4055.897435
107,4391.794871,4549.743589,4521.538461,4250.256410,4493.846153,4174.358974,4443.076923,4216.923076,4226.666666,4525.128205,4202.051282,4653.333333,3987.179488,4054.358974
108,4389.743589,4553.333333,4525.128205,4250.256410,4500.000000,4173.333333,4444.102564,4217.948717,4225.128205,4525.128205,4206.153846,4654.358974,4003.076923,4056.410256
109,4390.256410,4554.871794,4524.615384,4246.153846,4500.512820,4177.948717,4442.051282,4214.358974,4225.641025,4531.282051,4195.897435,4652.820512,4002.051282,4056.923076
110,4391.794871,4557.948717,4518.974358,4240.000000,4495.384615,4175.384615,4445.128205,4215.384615,4225.641025,4535.384615,4194.358974,4650.769230,3991.794872,4058.461538
111,4386.666666,4553.333333,4517.948717,4248.205128,4492.820512,4169.743589,4440.512820,4213.846153,4216.410256,4529.743589,4208.205128,4650.256410,3984.102565,4057.435897
112,4381.538461,4542.564102,4517.948717,4256.410256,4490.769230,4169.743589,4430.256410,4205.641025,4210.769230,4520.000000,4210.256410,4648.205128,3984.615385,4053.846153
113,4388.717948,4552.820512,4521.538461,4251.794871,4495.897435,4175.897435,4440.512820,4209.230769,4222.051282,4526.153846,4208.717948,4649.230769,3998.974359,4056.923076
114,4397.948717,4569.230769,4527.692307,4251.794871,4504.102564,4183.589743,4456.923076,4221.538461,4231.282051,4535.384615,4214.871794,4658.461538,4005.128205,4063.076923
115,4397.948717,4559.487179,4530.256410,4260.512820,4502.564102,4185.128205,4451.282051,4220.512820,4228.717948,4533.846153,4205.641025,4661.538461,3994.358975,4064.102564
116,4398.974358,4552.307692,4528.205128,4265.128205,4498.974358,4182.564102,4442.051282,4213.846153,4226.153846,4529.230769,4197.948717,4655.897435,4001.025641,4064.615384
117,4401.538461,4561.025641,4526.153846,4254.871794,4504.615384,4182.051282,4446.666666,4213.846153,4226.153846,4531.282051,4212.307692,4654.871794,4010.256410,4063.589743
118,4396.410256,4560.512820,4523.076923,4246.666666,4505.128205,4178.461538,4445.128205,4211.794871,4222.564102,4533.333333,4221.538461,4652.820512,3995.384616,4059.487179
119,4396.923076,4562.564102,4525.641025,4259.487179,4500.512820,4176.923076,4440.000000,4213.846153,4226.666666,4537.948717,4214.358974,4656.923076,3997.435898,4062.051282
120,4404.615384,4573.846153,4532.820512,4267.692307,4502.051282,4184.615384,4443.076923,4222.051282,4240.000000,4543.076923,4210.769230,4665.641025,4018.461538,4069.743589
121,4403.589743,4571.794871,4530.769230,4251.794871,4502.564102,4185.641025,4443.076923,4218.461538,4236.923076,4536.410256,4222.564102,4660.000000,4017.435897,4071.794871
122,4397.435897,4565.641025,4526.666666,4245.128205,4499.487179,4173.846153,4440.000000,4213.333333,4221.025641,4527.692307,4230.256410,4651.282051,4003.589743,4066.153846
123,4392.307692,4563.589743,4524.615384,4253.333333,4500.000000,4172.820512,4442.051282,4216.410256,4220.000000,4529.743589,4213.846153,4653.846153,3991.794872,4056.923076
124,4387.179487,4555.384615,4518.461538,4251.794871,4501.025641,4180.000000,4443.589743,4211.794871,4227.692307,4532.307692,4191.794871,4653.333333,3983.076924,4052.307692
125,4386.666666,4551.794871,4516.410256,4249.230769,4497.948717,4177.948717,4441.538461,4205.128205,4224.615384,4529.230769,4198.461538,4648.717948,3997.948718,4053.333333
126,4391.794871,4557.435897,4522.051282,4248.205128,4491.794871,4172.820512,4442.051282,4206.153846,4217.435897,4525.128205,4210.769230,4650.256410,4012.820512,4054.358974
127,4388.717948,4554.358974,4520.512820,4242.564102,4490.256410,4170.256410,4441.025641,4202.051282,4213.846153,4517.435897,4202.051282,4647.179487,3993.333334,4055.384615
128,4386.153846,4550.256410,4513.333333,4248.205128,4497.948717,4175.897435,4439.487179,4201.025641,4211.794871,4513.333333,4202.051282,4640.512820,3978.974359,4054.358974
129,4392.820512,4562.564102,4515.897435,4256.923076,4504.102564,4183.076923,4443.076923,4209.743589,4222.051282,4527.692307,4210.256410,4647.692307,3996.923077,4057.435897
130,4396.410256,4569.743589,4521.025641,4250.256410,4499.487179,4179.487179,4441.025641,4211.794871,4230.769230,4533.333333,4213.333333,4654.871794,4002.051282,4065.641025
131,4391.282051,4563.589743,4517.948717,4247.692307,4496.410256,4173.846153,4434.871794,4208.205128,4218.974358,4518.461538,4213.846153,4650.256410,3988.205129,4061.025641
132,4392.820512,4560.000000,4516.410256,4257.948717,4507.179487,4184.102564,4435.897435,4209.743589,4215.384615,4514.871794,4208.205128,4649.743589,3999.487180,4053.846153
133,4398.974358,4563.076923,4523.589743,4262.051282,4510.769230,4189.743589,4438.461538,4214.358974,4232.820512,4533.333333,4203.589743,4657.435897,4020.512820,4064.102564
134,4396.923076,4561.538461,4528.717948,4259.487179,4502.051282,4179.487179,4438.461538,4213.846153,4237.435897,4540.512820,4210.769230,4658.461538,4010.769230,4072.820512
135,4393.846153,4558.461538,4528.205128,4260.512820,4503.076923,4180.512820,4440.000000,4207.179487,4222.051282,4527.179487,4222.051282,4655.384615,3989.743590,4069.230769
136,4402.564102,4564.615384,4530.769230,4266.666666,4507.692307,4187.179487,4441.538461,4205.641025,4221.538461,4525.641025,4221.025641,4657.435897,3996.923077,4071.282051
137,4409.743589,4575.897435,4535.384615,4266.666666,4506.666666,4186.153846,4442.051282,4213.333333,4231.282051,4541.025641,4215.897435,4662.564102,4015.897435,4073.846153
138,4402.051282,4574.871794,4532.307692,4255.384615,4505.128205,4183.076923,4442.564102,4211.794871,4229.230769,4535.897435,4212.820512,4662.051282,4015.384615,4067.179487
139,4390.769230,4556.923076,4526.153846,4253.333333,4506.153846,4184.102564,4441.538461,4201.538461,4223.589743,4517.435897,4211.794871,4655.897435,3999.487180,4063.589743
140,4389.743589,4550.769230,4521.025641,4255.897435,4503.076923,4180.512820,4441.025641,4204.102564,4222.051282,4520.000000,4209.230769,4649.230769,3988.205129,4061.025641
141,4393.846153,4559.487179,4521.538461,4253.846153,4498.461538,4176.410256,4442.564102,4205.641025,4220.000000,4523.076923,4201.538461,4647.179487,3988.717949,4055.897435
142,4391.282051,4555.384615,4524.615384,4249.743589,4495.384615,4175.897435,4440.000000,4197.435897,4213.333333,4510.256410,4201.538461,4648.205128,3990.256411,4055.897435
143,4389.743589,4553.846153,4523.076923,4249.230769,4493.333333,4175.384615,4438.974358,4200.000000,4217.435897,4515.897435,4205.128205,4651.282051,3991.282052,4060.000000
144,4393.333333,4560.512820,4524.102564,4253.333333,4500.000000,4176.923076,4441.538461,4212.820512,4229.230769,4536.410256,4203.076923,4653.846153,3993.333334,4058.461538
145,4393.333333,4558.461538,4524.102564,4257.435897,4502.051282,4175.384615,4442.051282,4212.307692,4228.205128,4530.256410,4197.948717,4649.743589,3992.307693,4055.384615
146,4390.769230,4551.282051,4520.512820,4252.307692,4497.435897,4173.846153,4441.538461,4202.564102,4218.974358,4514.358974,4195.897435,4644.615384,3996.410257,4057.435897
147,4389.230769,4553.846153,4520.512820,4244.615384,4498.974358,4179.487179,4443.076923,4199.487179,4214.871794,4516.410256,4200.000000,4643.589743,3996.923077,4062.051282
148,4387.179487,4555.897435,4521.538461,4248.717948,4501.538461,4186.153846,4444.615384,4203.076923,4218.461538,4517.435897,4202.564102,4645.641025,3981.538462,4057.948717
149,4386.153846,4555.384615,4520.512820,4257.948717,4501.538461,4184.102564,4445.641025,4207.692307,4222.564102,4514.358974,4197.435897,4647.692307,3976.923077,4051.794871
150,4386.153846,4551.794871,4520.512820,4253.333333,4498.974358,4175.384615,4438.974358,4206.666666,4217.948717,4516.410256,4197.948717,4648.717948,3992.820513,4055.384615
151,4385.128205,4547.179487,4516.410256,4236.923076,4497.435897,4176.410256,4427.692307,4196.410256,4209.743589,4517.435897,4210.769230,4645.641025,3995.897436,4061.025641
152,4388.717948,4553.333333,4516.923076,4236.410256,4498.461538,4181.538461,4432.820512,4195.384615,4214.871794,4519.487179,4215.897435,4648.205128,3988.717949,4058.461538
153,4394.358974,4558.461538,4526.153846,4256.410256,4499.487179,4180.000000,4444.102564,4205.641025,4224.102564,4524.615384,4204.615384,4655.384615,3993.846154,4059.487179
154,4394.871794,4553.846153,4527.692307,4263.076923,4499.487179,4175.384615,4441.538461,4204.615384,4226.666666,4523.589743,4202.051282,4654.358974,4001.538461,4064.102564
155,4393.846153,4557.948717,4522.051282,4250.256410,4500.512820,4175.384615,4437.435897,4200.000000,4228.205128,4527.179487,4210.256410,4648.717948,3999.487180,4062.051282
156,4392.820512,4563.589743,4517.948717,4248.717948,4502.051282,4178.974358,4444.102564,4203.589743,4227.179487,4534.871794,4216.923076,4652.307692,4000.000000,4061.538461
157,4393.333333,4555.897435,4516.410256,4258.461538,4501.538461,4180.512820,4444.102564,4203.589743,4222.051282,4523.076923,4220.000000,4656.410256,3999.487180,4064.615384
158,4390.769230,4547.179487,4516.923076,4258.461538,4501.538461,4177.948717,4431.794871,4200.000000,4221.025641,4505.641025,4203.589743,4651.282051,3991.282052,4060.000000
159,4386.153846,4549.743589,4513.846153,4246.666666,4495.897435,4172.307692,4427.692307,4201.025641,4220.512820,4513.333333,4186.153846,4643.589743,3989.230770,4055.384615
160,4383.589743,4553.333333,4510.256410,4239.487179,4489.230769,4171.282051,4428.205128,4202.564102,4215.384615,4524.102564,4197.948717,4640.512820,3994.358975,4054.358974
161,4383.076923,4551.794871,4512.307692,4246.666666,4492.820512,4172.307692,4427.692307,4199.487179,4213.846153,4515.897435,4212.307692,4640.000000,3995.897436,4049.743589
162,4382.564102,4549.743589,4514.871794,4254.871794,4496.410256,4173.846153,4431.794871,4203.589743,4220.000000,4514.871794,4208.205128,4640.000000,3990.769231,4048.205128
163,4386.153846,4552.307692,4516.410256,4259.487179,4502.051282,4181.538461,4442.564102,4216.410256,4230.256410,4526.153846,4201.025641,4644.615384,3990.769231,4058.461538
164,4393.846153,4557.435897,4525.128205,4262.051282,4507.692307,4185.128205,4446.153846,4222.051282,4237.948717,4531.282051,4197.435897,4652.820512,3999.487180,4064.102564
165,4394.358974,4554.358974,4530.769230,4259.487179,4504.615384,4180.000000,4442.051282,4218.461538,4234.871794,4530.256410,4203.076923,4655.384615,4003.589743,4059.487179
166,4384.102564,4545.128205,4523.076923,4254.871794,4495.897435,4174.871794,4441.025641,4215.897435,4221.025641,4524.102564,4212.820512,4649.743589,4000.000000,4054.871794
167,4374.358974,4536.410256,4515.897435,4249.743589,4489.743589,4170.769230,4441.025641,4215.384615,4217.435897,4521.025641,4204.102564,4646.153846,3987.692308,4053.333333
168,4378.974358,4538.974358,4518.461538,4244.615384,4489.743589,4169.743589,4442.564102,4216.923076,4231.282051,4530.256410,4196.410256,4647.692307,3978.461539,4053.846153
169,4383.589743,4545.641025,4521.025641,4240.512820,4492.820512,4175.897435,4444.615384,4217.435897,4232.307692,4530.256410,4201.538461,4645.128205,3982.564103,4051.794871
170,4378.974358,4540.000000,4516.923076,4243.589743,4494.358974,4178.974358,4442.051282,4211.794871,4214.871794,4514.871794,4203.076923,4642.564102,3990.769231,4052.307692
171,4380.000000,4536.923076,4516.410256,4252.307692,4495.384615,4175.897435,4441.538461,4211.794871,4213.333333,4517.948717,4200.000000,4648.205128,3993.333334,4055.384615
172,4385.128205,4545.128205,4522.564102,4251.282051,4501.025641,4176.923076,4442.564102,4216.410256,4223.076923,4534.871794,4200.512820,4651.794871,3989.743590,4053.846153
173,4387.179487,4546.666666,4524.615384,4241.538461,4502.564102,4180.512820,4442.051282,4216.923076,4228.205128,4533.333333,4208.205128,4649.743589,3992.307693,4051.794871
174,4392.820512,4544.615384,4527.692307,4249.230769,4500.000000,4181.538461,4444.102564,4218.974358,4234.871794,4528.717948,4212.307692,4654.358974,4004.615384,4064.102564
175,4397.948717,4552.307692,4532.307692,4264.102564,4500.000000,4181.538461,4445.128205,4220.000000,4233.846153,4531.282051,4201.025641,4658.461538,4005.128205,4071.794871
176,4393.333333,4552.820512,4530.256410,4260.000000,4503.076923,4182.564102,4442.051282,4215.384615,4227.179487,4532.820512,4195.384615,4651.794871,3995.384616,4060.512820
177,4392.307692,4547.692307,4526.666666,4249.230769,4503.589743,4182.564102,4442.564102,4214.871794,4228.205128,4535.384615,4213.846153,4650.769230,3999.487180,4056.923076
178,4395.384615,4547.692307,4528.205128,4249.743589,4504.102564,4183.589743,4443.589743,4217.435897,4232.307692,4534.358974,4221.538461,4658.461538,4011.794871,4063.589743
179,4394.871794,4547.692307,4528.717948,4252.820512,4506.153846,4187.179487,4441.538461,4215.897435,4233.333333,4532.307692,4207.179487,4659.487179,4013.846153,4066.666666
180,4393.846153,4548.205128,4525.128205,4253.333333,4505.128205,4183.589743,4442.564102,4215.384615,4233.333333,4534.871794,4207.179487,4653.846153,4007.179487,4066.153846
181,4392.820512,4552.307692,4522.564102,4249.743589,4500.512820,4174.358974,4437.948717,4208.205128,4226.666666,4531.282051,4217.948717,4650.256410,3998.461539,4062.564102
182,4384.615384,4542.051282,4517.435897,4240.512820,4493.333333,4172.307692,4427.179487,4194.358974,4213.846153,4525.641025,4213.333333,4645.128205,3992.820513,4051.282051
183,4378.974358,4529.743589,4514.871794,4240.512820,4491.282051,4176.410256,4430.769230,4193.333333,4213.333333,4530.256410,4196.410256,4640.512820,3998.461539,4047.179487
184,4383.076923,4538.974358,4516.923076,4251.282051,4494.358974,4177.435897,4444.102564,4201.538461,4218.461538,4530.256410,4186.153846,4641.025641,4000.000000,4054.871794
185,4379.487179,4543.076923,4514.358974,4244.102564,4491.794871,4174.358974,4440.000000,4201.025641,4213.333333,4517.435897,4185.641025,4637.948717,3983.076924,4050.256410
186,4369.230769,4528.205128,4510.256410,4232.307692,4489.743589,4173.333333,4427.692307,4198.974358,4211.794871,4515.897435,4195.384615,4633.333333,3979.487180,4041.538461
187,4371.282051,4520.000000,4514.871794,4241.025641,4491.794871,4171.794871,4429.230769,4202.564102,4216.410256,4519.487179,4206.666666,4632.820512,3994.358975,4044.102564
188,4372.820512,4523.076923,4513.333333,4245.641025,4490.256410,4168.717948,4430.256410,4200.512820,4211.282051,4521.025641,4194.358974,4627.692307,3988.717949,4041.025641
189,4365.128205,4524.102564,4503.076923,4232.307692,4488.205128,4170.769230,4429.743589,4196.923076,4207.179487,4526.153846,4181.025641,4620.000000,3969.743590,4035.384615
190,4366.153846,4519.487179,4503.076923,4223.076923,4495.384615,4176.410256,4438.974358,4203.589743,4217.948717,4523.589743,4191.282051,4624.102564,3977.435898,4038.461538
191,4376.923076,4518.974358,4515.384615,4229.743589,4498.974358,4175.897435,4447.179487,4213.846153,4225.641025,4523.076923,4196.410256,4634.871794,3996.410257,4042.564102
192,4377.435897,4526.153846,4520.000000,4240.512820,4498.461538,4177.435897,4444.615384,4217.435897,4218.461538,4526.153846,4188.717948,4635.897435,3994.358975,4044.102564
193,4374.871794,4532.820512,4517.948717,4244.615384,4500.512820,4181.538461,4441.538461,4211.794871,4213.333333,4524.102564,4191.794871,4635.384615,3983.589744,4047.692307
194,4377.948717,4534.871794,4520.000000,4235.384615,4498.461538,4177.435897,4442.564102,4200.512820,4213.333333,4520.512820,4201.025641,4637.948717,3986.153847,4048.717948
195,4382.564102,4537.435897,4526.153846,4226.153846,4495.897435,4173.846153,4442.051282,4199.487179,4209.743589,4523.076923,4201.538461,4637.948717,3999.487180,4053.846153
196,4382.564102,4537.948717,4526.153846,4231.282051,4498.974358,4179.487179,4442.564102,4211.282051,4210.769230,4532.820512,4198.461538,4637.435897,4008.717948,4059.487179
197,4376.410256,4533.333333,4517.948717,4235.384615,4495.897435,4178.461538,4442.051282,4218.461538,4224.102564,4542.051282,4198.461538,4632.307692,4005.128205,4050.256410
198,4371.794871,4533.333333,4514.358974,4232.820512,4487.692307,4168.205128,4441.025641,4218.461538,4229.743589,4538.461538,4195.384615,4630.256410,3997.948718,4041.538461
199,4370.769230,4537.948717,4516.410256,4223.589743,4490.256410,4169.230769,4442.051282,4215.384615,4222.564102,4524.102564,4188.205128,4630.769230,3998.461539,4044.102564
200,4371.282051,4538.461538,4516.923076,4218.461538,4493.846153,4175.897435,4442.564102,4212.307692,4221.538461,4525.128205,4186.153846,4630.769230,4003.589743,4049.230769
201,4376.410256,4538.974358,4520.000000,4228.205128,4489.743589,4172.820512,4442.564102,4206.153846,4221.538461,4531.282051,4198.461538,4636.410256,4006.666666,4056.410256
202,4384.615384,4541.025641,4527.692307,4236.923076,4491.794871,4172.820512,4442.564102,4203.076923,4216.923076,4529.230769,4210.256410,4647.179487,4010.769230,4060.000000
203,4389.743589,4547.179487,4530.256410,4234.871794,4500.000000,4181.538461,4445.641025,4208.205128,4221.538461,4531.282051,4205.128205,4650.769230,4015.384615,4054.358974
204,4384.615384,4551.794871,4524.615384,4230.769230,4498.461538,4178.974358,4444.102564,4205.128205,4221.025641,4532.307692,4191.282051,4640.512820,4013.333333,4051.282051
205,4376.923076,4543.076923,4517.948717,4230.256410,4489.743589,4172.307692,4435.897435,4194.871794,4211.282051,4525.641025,4191.282051,4629.743589,4006.153846,4056.410256
206,4374.871794,4536.410256,4513.846153,4231.282051,4490.769230,4176.410256,4432.307692,4192.820512,4207.692307,4517.435897,4195.897435,4628.205128,3998.461539,4055.897435
207,4377.435897,4537.948717,4514.871794,4231.794871,4495.897435,4176.923076,4433.846153,4198.974358,4211.794871,4517.948717,4189.230769,4632.307692,3994.871795,4052.307692
208,4380.000000,4540.000000,4520.000000,4228.205128,4490.256410,4172.307692,4435.897435,4204.102564,4220.000000,4530.256410,4192.820512,4635.384615,4006.153846,4054.358974
209,4386.666666,4548.717948,4525.641025,4231.794871,4489.230769,4178.974358,4437.948717,4208.205128,4229.743589,4538.974358,4214.358974,4640.000000,4023.589743,4063.589743
210,4396.923076,4560.000000,4530.256410,4247.692307,4504.102564,4187.179487,4443.076923,4208.717948,4228.205128,4534.871794,4222.564102,4646.153846,4022.564102,4071.794871
211,4398.461538,4556.923076,4529.230769,4252.820512,4508.205128,4183.589743,4442.051282,4200.000000,4216.923076,4529.230769,4217.435897,4644.615384,4008.717948,4070.769230
212,4388.205128,4551.282051,4521.538461,4235.897435,4492.820512,4173.333333,4431.794871,4195.384615,4208.205128,4527.692307,4205.128205,4638.974358,4007.692307,4063.076923
213,4385.128205,4556.923076,4516.923076,4230.256410,4488.717948,4171.794871,4431.794871,4196.410256,4205.128205,4524.102564,4182.051282,4634.871794,4017.435897,4058.461538
214,4391.794871,4556.410256,4521.538461,4242.564102,4504.102564,4183.589743,4443.076923,4200.512820,4212.820512,4523.589743,4182.564102,4634.871794,4016.410256,4061.538461
215,4388.717948,4547.692307,4521.025641,4243.076923,4509.743589,4189.230769,4440.512820,4202.564102,4221.025641,4530.769230,4206.153846,4637.435897,4005.641025,4060.000000
216,4378.974358,4545.641025,4516.410256,4230.256410,4501.025641,4181.025641,4425.641025,4201.025641,4220.000000,4538.974358,4218.461538,4642.051282,4007.179487,4053.333333
217,4383.589743,4552.307692,4521.025641,4228.205128,4494.871794,4175.384615,4424.102564,4204.102564,4220.512820,4542.051282,4214.358974,4646.153846,4023.076923,4058.974358
218,4392.820512,4556.923076,4527.179487,4237.435897,4491.794871,4171.794871,4427.692307,4205.128205,4219.487179,4537.948717,4204.102564,4647.179487,4027.179487,4070.256410
219,4394.358974,4555.384615,4527.179487,4245.641025,4490.769230,4169.230769,4424.102564,4202.051282,4216.410256,4533.846153,4205.641025,4647.179487,4018.461538,4072.307692
220,4396.923076,4556.410256,4529.743589,4251.794871,4496.410256,4176.923076,4425.641025,4206.666666,4223.589743,4542.564102,4216.923076,4650.256410,4017.948717,4072.307692
221,4400.000000,4558.461538,4533.846153,4246.153846,4506.153846,4185.641025,4431.282051,4216.410256,4235.384615,4550.256410,4223.589743,4653.333333,4028.205128,4071.794871
222,4393.846153,4549.230769,4531.282051,4230.256410,4505.128205,4186.153846,4428.205128,4218.461538,4236.410256,4543.589743,4220.000000,4652.307692,4032.820512,4066.153846
223,4391.794871,4547.692307,4532.307692,4234.358974,4501.538461,4185.641025,4429.743589,4217.948717,4233.846153,4547.692307,4212.820512,4653.333333,4033.333333,4069.743589
224,4397.948717,4556.410256,4536.923076,4246.666666,4500.512820,4183.076923,4438.461538,4217.435897,4233.333333,4560.512820,4209.743589,4655.897435,4026.666666,4078.461538
225,4396.410256,4549.230769,4532.307692,4242.564102,4497.948717,4178.461538,4438.461538,4211.282051,4231.282051,4546.153846,4218.974358,4649.230769,4015.897435,4072.307692
226,4389.743589,4542.564102,4526.153846,4237.948717,4499.487179,4179.487179,4439.487179,4210.769230,4232.820512,4532.820512,4223.589743,4641.025641,4012.820512,4062.051282
227,4387.692307,4550.256410,4524.102564,4238.974358,4499.487179,4180.512820,4441.025641,4212.820512,4232.307692,4546.153846,4204.615384,4637.948717,4006.666666,4057.948717
228,4383.589743,4545.128205,4521.538461,4232.307692,4493.846153,4176.923076,4433.333333,4209.743589,4224.102564,4546.153846,4196.923076,4637.435897,4001.025641,4053.846153
229,4378.974358,4531.282051,4524.615384,4228.205128,4496.923076,4180.512820,4431.794871,4211.794871,4223.589743,4534.358974,4208.717948,4641.538461,4009.743589,4054.871794
230,4383.076923,4536.410256,4529.743589,4232.820512,4508.717948,4188.205128,4441.025641,4218.461538,4233.846153,4549.743589,4217.948717,4646.666666,4022.051282,4063.076923
231,4389.743589,4540.512820,4530.256410,4237.948717,4508.717948,4188.717948,4444.102564,4219.487179,4240.512820,4563.076923,4223.589743,4651.282051,4022.564102,4068.717948
232,4389.230769,4536.410256,4530.769230,4244.615384,4504.102564,4185.641025,4436.410256,4218.974358,4241.538461,4548.205128,4220.000000,4650.769230,4010.256410,4067.692307
233,4388.205128,4548.717948,4533.333333,4247.692307,4506.153846,4185.128205,4435.384615,4220.512820,4237.435897,4537.435897,4207.179487,4646.153846,4000.000000,4064.102564
234,4391.794871,4558.974358,4532.820512,4243.076923,4507.179487,4185.641025,4440.512820,4215.897435,4229.230769,4548.717948,4202.564102,4644.102564,4015.384615,4061.538461
235,4397.435897,4554.871794,4535.384615,4246.153846,4506.153846,4187.179487,4440.512820,4214.871794,4230.256410,4562.051282,4221.538461,4650.256410,4035.897435,4067.692307
236,4399.487179,4553.333333,4544.102564,4251.794871,4506.666666,4188.205128,4438.461538,4223.589743,4242.051282,4559.487179,4235.897435,4656.923076,4024.615384,4074.871794
237,4394.358974,4551.794871,4543.589743,4245.641025,4502.051282,4183.589743,4436.923076,4224.615384,4242.564102,4546.153846,4226.666666,4654.871794,4009.230769,4074.358974
238,4386.153846,4546.153846,4532.307692,4237.948717,4493.846153,4176.410256,4431.794871,4212.820512,4226.666666,4538.974358,4217.948717,4648.717948,4017.435897,4070.256410
239,4383.076923,4544.615384,4526.666666,4239.487179,4493.333333,4177.435897,4425.128205,4201.025641,4212.307692,4534.358974,4210.769230,4640.000000,4017.435897,4060.000000
240,4385.128205,4542.564102,4528.205128,4240.000000,4496.410256,4183.589743,4427.179487,4197.435897,4212.307692,4525.641025,4201.025641,4637.948717,3995.897436,4050.769230
241,4388.205128,4542.564102,4529.230769,4236.923076,4498.461538,4185.128205,4433.333333,4200.000000,4218.974358,4524.615384,4197.435897,4644.102564,3986.153847,4058.461538
242,4392.820512,4551.282051,4531.794871,4243.076923,4502.051282,4185.128205,4437.948717,4211.282051,4226.153846,4536.410256,4212.307692,4649.743589,4009.743589,4075.384615
243,4394.358974,4550.769230,4535.384615,4249.743589,4503.076923,4186.153846,4443.589743,4222.051282,4235.384615,4546.666666,4226.153846,4652.307692,4033.846153,4078.461538
244,4387.692307,4536.410256,4530.256410,4247.179487,4501.025641,4184.615384,4443.076923,4220.000000,4237.435897,4543.076923,4217.948717,4645.128205,4020.512820,4066.666666
245,4379.487179,4532.820512,4525.641025,4240.512820,4503.076923,4184.615384,4441.538461,4215.897435,4230.256410,4536.923076,4201.538461,4633.846153,3986.666667,4054.358974
246,4380.000000,4546.153846,4529.743589,4232.307692,4507.692307,4188.205128,4444.615384,4221.538461,4226.153846,4538.974358,4193.333333,4637.435897,3983.076924,4051.794871
247,4383.076923,4553.333333,4529.743589,4229.743589,4503.589743,4187.179487,4444.615384,4220.512820,4223.589743,4539.487179,4200.512820,4649.230769,4010.256410,4056.923076
248,4375.897435,4540.000000,4518.974358,4234.358974,4496.410256,4183.589743,4439.487179,4207.692307,4216.410256,4525.128205,4203.076923,4643.589743,4013.333333,4051.794871
249,4368.205128,4524.615384,4512.307692,4233.333333,4495.384615,4181.538461,4435.897435,4205.641025,4220.000000,4518.461538,4203.076923,4631.282051,3983.589744,4044.102564
250,4373.333333,4531.794871,4516.410256,4233.333333,4504.615384,4184.615384,4436.410256,4212.820512,4231.794871,4534.871794,4211.282051,4634.358974,3977.435898,4048.717948
251,4379.487179,4543.589743,4523.076923,4233.333333,4510.256410,4189.230769,4436.923076,4212.820512,4232.307692,4545.641025,4206.153846,4643.589743,4002.051282,4053.846153
252,4376.923076,4540.512820,4526.153846,4229.743589,4502.051282,4185.128205,4439.487179,4210.256410,4222.564102,4536.410256,4193.333333,4644.102564,4011.794871,4050.769230
253,4378.974358,4534.358974,4528.717948,4238.974358,4496.410256,4181.538461,4442.564102,4216.923076,4222.051282,4526.666666,4207.692307,4644.615384,4005.128205,4052.307692
254,4387.692307,4535.897435,4535.897435,4249.743589,4501.538461,4188.205128,4442.564102,4224.102564,4236.923076,4537.435897,4233.333333,4649.743589,4002.051282,4063.076923
255,4394.871794,4548.717948,4542.051282,4248.205128,4510.769230,4192.820512,4444.102564,4224.615384,4251.794871,4554.358974,4228.205128,4653.846153,4009.230769,4070.256410
256,4398.974358,4562.051282,4543.076923,4246.153846,4511.282051,4191.794871,4443.589743,4223.589743,4242.051282,4553.333333,4210.256410,4656.923076,4021.538461,4070.256410
257,4396.410256,4554.358974,4542.051282,4248.205128,4506.153846,4190.256410,4430.769230,4215.897435,4227.179487,4544.102564,4206.153846,4657.435897,4018.974358,4064.102564
258,4392.307692,4542.564102,4542.051282,4248.717948,4506.153846,4187.692307,4424.615384,4212.820512,4230.769230,4544.615384,4224.102564,4653.846153,4008.717948,4061.025641
259,4394.358974,4551.794871,4543.076923,4252.307692,4506.666666,4186.153846,4435.384615,4219.487179,4239.487179,4542.051282,4238.974358,4652.307692,4010.256410,4068.205128
