,AF3,F7,F3,FC5,T7,P7,O1,O2,P8,T8,FC6,F4,F8,AF4
0,4429.743589,4557.948717,4534.358974,4270.769230,4510.769230,4203.589743,4453.846153,4222.564102,4242.051282,4501.025641,4238.461538,4666.153846,4005.128205,4060.000000
1,4427.179487,4551.794871,4535.897435,4271.282051,4511.794871,4201.025641,4454.358974,4216.923076,4243.076923,4504.615384,4226.666666,4661.538461,4017.435897,4061.025641
2,4425.641025,4550.769230,4532.820512,4267.179487,4508.205128,4202.051282,4446.153846,4207.692307,4235.384615,4509.230769,4229.230769,4657.948717,4010.256410,4057.948717
3,4424.615384,4552.820512,4529.230769,4263.076923,4505.128205,4198.461538,4441.538461,4206.666666,4230.256410,4509.230769,4244.615384,4661.025641,3998.461539,4054.871794
4,4424.615384,4554.358974,4528.717948,4263.076923,4505.641025,4191.282051,4442.051282,4206.666666,4229.743589,4502.564102,4242.051282,4658.461538,4002.564102,4055.384615
5,4425.641025,4555.384615,4533.333333,4266.666666,4505.641025,4192.820512,4441.538461,4203.076923,4227.179487,4500.512820,4223.589743,4653.333333,4008.205128,4053.846153
6,4425.641025,4554.871794,4534.871794,4267.179487,4505.641025,4198.974358,4441.538461,4201.538461,4231.282051,4505.128205,4216.923076,4656.923076,4006.666666,4054.358974
7,4426.153846,4555.384615,4534.871794,4266.153846,4507.179487,4198.461538,4445.128205,4209.743589,4234.871794,4503.589743,4232.307692,4664.615384,4006.153846,4062.051282
8,4428.717948,4558.461538,4538.974358,4268.717948,4506.666666,4197.948717,4449.230769,4212.820512,4230.769230,4500.512820,4244.615384,4666.153846,4003.589743,4062.564102
9,4430.256410,4559.487179,4538.974358,4272.820512,4507.179487,4202.564102,4452.820512,4205.641025,4230.769230,4506.153846,4241.025641,4665.641025,4000.512820,4060.000000
10,4431.282051,4558.974358,4535.897435,4275.384615,4513.333333,4204.102564,4450.769230,4206.666666,4234.871794,4511.794871,4230.256410,4664.102564,4004.615384,4062.051282
11,4428.717948,4556.923076,4535.384615,4272.307692,4512.820512,4200.512820,4444.615384,4211.282051,4233.333333,4506.153846,4226.153846,4658.461538,4008.205128,4057.948717
12,4424.102564,4554.358974,4533.333333,4266.666666,4508.205128,4200.000000,4442.564102,4205.128205,4228.205128,4500.000000,4230.769230,4653.333333,4003.589743,4050.256410
13,4427.692307,4553.846153,4527.692307,4266.666666,4512.820512,4204.615384,4444.102564,4203.589743,4229.230769,4503.589743,4232.307692,4654.358974,4000.000000,4051.794871
14,4432.307692,4555.897435,4531.282051,4269.230769,4514.358974,4206.666666,4447.692307,4214.358974,4232.820512,4503.589743,4229.743589,4657.948717,4005.641025,4057.435897
15,4430.769230,4555.384615,4536.410256,4266.153846,4511.794871,4203.589743,4448.717948,4216.923076,4238.974358,4502.051282,4232.307692,4660.000000,4009.230769,4054.871794
16,4427.692307,4551.282051,4531.282051,4262.564102,4513.846153,4202.564102,4445.641025,4212.307692,4243.589743,4509.230769,4237.435897,4660.512820,4003.589743,4054.871794
17,4427.692307,4551.794871,4526.666666,4264.615384,4512.820512,4202.564102,4445.128205,4216.410256,4242.564102,4517.435897,4241.025641,4661.025641,4005.128205,4065.641025
18,4427.692307,4554.358974,4528.205128,4264.102564,4506.153846,4200.000000,4445.128205,4217.435897,4241.025641,4514.871794,4235.897435,4661.025641,4018.461538,4071.794871
19,4421.025641,4546.666666,4524.102564,4255.897435,4506.153846,4199.487179,4439.487179,4207.692307,4234.871794,4506.666666,4219.487179,4655.384615,4016.923076,4061.538461
20,4414.871794,4538.461538,4516.923076,4248.717948,4507.692307,4199.487179,4436.923076,4202.051282,4226.153846,4505.641025,4213.846153,4648.205128,3997.435898,4052.820512
21,4423.076923,4542.564102,4523.076923,4255.897435,4507.179487,4198.974358,4443.589743,4211.282051,4235.384615,4514.358974,4229.230769,4655.384615,3996.923077,4062.051282
22,4432.820512,4547.179487,4535.384615,4267.692307,4510.769230,4202.564102,4449.230769,4220.000000,4247.179487,4517.435897,4238.461538,4667.179487,4014.871794,4074.871794
23,4429.743589,4548.717948,4534.871794,4265.641025,4511.282051,4205.641025,4445.641025,4215.384615,4235.384615,4504.615384,4230.769230,4663.076923,4016.410256,4069.743589
24,4424.615384,4548.205128,4529.743589,4258.461538,4506.666666,4201.538461,4442.564102,4212.820512,4226.153846,4501.025641,4229.743589,4658.461538,4010.256410,4058.461538
25,4424.615384,4545.128205,4532.307692,4258.974358,4508.205128,4201.025641,4448.717948,4217.435897,4237.435897,4513.333333,4235.897435,4661.025641,4012.820512,4060.000000
26,4423.589743,4545.641025,4535.897435,4261.025641,4514.358974,4207.692307,4452.307692,4216.410256,4236.410256,4511.282051,4230.769230,4657.948717,4008.717948,4063.589743
27,4423.076923,4545.641025,4531.794871,4265.128205,4513.333333,4208.205128,4445.128205,4213.846153,4226.666666,4501.025641,4225.641025,4657.435897,4003.076923,4060.000000
28,4426.153846,4546.153846,4534.871794,4270.769230,4508.205128,4201.538461,4444.615384,4217.435897,4234.871794,4510.256410,4233.846153,4665.641025,4015.897435,4062.051282
29,4429.230769,4549.230769,4542.564102,4269.230769,4507.179487,4200.512820,4453.333333,4221.538461,4246.153846,4523.076923,4245.641025,4670.769230,4022.051282,4068.205128
30,4427.692307,4553.333333,4539.487179,4263.589743,4508.717948,4202.051282,4451.794871,4221.538461,4243.076923,4516.923076,4240.512820,4667.179487,4012.820512,4065.128205
31,4421.538461,4549.743589,4530.769230,4263.589743,4507.179487,4200.512820,4444.102564,4216.923076,4231.794871,4503.076923,4221.025641,4662.051282,4007.179487,4056.923076
32,4414.358974,4544.102564,4524.102564,4255.384615,4504.102564,4195.384615,4442.564102,4204.102564,4222.051282,4491.282051,4210.769230,4654.871794,3996.923077,4050.769230
33,4413.333333,4538.461538,4524.615384,4249.230769,4505.128205,4196.410256,4444.102564,4198.461538,4221.025641,4489.230769,4221.538461,4649.230769,3987.692308,4049.230769
34,4413.846153,4535.384615,4524.615384,4256.410256,4507.692307,4198.974358,4445.641025,4207.179487,4227.692307,4498.461538,4231.282051,4650.256410,3993.333334,4047.692307
35,4410.256410,4537.435897,4519.487179,4255.384615,4503.589743,4193.333333,4443.589743,4207.692307,4228.717948,4500.512820,4218.974358,4647.692307,4000.000000,4041.025641
36,4408.717948,4536.923076,4520.000000,4248.717948,4499.487179,4191.794871,4446.153846,4203.589743,4225.641025,4496.923076,4211.794871,4644.615384,3998.461539,4036.923076
37,4413.333333,4537.948717,4531.282051,4256.410256,4505.641025,4201.538461,4450.769230,4214.871794,4229.743589,4505.641025,4228.717948,4650.256410,4004.615384,4048.205128
38,4420.000000,4547.179487,4534.358974,4265.641025,4509.743589,4204.102564,4452.307692,4223.076923,4240.000000,4510.769230,4241.025641,4657.435897,4012.307692,4058.461538
39,4424.102564,4549.743589,4531.282051,4263.589743,4507.692307,4198.974358,4452.820512,4216.923076,4242.564102,4501.538461,4235.384615,4658.461538,4005.641025,4053.333333
40,4420.512820,4542.564102,4533.333333,4258.974358,4510.256410,4202.051282,4453.333333,4215.897435,4239.487179,4505.641025,4233.333333,4657.435897,3998.461539,4051.794871
41,4416.923076,4546.153846,4532.307692,4251.794871,4511.794871,4203.589743,4456.410256,4220.512820,4239.487179,4519.487179,4233.846153,4659.487179,4004.102564,4054.358974
42,4420.512820,4555.384615,4530.256410,4247.179487,4507.692307,4202.051282,4457.435897,4219.487179,4239.487179,4514.871794,4231.282051,4658.974358,4012.307692,4053.333333
43,4422.564102,4547.692307,4532.820512,4252.307692,4507.692307,4202.564102,4452.820512,4219.487179,4239.487179,4507.692307,4233.846153,4656.923076,4009.743589,4053.846153
44,4421.025641,4541.025641,4532.820512,4255.897435,4508.205128,4200.512820,4445.641025,4223.076923,4245.641025,4512.820512,4235.384615,4659.487179,4005.128205,4056.923076
45,4426.666666,4549.743589,4532.307692,4252.820512,4507.179487,4198.974358,4445.641025,4223.589743,4248.717948,4514.871794,4234.358974,4666.153846,4013.846153,4060.512820
46,4430.769230,4553.846153,4539.487179,4249.230769,4508.205128,4200.000000,4451.794871,4218.974358,4240.000000,4510.256410,4238.461538,4664.615384,4021.025641,4062.051282
47,4426.666666,4549.743589,4541.025641,4251.794871,4508.205128,4201.025641,4453.333333,4215.897435,4231.794871,4508.205128,4240.000000,4660.512820,4017.948717,4058.974358
48,4427.692307,4551.794871,4538.461538,4261.538461,4509.230769,4202.051282,4449.230769,4216.410256,4232.307692,4508.205128,4235.384615,4664.102564,4018.461538,4054.358974
49,4427.692307,4552.820512,4541.538461,4265.641025,4513.333333,4202.051282,4443.076923,4212.307692,4233.846153,4506.153846,4232.820512,4663.076923,4018.461538,4052.307692
50,4418.974358,4546.153846,4537.435897,4260.000000,4512.307692,4200.512820,4438.974358,4204.615384,4228.717948,4501.025641,4227.692307,4650.769230,4007.179487,4047.179487
51,4409.743589,4537.435897,4527.179487,4257.435897,4507.179487,4198.974358,4436.410256,4197.948717,4217.948717,4493.333333,4214.871794,4644.102564,3998.461539,4038.974358
52,4408.717948,4537.948717,4526.666666,4260.000000,4506.153846,4198.974358,4437.435897,4196.410256,4217.435897,4487.179487,4209.743589,4651.282051,4000.512820,4039.487179
53,4418.461538,4547.692307,4533.846153,4261.025641,4510.769230,4200.512820,4445.128205,4206.153846,4231.282051,4490.769230,4222.564102,4660.512820,4003.589743,4045.641025
54,4427.692307,4552.820512,4536.410256,4262.051282,4513.846153,4203.076923,4452.820512,4215.897435,4241.025641,4501.025641,4233.846153,4660.512820,4005.641025,4048.205128
55,4427.692307,4555.897435,4536.410256,4260.512820,4511.794871,4202.564102,4454.871794,4216.923076,4238.461538,4507.179487,4233.846153,4660.512820,4012.820512,4051.282051
56,4424.615384,4554.871794,4536.923076,4255.897435,4511.282051,4202.051282,4455.897435,4215.384615,4235.897435,4509.230769,4230.769230,4663.076923,4015.384615,4054.871794
57,4418.461538,4544.102564,4535.897435,4251.282051,4513.333333,4202.051282,4454.871794,4216.410256,4234.871794,4505.128205,4224.615384,4660.512820,4005.641025,4050.256410
58,4409.230769,4534.871794,4532.307692,4248.717948,4512.820512,4201.538461,4452.307692,4217.435897,4233.846153,4497.435897,4221.538461,4652.820512,3995.897436,4039.487179
59,4403.589743,4536.923076,4524.615384,4244.615384,4507.179487,4200.512820,4451.794871,4217.435897,4236.923076,4497.948717,4225.641025,4648.717948,3996.923077,4033.333333
60,4406.666666,4537.435897,4523.589743,4245.128205,4505.641025,4200.000000,4455.384615,4217.435897,4238.461538,4500.000000,4222.564102,4650.256410,4005.128205,4034.358974
61,4412.307692,4541.538461,4530.256410,4249.743589,4511.282051,4206.153846,4460.000000,4217.948717,4240.000000,4499.487179,4219.487179,4656.410256,4006.153846,4037.435897
62,4413.846153,4548.717948,4532.820512,4250.256410,4513.846153,4209.230769,4459.487179,4219.487179,4242.051282,4505.128205,4227.179487,4657.948717,4000.000000,4038.461538
63,4410.769230,4545.128205,4526.666666,4247.179487,4509.230769,4204.615384,4453.333333,4217.948717,4236.923076,4509.743589,4226.666666,4652.820512,4004.102564,4040.000000
64,4410.769230,4547.692307,4526.666666,4247.692307,4510.256410,4202.564102,4452.307692,4216.410256,4234.358974,4502.564102,4224.615384,4656.923076,4018.461538,4046.153846
65,4413.846153,4553.333333,4536.923076,4253.333333,4516.410256,4205.641025,4455.384615,4218.461538,4245.641025,4503.076923,4235.897435,4666.153846,4022.564102,4049.743589
66,4408.717948,4542.564102,4535.897435,4253.333333,4512.307692,4202.564102,4449.230769,4219.487179,4245.128205,4510.769230,4231.282051,4659.487179,4007.692307,4040.000000
67,4402.051282,4534.358974,4524.615384,4242.051282,4504.615384,4197.948717,4441.538461,4213.333333,4227.179487,4500.000000,4211.794871,4647.179487,3992.820513,4031.794871
68,4403.589743,4541.538461,4522.564102,4238.461538,4507.692307,4201.025641,4446.153846,4207.179487,4227.179487,4490.769230,4213.333333,4648.717948,3995.384616,4036.410256
69,4410.256410,4543.076923,4528.717948,4246.153846,4510.256410,4202.564102,4453.846153,4212.307692,4238.461538,4502.564102,4222.564102,4654.871794,4003.589743,4040.000000
70,4411.282051,4536.923076,4527.179487,4249.743589,4507.179487,4201.025641,4453.333333,4214.871794,4238.974358,4506.666666,4220.512820,4652.307692,4001.025641,4034.358974
71,4404.102564,4534.358974,4517.948717,4246.666666,4507.179487,4198.461538,4449.743589,4211.794871,4235.897435,4492.307692,4215.897435,4647.692307,3989.230770,4031.282051
72,4400.512820,4534.358974,4516.410256,4243.076923,4506.153846,4197.435897,4448.205128,4211.282051,4233.333333,4489.230769,4211.282051,4647.179487,3985.641026,4030.769230
73,4402.564102,4537.435897,4521.538461,4245.128205,4505.128205,4201.538461,4448.717948,4209.743589,4230.769230,4497.435897,4212.820512,4651.282051,3996.410257,4027.179487
74,4405.641025,4537.948717,4525.128205,4247.692307,4511.282051,4203.589743,4451.282051,4209.230769,4234.358974,4499.487179,4222.564102,4654.358974,4006.666666,4031.794871
75,4407.692307,4538.974358,4529.230769,4248.205128,4513.846153,4202.051282,4455.384615,4214.358974,4241.538461,4502.564102,4225.641025,4655.897435,4001.538461,4040.000000
76,4412.307692,4542.051282,4535.897435,4252.307692,4510.769230,4204.102564,4462.564102,4220.512820,4242.564102,4509.230769,4228.717948,4657.948717,3993.846154,4042.051282
77,4411.794871,4542.564102,4532.307692,4251.794871,4511.282051,4205.641025,4460.512820,4215.897435,4233.846153,4506.666666,4231.794871,4656.410256,3995.384616,4040.512820
78,4403.589743,4536.923076,4524.102564,4238.974358,4510.256410,4198.974358,4449.230769,4204.615384,4223.076923,4496.923076,4222.051282,4648.717948,3995.384616,4037.948717
79,4400.512820,4536.923076,4526.153846,4237.948717,4505.641025,4196.410256,4446.153846,4203.076923,4222.051282,4492.820512,4218.974358,4648.717948,3995.384616,4038.974358
80,4405.641025,4541.025641,4531.794871,4248.205128,4503.076923,4199.487179,4448.717948,4211.282051,4227.692307,4497.435897,4228.205128,4656.923076,3994.871795,4043.076923
81,4410.256410,4542.564102,4529.230769,4248.205128,4508.717948,4201.025641,4447.179487,4215.897435,4232.820512,4505.641025,4229.230769,4660.512820,3991.794872,4047.692307
82,4412.307692,4547.692307,4527.692307,4248.205128,4515.897435,4206.666666,4450.256410,4215.897435,4241.538461,4511.794871,4226.153846,4659.487179,3998.461539,4053.333333
83,4412.307692,4554.358974,4529.230769,4254.871794,4514.871794,4208.717948,4454.871794,4214.871794,4243.589743,4511.282051,4231.282051,4659.487179,4006.153846,4056.410256
84,4411.794871,4555.897435,4526.666666,4256.923076,4509.743589,4205.641025,4450.256410,4210.256410,4240.000000,4511.794871,4232.307692,4657.948717,4004.102564,4054.871794
85,4413.846153,4555.897435,4527.179487,4260.000000,4510.256410,4206.153846,4450.769230,4211.794871,4240.512820,4515.897435,4229.230769,4658.974358,4007.692307,4055.897435
86,4416.410256,4559.487179,4534.358974,4266.153846,4513.846153,4208.205128,4457.948717,4217.948717,4243.076923,4515.384615,4231.282051,4666.153846,4011.794871,4062.051282
87,4412.820512,4557.948717,4537.948717,4260.512820,4509.230769,4206.666666,4457.435897,4217.948717,4241.025641,4511.282051,4233.846153,4669.230769,4000.512820,4062.051282
88,4410.256410,4549.743589,4535.384615,4251.794871,4506.666666,4204.102564,4452.307692,4214.871794,4238.461538,4511.794871,4230.769230,4668.205128,3998.461539,4057.948717
89,4409.230769,4549.743589,4532.307692,4247.692307,4509.230769,4203.589743,4448.717948,4209.230769,4235.897435,4509.743589,4222.051282,4664.102564,4008.717948,4054.871794
90,4403.076923,4548.717948,4526.666666,4245.641025,4506.666666,4200.000000,4446.153846,4204.615384,4227.692307,4503.076923,4211.282051,4653.846153,4000.512820,4047.692307
91,4403.076923,4541.025641,4526.666666,4249.743589,4505.641025,4200.000000,4452.307692,4209.230769,4228.205128,4505.128205,4214.358974,4653.333333,3990.256411,4043.076923
92,4411.282051,4543.076923,4534.871794,4249.743589,4508.717948,4206.666666,4459.487179,4215.897435,4236.410256,4507.692307,4227.692307,4661.025641,3995.897436,4048.205128
93,4414.871794,4552.307692,4534.871794,4246.666666,4508.205128,4209.743589,4458.461538,4215.897435,4237.948717,4504.102564,4228.205128,4661.538461,4001.538461,4052.820512
94,4415.384615,4555.384615,4534.358974,4254.871794,4509.743589,4210.256410,4461.025641,4215.897435,4240.512820,4509.743589,4225.641025,4663.589743,4005.128205,4054.358974
95,4416.923076,4556.410256,4541.538461,4261.025641,4519.487179,4214.358974,4465.641025,4220.000000,4244.615384,4518.461538,4231.282051,4670.769230,4013.846153,4058.974358
96,4415.897435,4557.948717,4541.538461,4249.743589,4517.948717,4214.871794,4464.102564,4215.384615,4240.512820,4513.333333,4227.692307,4666.666666,4010.256410,4058.974358
97,4411.282051,4553.333333,4534.358974,4243.076923,4508.717948,4210.256410,4458.461538,4207.692307,4234.358974,4506.153846,4216.410256,4661.025641,3995.384616,4050.256410
98,4410.256410,4549.743589,4533.846153,4253.333333,4511.794871,4207.692307,4456.923076,4210.769230,4233.846153,4505.641025,4216.923076,4660.512820,3995.897436,4051.794871
99,4413.333333,4552.307692,4536.923076,4256.923076,4514.871794,4207.179487,4458.974358,4216.923076,4235.384615,4507.179487,4218.461538,4661.025641,4009.230769,4061.025641
100,4414.358974,4553.333333,4539.487179,4251.794871,4509.230769,4207.692307,4457.435897,4215.897435,4241.025641,4514.871794,4218.974358,4664.102564,4010.769230,4058.461538
101,4413.333333,4553.846153,4537.435897,4249.230769,4505.128205,4207.179487,4458.974358,4215.384615,4244.102564,4518.974358,4230.769230,4670.256410,4003.589743,4056.410256
102,4414.358974,4560.512820,4537.948717,4253.333333,4512.307692,4208.205128,4461.025641,4218.974358,4242.051282,4515.384615,4241.538461,4673.846153,4010.769230,4063.076923
103,4413.333333,4565.641025,4542.564102,4253.333333,4518.461538,4211.794871,4459.487179,4218.974358,4243.589743,4514.871794,4233.333333,4671.794871,4016.923076,4064.102564
104,4410.769230,4558.461538,4543.076923,4247.692307,4514.871794,4213.333333,4458.974358,4217.435897,4242.564102,4515.384615,4220.512820,4667.692307,4008.205128,4058.461538
105,4413.846153,4554.358974,4540.512820,4253.333333,4510.256410,4211.794871,4456.923076,4217.435897,4238.974358,4513.846153,4221.538461,4668.205128,4012.820512,4061.025641
106,4417.948717,4562.051282,4541.538461,4261.538461,4511.282051,4213.333333,4457.948717,4219.487179,4245.641025,4519.487179,4234.871794,4673.846153,4024.615384,4068.205128
107,4414.358974,4561.025641,4539.487179,4253.333333,4513.333333,4214.358974,4461.025641,4221.538461,4251.794871,4523.589743,4241.538461,4671.282051,4014.358974,4064.102564
108,4407.692307,4550.256410,4536.410256,4241.025641,4514.871794,4211.794871,4457.948717,4216.923076,4243.589743,4515.384615,4231.794871,4664.102564,4003.589743,4055.897435
109,4417.435897,4556.410256,4543.589743,4250.256410,4521.538461,4216.410256,4456.923076,4220.000000,4246.666666,4522.564102,4228.205128,4670.769230,4022.564102,4063.076923
110,4431.282051,4568.717948,4548.205128,4259.487179,4524.615384,4220.000000,4464.102564,4233.846153,4260.512820,4540.512820,4240.512820,4682.564102,4037.948717,4075.897435
111,4420.512820,4561.025641,4540.000000,4251.794871,4518.461538,4213.846153,4460.000000,4226.153846,4250.256410,4527.179487,4238.461538,4675.384615,4014.358974,4066.153846
112,4403.076923,4548.205128,4529.230769,4245.641025,4510.256410,4203.589743,4445.128205,4202.051282,4234.871794,4507.692307,4225.641025,4660.000000,3986.666667,4049.743589
113,4406.666666,4549.230769,4529.230769,4244.102564,4503.589743,4197.948717,4438.974358,4202.564102,4240.512820,4511.794871,4223.076923,4659.487179,3991.794872,4051.794871
114,4414.358974,4556.923076,4535.384615,4245.641025,4503.076923,4200.000000,4444.102564,4216.410256,4242.564102,4516.410256,4222.564102,4664.615384,4011.794871,4058.974358
115,4417.948717,4557.435897,4540.000000,4256.410256,4510.256410,4208.205128,4453.846153,4215.384615,4239.487179,4514.358974,4222.051282,4666.666666,4016.923076,4058.461538
116,4424.102564,4553.333333,4538.974358,4260.512820,4515.384615,4212.307692,4453.333333,4212.820512,4247.692307,4520.000000,4232.307692,4669.230769,4009.743589,4057.948717
117,4426.153846,4558.461538,4535.384615,4252.307692,4513.333333,4211.282051,4445.128205,4217.435897,4251.282051,4521.538461,4236.923076,4668.717948,4009.230769,4061.025641
118,4422.564102,4567.179487,4536.923076,4253.846153,4514.358974,4212.820512,4450.256410,4216.923076,4247.692307,4517.435897,4226.153846,4668.205128,4017.435897,4062.564102
119,4421.538461,4564.102564,4538.974358,4257.948717,4523.076923,4216.410256,4462.051282,4218.461538,4257.948717,4524.615384,4230.256410,4670.769230,4025.641025,4064.615384
120,4424.102564,4561.025641,4537.435897,4255.897435,4525.641025,4217.948717,4459.487179,4228.717948,4263.076923,4533.846153,4247.179487,4670.769230,4023.076923,4066.153846
121,4423.076923,4564.102564,4538.461538,4257.435897,4518.461538,4214.358974,4453.846153,4229.230769,4251.794871,4531.794871,4251.282051,4672.307692,4014.358974,4063.076923
122,4422.564102,4565.641025,4543.589743,4258.461538,4515.897435,4210.256410,4459.487179,4222.051282,4248.205128,4527.179487,4240.000000,4675.897435,4022.564102,4064.102564
123,4426.153846,4565.128205,4543.589743,4255.897435,4520.512820,4211.794871,4461.025641,4224.102564,4253.846153,4527.692307,4230.256410,4671.794871,4041.025641,4071.282051
124,4424.615384,4563.589743,4538.461538,4254.871794,4517.948717,4213.333333,4454.358974,4225.128205,4254.358974,4529.743589,4231.282051,4667.692307,4032.820512,4071.282051
125,4413.333333,4554.358974,4533.333333,4250.769230,4513.333333,4209.743589,4453.333333,4216.410256,4247.692307,4525.128205,4234.871794,4666.153846,4006.666666,4060.000000
126,4408.717948,4549.743589,4529.743589,4246.666666,4512.307692,4208.205128,4453.846153,4211.282051,4243.589743,4516.410256,4231.282051,4661.025641,4002.564102,4051.794871
127,4411.794871,4554.871794,4533.333333,4247.692307,4512.820512,4208.205128,4447.692307,4211.794871,4242.564102,4512.307692,4221.538461,4657.435897,4009.230769,4050.769230
128,4410.256410,4553.333333,4538.461538,4252.307692,4514.871794,4209.230769,4448.717948,4211.794871,4241.025641,4514.871794,4219.487179,4660.000000,4007.179487,4052.820512
129,4416.923076,4551.282051,4540.000000,4256.923076,4520.512820,4213.846153,4458.974358,4216.410256,4244.102564,4522.051282,4229.743589,4666.153846,4011.282051,4060.000000
130,4426.666666,4560.512820,4540.512820,4258.461538,4524.615384,4217.948717,4458.974358,4218.461538,4248.717948,4522.564102,4236.410256,4667.692307,4022.051282,4065.128205
131,4422.051282,4566.666666,4540.512820,4256.410256,4520.512820,4215.897435,4447.179487,4214.871794,4248.205128,4522.564102,4228.717948,4664.102564,4021.538461,4060.512820
132,4413.333333,4559.487179,4536.410256,4254.871794,4513.846153,4211.282051,4444.615384,4213.846153,4240.512820,4525.128205,4223.589743,4662.051282,4016.410256,4056.410256
133,4411.794871,4551.794871,4534.871794,4254.358974,4514.871794,4211.794871,4448.205128,4215.897435,4237.435897,4520.512820,4231.794871,4664.615384,4015.897435,4058.461538
134,4412.820512,4551.794871,4537.948717,4253.846153,4516.923076,4212.307692,4447.692307,4214.358974,4246.666666,4521.025641,4235.384615,4664.102564,4016.410256,4061.025641
135,4412.820512,4553.846153,4535.897435,4254.871794,4517.435897,4211.282051,4445.128205,4210.769230,4247.179487,4524.102564,4224.102564,4658.974358,4014.871794,4061.538461
136,4406.666666,4550.769230,4527.692307,4246.666666,4515.897435,4210.256410,4445.641025,4206.666666,4230.769230,4511.794871,4211.794871,4652.307692,4002.051282,4053.846153
137,4395.384615,4538.461538,4518.974358,4235.384615,4510.256410,4206.666666,4445.128205,4203.589743,4223.589743,4497.435897,4211.282051,4647.692307,3988.717949,4039.487179
138,4399.487179,4540.000000,4520.512820,4237.948717,4507.692307,4205.641025,4445.641025,4207.179487,4236.923076,4506.666666,4220.512820,4651.794871,4001.538461,4042.051282
139,4411.794871,4557.948717,4531.794871,4248.205128,4515.897435,4211.794871,4454.358974,4215.897435,4244.615384,4519.487179,4225.641025,4661.538461,4017.435897,4057.435897
140,4413.333333,4562.051282,4537.435897,4255.384615,4521.538461,4217.435897,4461.025641,4217.948717,4238.974358,4512.307692,4224.102564,4666.153846,4011.282051,4060.512820
141,4416.923076,4560.512820,4540.000000,4261.025641,4520.000000,4221.538461,4458.974358,4216.410256,4240.512820,4513.846153,4229.230769,4670.769230,4006.153846,4062.051282
142,4427.179487,4572.307692,4546.153846,4267.692307,4524.102564,4224.102564,4460.000000,4217.948717,4250.769230,4525.641025,4237.948717,4677.435897,4017.948717,4072.307692
143,4427.179487,4573.846153,4545.128205,4264.615384,4522.051282,4217.948717,4460.512820,4220.000000,4248.717948,4520.000000,4242.051282,4676.410256,4021.538461,4072.307692
144,4425.128205,4566.153846,4542.564102,4262.564102,4517.948717,4213.846153,4456.923076,4220.000000,4243.589743,4517.435897,4241.538461,4674.358974,4021.025641,4069.743589
145,4426.153846,4571.282051,4546.666666,4268.205128,4523.076923,4219.487179,4458.461538,4223.589743,4252.307692,4526.153846,4240.000000,4676.410256,4021.025641,4072.820512
146,4416.923076,4569.230769,4544.615384,4264.615384,4522.051282,4218.974358,4458.974358,4221.025641,4248.717948,4514.871794,4231.282051,4670.256410,4010.256410,4062.564102
147,4409.743589,4552.820512,4534.358974,4252.820512,4510.256410,4212.307692,4449.743589,4209.743589,4231.794871,4500.000000,4217.435897,4659.487179,4000.000000,4049.230769
148,4412.307692,4552.307692,4533.846153,4250.769230,4506.666666,4210.256410,4449.230769,4207.692307,4234.358974,4506.666666,4217.948717,4657.948717,3994.871795,4051.282051
149,4413.846153,4566.153846,4540.000000,4263.589743,4517.435897,4215.897435,4460.000000,4215.384615,4244.102564,4507.179487,4225.641025,4664.615384,3993.846154,4057.948717
150,4411.794871,4563.589743,4537.435897,4268.717948,4523.076923,4221.538461,4462.051282,4216.923076,4237.948717,4504.615384,4224.615384,4664.615384,4001.025641,4055.897435
151,4411.794871,4552.307692,4533.846153,4262.564102,4515.384615,4218.974358,4456.410256,4214.871794,4234.358974,4512.307692,4218.461538,4658.461538,4009.230769,4050.769230
152,4411.282051,4554.871794,4536.410256,4258.461538,4507.692307,4214.871794,4457.948717,4212.820512,4237.435897,4513.333333,4221.025641,4660.512820,4012.820512,4050.256410
153,4411.282051,4563.076923,4535.384615,4260.000000,4514.358974,4217.435897,4461.025641,4209.230769,4234.358974,4507.692307,4221.025641,4663.589743,4010.256410,4051.282051
154,4409.230769,4561.025641,4529.743589,4261.538461,4521.538461,4218.974358,4458.461538,4206.153846,4229.743589,4504.102564,4214.358974,4656.410256,4001.538461,4048.717948
155,4404.615384,4557.435897,4531.282051,4264.102564,4518.461538,4215.897435,4457.948717,4205.128205,4230.256410,4500.000000,4215.897435,4652.820512,3998.974359,4046.666666
156,4408.717948,4564.615384,4537.948717,4267.692307,4517.435897,4216.410256,4458.461538,4207.179487,4235.384615,4501.025641,4222.564102,4660.512820,4009.743589,4053.333333
157,4414.871794,4570.256410,4541.025641,4267.179487,4518.974358,4222.051282,4457.435897,4209.743589,4241.025641,4509.230769,4228.717948,4665.641025,4014.871794,4058.461538
158,4413.333333,4562.051282,4537.948717,4264.615384,4518.974358,4221.538461,4460.000000,4213.846153,4240.512820,4512.820512,4231.794871,4666.153846,4014.358974,4054.358974
159,4410.256410,4551.794871,4533.333333,4263.589743,4516.923076,4215.897435,4458.461538,4213.846153,4234.358974,4508.205128,4227.179487,4666.153846,4014.871794,4049.230769
160,4410.256410,4554.358974,4532.820512,4255.897435,4513.846153,4214.871794,4450.769230,4206.666666,4227.179487,4504.615384,4219.487179,4664.102564,4014.871794,4050.769230
161,4409.743589,4557.948717,4537.435897,4254.871794,4517.435897,4220.000000,4454.871794,4206.666666,4224.102564,4507.179487,4216.410256,4662.051282,4016.923076,4053.333333
162,4409.743589,4558.461538,4540.000000,4262.564102,4522.564102,4219.487179,4463.076923,4213.333333,4230.769230,4506.153846,4220.000000,4664.615384,4018.974358,4049.743589
163,4408.205128,4561.025641,4536.923076,4262.051282,4513.333333,4212.820512,4454.358974,4211.282051,4235.897435,4497.435897,4215.897435,4662.564102,4010.256410,4042.564102
164,4397.435897,4551.282051,4528.717948,4247.179487,4501.025641,4207.179487,4441.538461,4196.410256,4222.051282,4491.794871,4203.076923,4652.307692,4000.512820,4033.846153
165,4388.205128,4536.923076,4520.000000,4235.897435,4506.153846,4205.128205,4441.025641,4187.179487,4208.717948,4487.692307,4198.461538,4644.615384,4001.025641,4024.615384
166,4391.794871,4541.538461,4520.512820,4240.000000,4510.256410,4209.743589,4442.564102,4189.743589,4213.846153,4483.589743,4200.000000,4645.128205,3994.871795,4024.615384
167,4396.923076,4549.743589,4522.051282,4248.717948,4505.641025,4209.743589,4441.025641,4195.897435,4222.564102,4487.692307,4198.974358,4645.641025,3981.538462,4031.282051
168,4397.435897,4543.076923,4521.025641,4249.743589,4505.641025,4205.128205,4441.538461,4200.512820,4221.538461,4492.820512,4201.025641,4644.102564,3986.666667,4032.820512
169,4399.487179,4537.435897,4522.564102,4246.153846,4507.179487,4207.179487,4445.128205,4201.025641,4222.564102,4488.717948,4207.692307,4646.153846,3997.948718,4029.743589
170,4399.487179,4536.410256,4523.589743,4245.641025,4504.102564,4208.205128,4445.128205,4201.025641,4228.717948,4487.179487,4207.179487,4647.179487,3992.820513,4028.717948
171,4397.435897,4538.974358,4521.538461,4248.717948,4506.666666,4205.641025,4442.051282,4201.538461,4231.282051,4497.435897,4203.589743,4645.641025,3993.846154,4032.820512
172,4402.051282,4548.205128,4527.692307,4256.410256,4514.358974,4211.794871,4448.205128,4206.153846,4231.282051,4505.641025,4206.666666,4651.794871,4008.717948,4038.974358
173,4406.153846,4549.230769,4534.358974,4264.615384,4514.358974,4220.000000,4456.923076,4212.820512,4233.333333,4507.692307,4213.846153,4660.000000,4013.846153,4045.128205
174,4404.102564,4545.641025,4532.820512,4263.076923,4514.358974,4216.923076,4458.461538,4213.333333,4238.974358,4511.282051,4222.564102,4658.974358,4014.871794,4051.794871
175,4404.102564,4548.205128,4533.333333,4257.948717,4514.871794,4214.358974,4452.307692,4214.871794,4240.000000,4510.769230,4226.666666,4655.384615,4021.025641,4054.358974
176,4402.051282,4547.692307,4535.384615,4255.384615,4512.820512,4214.871794,4450.256410,4217.435897,4243.076923,4506.153846,4219.487179,4654.871794,4018.974358,4050.769230
177,4396.410256,4544.102564,4531.282051,4252.307692,4512.820512,4214.358974,4455.897435,4215.384615,4244.615384,4505.641025,4209.230769,4652.307692,4009.743589,4046.153846
178,4398.461538,4546.666666,4531.794871,4252.307692,4511.282051,4216.410256,4456.923076,4216.923076,4239.487179,4507.692307,4213.333333,4651.282051,4008.205128,4050.256410
179,4404.102564,4547.692307,4538.461538,4255.897435,4510.256410,4213.846153,4453.846153,4218.974358,4236.410256,4505.128205,4220.512820,4654.871794,4013.846153,4055.384615
180,4408.205128,4547.692307,4539.487179,4255.897435,4514.358974,4214.358974,4455.897435,4216.923076,4240.512820,4502.564102,4220.000000,4658.461538,4017.435897,4058.461538
181,4413.846153,4555.897435,4538.461538,4260.000000,4520.512820,4218.461538,4460.512820,4216.923076,4246.153846,4510.256410,4221.538461,4659.487179,4011.282051,4061.538461
182,4411.282051,4554.358974,4541.025641,4264.615384,4514.871794,4215.897435,4457.435897,4216.410256,4244.615384,4517.435897,4219.487179,4657.948717,4008.205128,4060.512820
183,4401.538461,4545.641025,4537.435897,4255.897435,4510.256410,4213.846153,4451.282051,4212.307692,4236.410256,4511.794871,4213.846153,4657.948717,4015.384615,4057.435897
184,4402.564102,4547.692307,4537.948717,4253.333333,4517.435897,4221.025641,4454.871794,4215.384615,4234.871794,4509.743589,4215.384615,4661.025641,4014.871794,4057.435897
185,4408.205128,4554.871794,4542.051282,4262.051282,4522.051282,4223.589743,4457.948717,4218.461538,4241.025641,4518.974358,4219.487179,4661.538461,4003.076923,4061.025641
186,4402.051282,4557.435897,4540.000000,4257.435897,4515.897435,4218.461538,4452.307692,4208.205128,4240.512820,4515.384615,4217.435897,4657.435897,3996.410257,4060.000000
187,4392.307692,4550.256410,4537.435897,4251.282051,4515.384615,4216.410256,4450.769230,4203.589743,4232.820512,4504.102564,4215.384615,4652.820512,4005.641025,4055.897435
188,4395.384615,4541.538461,4539.487179,4259.487179,4522.051282,4217.948717,4454.871794,4211.794871,4235.897435,4506.666666,4210.769230,4652.820512,4019.487179,4055.897435
189,4399.487179,4544.615384,4536.923076,4259.487179,4513.846153,4218.461538,4450.769230,4215.897435,4242.564102,4512.307692,4209.230769,4654.358974,4017.948717,4054.871794
190,4393.333333,4549.230769,4530.256410,4247.179487,4504.102564,4211.282051,4442.564102,4204.615384,4233.846153,4504.615384,4210.769230,4651.794871,4001.025641,4048.717948
191,4389.743589,4545.128205,4530.769230,4244.102564,4508.717948,4205.641025,4443.589743,4198.461538,4222.564102,4498.461538,4208.205128,4646.666666,3993.333334,4046.666666
192,4395.897435,4544.102564,4536.410256,4252.820512,4510.769230,4210.769230,4446.666666,4205.641025,4230.256410,4502.564102,4208.205128,4646.666666,4003.076923,4054.358974
193,4401.538461,4545.128205,4538.461538,4261.538461,4508.717948,4210.256410,4446.153846,4207.692307,4243.589743,4510.769230,4209.743589,4654.871794,4011.794871,4061.538461
194,4401.538461,4543.589743,4537.435897,4261.538461,4508.205128,4207.179487,4445.128205,4208.205128,4236.923076,4511.794871,4212.307692,4662.051282,4011.282051,4063.076923
195,4398.974358,4546.153846,4541.025641,4254.358974,4507.692307,4210.256410,4446.666666,4212.307692,4228.205128,4502.051282,4216.410256,4659.487179,4004.102564,4058.974358
196,4394.871794,4542.564102,4535.384615,4249.743589,4506.666666,4206.666666,4446.153846,4207.179487,4231.282051,4492.307692,4209.230769,4650.256410,3995.897436,4047.692307
197,4390.256410,4529.743589,4524.615384,4246.666666,4504.615384,4203.589743,4441.538461,4200.000000,4234.871794,4497.435897,4199.487179,4649.230769,3996.410257,4043.589743
198,4394.358974,4534.871794,4532.820512,4247.692307,4506.153846,4211.282051,4448.717948,4212.820512,4242.051282,4509.230769,4206.666666,4659.487179,4007.179487,4056.410256
199,4405.641025,4544.102564,4546.153846,4251.282051,4509.230769,4213.846153,4461.538461,4224.102564,4250.769230,4513.333333,4221.538461,4668.717948,4018.974358,4066.666666
200,4408.205128,4539.487179,4543.076923,4249.230769,4508.717948,4210.769230,4460.000000,4217.948717,4248.205128,4517.435897,4227.179487,4669.743589,4021.025641,4064.615384
201,4399.487179,4536.410256,4534.871794,4248.205128,4509.230769,4216.923076,4454.358974,4215.384615,4238.974358,4525.641025,4227.179487,4667.692307,4020.512820,4062.564102
202,4395.897435,4540.512820,4537.435897,4248.205128,4509.743589,4218.461538,4456.410256,4217.435897,4238.974358,4523.589743,4218.461538,4666.153846,4027.179487,4061.538461
203,4397.948717,4539.487179,4542.051282,4248.205128,4508.205128,4211.282051,4454.358974,4217.435897,4247.179487,4514.358974,4214.871794,4663.589743,4026.153846,4060.512820
204,4391.794871,4531.282051,4533.333333,4246.666666,4505.641025,4206.153846,4446.153846,4209.230769,4242.564102,4508.717948,4222.564102,4656.410256,4009.230769,4053.846153
205,4385.128205,4527.179487,4523.589743,4245.641025,4505.641025,4201.538461,4443.076923,4204.102564,4228.717948,4505.641025,4216.410256,4649.230769,4001.025641,4044.615384
206,4394.871794,4535.897435,4532.820512,4247.692307,4506.666666,4201.025641,4443.589743,4212.307692,4230.256410,4508.717948,4204.102564,4651.794871,4015.897435,4051.282051
207,4402.564102,4543.589743,4542.564102,4247.179487,4506.153846,4206.153846,4448.205128,4217.948717,4237.435897,4509.743589,4209.743589,4656.410256,4023.589743,4060.000000
208,4396.923076,4533.333333,4534.358974,4244.615384,4502.564102,4206.666666,4451.282051,4211.794871,4233.333333,4506.153846,4217.435897,4651.794871,4007.179487,4049.743589
209,4395.897435,4526.666666,4532.307692,4248.717948,4503.589743,4203.589743,4453.333333,4214.358974,4232.820512,4507.692307,4215.897435,4649.743589,4005.641025,4044.615384
210,4397.948717,4534.871794,4542.051282,4250.256410,4507.692307,4203.076923,4452.820512,4218.461538,4233.333333,4508.717948,4211.794871,4654.871794,4024.102564,4051.282051
211,4388.205128,4532.820512,4537.948717,4236.923076,4503.589743,4203.589743,4446.153846,4207.179487,4230.256410,4505.128205,4208.205128,4649.743589,4013.333333,4044.102564
212,4376.923076,4520.000000,4525.641025,4227.179487,4498.974358,4203.589743,4444.102564,4201.538461,4231.282051,4504.615384,4199.487179,4640.512820,3989.743590,4033.333333
213,4383.076923,4518.461538,4528.205128,4232.820512,4504.615384,4208.717948,4454.358974,4211.794871,4231.282051,4507.179487,4196.923076,4646.666666,4007.692307,4041.025641
214,4394.358974,4529.743589,4539.487179,4246.153846,4512.820512,4215.897435,4462.564102,4220.000000,4230.769230,4507.179487,4210.256410,4655.384615,4033.333333,4052.307692
215,4395.897435,4533.846153,4541.538461,4249.230769,4511.282051,4214.871794,4457.435897,4217.435897,4238.461538,4509.743589,4218.974358,4656.410256,4023.589743,4053.846153
216,4394.358974,4533.846153,4537.435897,4236.923076,4504.615384,4210.256410,4456.410256,4216.410256,4246.666666,4512.307692,4217.948717,4656.923076,4013.333333,4052.820512
217,4393.333333,4539.487179,4537.948717,4239.487179,4509.743589,4213.333333,4464.615384,4223.076923,4250.256410,4517.948717,4217.948717,4658.461538,4015.897435,4054.871794
218,4389.743589,4536.923076,4538.461538,4248.205128,4516.923076,4215.384615,4463.076923,4219.487179,4247.692307,4521.025641,4215.384615,4654.358974,4007.179487,4050.769230
219,4386.666666,4526.153846,4533.846153,4236.410256,4511.282051,4208.717948,4453.846153,4206.153846,4238.974358,4511.282051,4206.666666,4647.179487,4003.076923,4042.564102
220,4388.205128,4526.153846,4529.743589,4232.307692,4504.102564,4205.128205,4452.820512,4202.051282,4229.230769,4493.846153,4203.076923,4643.589743,4010.769230,4040.512820
221,4386.666666,4533.333333,4530.769230,4247.179487,4504.102564,4206.666666,4453.846153,4204.615384,4224.615384,4488.717948,4205.641025,4644.102564,4007.179487,4043.076923
222,4389.743589,4532.307692,4533.333333,4250.769230,4508.205128,4208.205128,4451.794871,4206.153846,4226.153846,4503.589743,4204.102564,4647.179487,3998.974359,4045.641025
223,4400.512820,4532.820512,4533.846153,4243.589743,4512.820512,4212.307692,4453.333333,4210.256410,4231.282051,4516.410256,4204.615384,4650.256410,4007.692307,4051.794871
224,4404.102564,4538.974358,4536.410256,4247.692307,4511.794871,4214.871794,4457.948717,4215.384615,4233.846153,4512.820512,4213.333333,4653.846153,4024.102564,4062.051282
225,4402.564102,4545.128205,4538.461538,4253.333333,4510.256410,4213.333333,4458.974358,4214.871794,4232.820512,4506.153846,4225.128205,4654.358974,4019.487179,4062.051282
226,4400.000000,4549.230769,4540.000000,4251.282051,4513.846153,4211.794871,4452.820512,4209.743589,4232.307692,4506.666666,4224.102564,4651.794871,4008.205128,4053.846153
227,4398.461538,4542.564102,4545.128205,4253.846153,4512.820512,4207.179487,4450.769230,4210.256410,4231.794871,4509.230769,4211.282051,4651.282051,4017.435897,4056.410256
228,4398.974358,4534.871794,4545.128205,4254.358974,4504.102564,4198.461538,4452.820512,4215.897435,4233.846153,4513.333333,4205.641025,4652.820512,4022.564102,4058.461538
229,4399.487179,4537.948717,4535.897435,4244.615384,4503.076923,4198.974358,4450.769230,4211.282051,4236.923076,4509.743589,4206.153846,4649.230769,4010.769230,4048.205128
230,4395.384615,4541.538461,4533.333333,4237.948717,4506.666666,4205.128205,4447.692307,4205.128205,4233.333333,4501.538461,4209.230769,4644.615384,4008.205128,4044.615384
231,4396.410256,4541.538461,4540.512820,4248.205128,4506.666666,4208.717948,4455.384615,4211.794871,4232.307692,4505.128205,4215.384615,4648.717948,4018.461538,4053.333333
232,4401.538461,4542.564102,4540.512820,4256.410256,4508.205128,4206.153846,4460.000000,4210.769230,4233.846153,4506.666666,4209.743589,4651.794871,4024.102564,4053.846153
233,4393.333333,4539.487179,4530.769230,4248.205128,4506.666666,4200.512820,4448.205128,4195.897435,4227.692307,4492.820512,4194.871794,4642.051282,4013.846153,4041.538461
234,4383.589743,4531.794871,4528.717948,4240.512820,4501.025641,4201.025641,4442.564102,4197.435897,4222.051282,4488.717948,4203.076923,4637.948717,3998.974359,4040.000000
235,4389.743589,4531.282051,4537.948717,4244.615384,4502.051282,4202.564102,4450.769230,4211.282051,4233.333333,4507.179487,4220.000000,4648.717948,4009.743589,4050.769230
236,4394.871794,4536.923076,4542.051282,4250.769230,4506.666666,4202.564102,4457.948717,4216.410256,4245.128205,4518.974358,4216.410256,4654.871794,4035.897435,4055.384615
237,4389.743589,4538.974358,4537.435897,4248.205128,4506.153846,4202.564102,4460.512820,4216.410256,4241.538461,4512.820512,4214.358974,4652.307692,4033.846153,4052.307692
238,4388.205128,4538.461538,4537.435897,4245.641025,4505.641025,4201.538461,4458.461538,4215.897435,4237.435897,4505.128205,4217.948717,4652.307692,4010.256410,4050.256410
239,4387.179487,4532.820512,4539.487179,4244.615384,4503.076923,4201.025641,4451.794871,4215.897435,4237.948717,4505.128205,4209.743589,4647.692307,4005.128205,4044.615384
240,4382.051282,4525.641025,4533.333333,4240.000000,4499.487179,4201.538461,4448.205128,4214.358974,4234.358974,4505.128205,4203.076923,4638.974358,4017.435897,4041.025641
241,4388.205128,4529.743589,4531.794871,4241.538461,4502.051282,4199.487179,4454.358974,4211.282051,4231.794871,4503.076923,4209.230769,4640.000000,4026.666666,4049.230769
242,4401.538461,4542.564102,4541.025641,4248.717948,4505.641025,4199.487179,4459.487179,4215.384615,4242.051282,4511.282051,4222.051282,4649.230769,4034.871794,4057.435897
243,4402.564102,4542.051282,4544.102564,4249.230769,4502.051282,4199.487179,4457.435897,4220.512820,4250.769230,4522.564102,4233.333333,4651.282051,4042.564102,4059.487179
244,4395.897435,4532.820512,4535.897435,4241.538461,4502.051282,4200.000000,4455.384615,4211.282051,4237.435897,4513.846153,4225.641025,4646.666666,4037.435897,4055.384615
245,4394.358974,4541.538461,4535.384615,4239.487179,4507.179487,4201.538461,4457.435897,4202.051282,4222.051282,4497.948717,4209.230769,4643.076923,4029.230769,4048.205128
246,4397.435897,4551.794871,4540.000000,4248.717948,4505.128205,4201.538461,4460.000000,4209.743589,4227.179487,4499.487179,4206.666666,4645.128205,4034.358974,4049.230769
247,4393.846153,4540.000000,4537.435897,4253.333333,4501.025641,4201.025641,4456.410256,4210.769230,4233.846153,4502.564102,4204.615384,4643.589743,4026.666666,4046.153846
248,4388.205128,4534.871794,4533.846153,4245.641025,4502.564102,4200.000000,4447.179487,4200.000000,4228.205128,4498.461538,4202.051282,4637.948717,4005.641025,4038.461538
249,4392.820512,4546.666666,4538.461538,4243.076923,4502.051282,4200.512820,4443.076923,4196.923076,4228.205128,4504.615384,4211.794871,4640.512820,4013.333333,4046.153846
250,4401.025641,4552.307692,4546.153846,4250.256410,4497.948717,4200.000000,4448.205128,4207.179487,4236.923076,4513.846153,4221.025641,4650.256410,4033.333333,4059.487179
251,4400.000000,4550.256410,4546.153846,4250.769230,4499.487179,4198.974358,4449.743589,4211.794871,4233.846153,4506.666666,4222.051282,4653.846153,4027.692307,4057.948717
252,4396.923076,4545.128205,4538.461538,4247.692307,4504.615384,4200.512820,4444.615384,4205.641025,4226.153846,4501.538461,4222.051282,4649.230769,4013.846153,4051.794871
253,4396.410256,4543.076923,4535.384615,4249.230769,4508.205128,4202.564102,4449.743589,4206.153846,4236.410256,4510.769230,4218.461538,4646.666666,4022.051282,4053.333333
254,4395.384615,4546.153846,4535.897435,4244.615384,4504.102564,4201.025641,4453.333333,4215.897435,4248.717948,4514.871794,4214.871794,4646.153846,4035.897435,4053.846153
255,4394.871794,4546.153846,4535.384615,4234.871794,4496.923076,4197.948717,4446.666666,4219.487179,4240.512820,4508.205128,4215.384615,4642.564102,4029.743589,4050.256410
