,AF3,F7,F3,FC5,T7,P7,O1,O2,P8,T8,FC6,F4,F8,AF4
0,4379.487179,4533.333333,4505.128205,4257.435897,4782.564102,4201.025641,4441.025641,4201.538461,4229.743589,4508.205128,4203.076923,4644.102564,3941.025642,4058.461538
1,4380.512820,4537.435897,4511.282051,4268.205128,4780.000000,4202.051282,4446.153846,4203.076923,4230.256410,4520.512820,4206.153846,4646.153846,3936.410257,4057.948717
2,4371.282051,4529.743589,4508.205128,4258.461538,4770.769230,4189.743589,4443.076923,4201.025641,4224.615384,4511.282051,4197.435897,4637.948717,3926.666667,4046.153846
3,4368.717948,4527.692307,4504.615384,4250.769230,4771.794871,4187.179487,4441.025641,4201.538461,4218.461538,4497.435897,4194.871794,4635.384615,3928.205129,4040.512820
4,4374.871794,4531.794871,4509.230769,4257.435897,4780.000000,4198.974358,4444.102564,4201.538461,4214.358974,4495.897435,4195.897435,4638.974358,3934.871795,4044.615384
5,4382.564102,4537.435897,4518.461538,4263.076923,4783.076923,4206.153846,4448.717948,4202.051282,4220.512820,4502.051282,4198.461538,4646.153846,3935.897436,4055.897435
6,4383.589743,4541.538461,4521.025641,4265.641025,4782.564102,4202.564102,4450.256410,4204.615384,4224.615384,4505.128205,4204.615384,4651.794871,3929.230770,4058.974358
7,4379.487179,4537.435897,4513.846153,4267.179487,4782.564102,4198.461538,4445.128205,4202.564102,4217.948717,4503.589743,4203.589743,4647.179487,3921.538462,4050.256410
8,4380.000000,4532.307692,4511.282051,4264.615384,4780.000000,4200.000000,4444.102564,4200.000000,4220.000000,4507.179487,4197.948717,4643.589743,3918.461539,4049.230769
9,4386.153846,4536.923076,4515.384615,4263.589743,4778.974358,4201.538461,4449.743589,4202.564102,4229.230769,4510.256410,4201.025641,4650.256410,3932.820513,4061.025641
10,4381.538461,4532.307692,4509.743589,4256.923076,4782.051282,4196.923076,4447.692307,4200.000000,4221.025641,4494.871794,4199.487179,4650.256410,3939.487180,4056.923076
11,4373.333333,4521.025641,4504.102564,4250.256410,4779.487179,4195.384615,4442.564102,4196.923076,4210.256410,4484.102564,4194.871794,4647.692307,3922.564103,4044.615384
12,4383.076923,4530.256410,4511.794871,4258.974358,4776.923076,4199.487179,4444.615384,4198.461538,4215.384615,4501.025641,4209.230769,4650.256410,3920.512821,4052.820512
13,4391.282051,4543.589743,4515.384615,4268.717948,4780.000000,4199.487179,4443.076923,4202.564102,4221.538461,4510.769230,4218.974358,4650.769230,3938.461539,4063.076923
14,4386.666666,4536.923076,4510.769230,4264.102564,4779.487179,4198.974358,4446.666666,4211.794871,4231.282051,4509.743589,4209.230769,4648.717948,3954.358975,4061.538461
15,4388.717948,4525.641025,4511.794871,4256.410256,4780.512820,4203.076923,4457.948717,4222.051282,4245.641025,4526.153846,4210.769230,4652.820512,3971.282052,4063.076923
16,4392.307692,4526.153846,4512.820512,4256.410256,4784.615384,4204.102564,4452.307692,4220.512820,4241.538461,4532.820512,4218.974358,4653.846153,3977.435898,4064.615384
17,4387.179487,4533.846153,4508.205128,4263.076923,4776.410256,4200.000000,4441.538461,4210.256410,4228.717948,4510.256410,4207.692307,4647.692307,3957.435898,4057.948717
18,4388.717948,4540.000000,4509.230769,4268.205128,4770.769230,4203.076923,4453.333333,4210.769230,4230.256410,4508.205128,4204.102564,4647.692307,3947.692308,4058.974358
19,4393.846153,4540.000000,4511.282051,4264.102564,4779.487179,4205.128205,4458.461538,4215.897435,4234.358974,4517.948717,4213.846153,4651.794871,3964.102565,4064.615384
20,4391.794871,4537.435897,4509.230769,4262.051282,4781.025641,4202.564102,4446.153846,4215.897435,4232.307692,4508.717948,4207.179487,4651.282051,3972.820513,4061.538461
21,4393.846153,4538.974358,4511.794871,4265.128205,4775.384615,4205.641025,4449.743589,4218.461538,4237.948717,4514.358974,4200.000000,4650.256410,3968.717949,4062.051282
22,4399.487179,4545.128205,4514.358974,4265.641025,4780.512820,4209.230769,4463.076923,4221.538461,4246.153846,4536.410256,4212.307692,4654.358974,3968.717949,4067.692307
23,4395.897435,4544.615384,4510.256410,4263.076923,4783.076923,4204.102564,4455.384615,4218.461538,4239.487179,4529.743589,4222.564102,4656.410256,3964.102565,4063.589743
24,4386.666666,4534.871794,4502.564102,4259.487179,4777.435897,4197.435897,4440.512820,4211.282051,4228.717948,4507.179487,4213.333333,4648.205128,3948.205129,4052.307692
25,4382.564102,4532.820512,4500.512820,4259.487179,4777.435897,4198.461538,4441.025641,4205.641025,4229.743589,4506.666666,4199.487179,4638.461538,3937.435898,4048.205128
26,4384.615384,4540.000000,4504.102564,4260.000000,4781.538461,4200.000000,4446.666666,4205.641025,4231.794871,4509.743589,4191.794871,4638.461538,3941.538462,4051.282051
27,4386.153846,4533.333333,4504.102564,4257.948717,4781.025641,4197.435897,4446.153846,4211.282051,4227.179487,4504.102564,4193.333333,4644.102564,3948.717949,4049.230769
28,4385.641025,4525.128205,4500.512820,4259.487179,4781.025641,4197.435897,4441.025641,4214.871794,4224.615384,4505.128205,4201.025641,4643.589743,3947.692308,4046.666666
29,4390.769230,4532.820512,4505.128205,4265.128205,4787.692307,4200.512820,4445.128205,4215.384615,4231.282051,4507.692307,4202.564102,4642.051282,3945.128206,4052.307692
30,4395.897435,4540.000000,4513.333333,4268.717948,4793.846153,4204.102564,4457.435897,4220.000000,4238.974358,4506.153846,4202.564102,4646.666666,3954.358975,4060.512820
31,4395.897435,4538.461538,4512.820512,4266.666666,4793.846153,4202.051282,4456.923076,4218.461538,4242.564102,4510.769230,4210.256410,4647.179487,3963.589744,4059.487179
32,4396.410256,4538.461538,4510.769230,4261.538461,4791.282051,4201.025641,4445.641025,4215.384615,4242.564102,4518.974358,4215.897435,4647.692307,3964.615385,4058.461538
33,4395.897435,4537.948717,4509.743589,4258.461538,4785.128205,4200.000000,4441.538461,4214.871794,4238.461538,4514.871794,4208.717948,4649.743589,3963.076924,4062.564102
34,4391.282051,4530.256410,4504.102564,4261.025641,4777.948717,4196.410256,4443.076923,4208.205128,4231.794871,4507.179487,4197.435897,4644.615384,3955.384616,4058.461538
35,4389.743589,4529.743589,4500.512820,4263.076923,4778.974358,4197.435897,4443.076923,4201.025641,4228.205128,4502.564102,4196.923076,4641.538461,3950.256411,4053.846153
36,4394.871794,4536.923076,4503.589743,4262.564102,4784.615384,4200.000000,4444.102564,4207.692307,4229.743589,4502.564102,4209.230769,4645.641025,3961.025642,4058.974358
37,4400.512820,4541.025641,4506.666666,4264.615384,4781.025641,4200.000000,4447.179487,4214.358974,4231.282051,4508.717948,4213.846153,4649.230769,3971.282052,4061.538461
38,4404.615384,4543.076923,4509.230769,4269.230769,4781.025641,4202.051282,4448.717948,4212.820512,4236.410256,4516.410256,4207.179487,4649.743589,3967.179488,4062.051282
39,4407.179487,4541.538461,4513.846153,4273.846153,4791.794871,4203.076923,4449.230769,4214.871794,4240.512820,4519.487179,4211.794871,4649.230769,3960.512821,4068.205128
40,4404.615384,4538.461538,4512.307692,4270.769230,4794.358974,4202.051282,4447.692307,4212.820512,4237.948717,4517.948717,4220.512820,4644.615384,3959.487180,4069.230769
41,4400.000000,4538.461538,4506.153846,4262.564102,4781.538461,4201.538461,4447.179487,4209.743589,4234.358974,4511.794871,4211.794871,4639.487179,3962.564103,4062.051282
42,4402.564102,4541.025641,4505.128205,4261.538461,4770.769230,4202.564102,4448.717948,4213.846153,4236.410256,4505.641025,4206.153846,4638.461538,3973.333334,4059.487179
43,4403.589743,4540.000000,4505.641025,4263.076923,4772.307692,4201.025641,4447.179487,4211.282051,4235.384615,4509.230769,4211.282051,4637.948717,3977.435898,4059.487179
44,4398.461538,4535.897435,4501.025641,4261.538461,4777.435897,4200.512820,4445.128205,4205.641025,4229.743589,4510.256410,4204.102564,4637.435897,3972.307693,4058.461538
45,4399.487179,4534.358974,4498.974358,4261.025641,4780.000000,4200.512820,4445.641025,4208.717948,4229.230769,4505.641025,4197.948717,4638.974358,3967.692308,4057.948717
46,4405.641025,4536.923076,4500.512820,4264.615384,4779.487179,4201.025641,4448.205128,4213.846153,4231.282051,4507.692307,4202.564102,4638.461538,3967.692308,4057.948717
47,4403.589743,4540.512820,4502.564102,4264.615384,4780.000000,4203.076923,4450.769230,4212.307692,4229.743589,4506.666666,4204.102564,4637.948717,3965.641026,4056.410256
48,4396.410256,4533.846153,4501.538461,4263.589743,4782.051282,4204.102564,4451.282051,4207.692307,4227.692307,4496.410256,4197.948717,4638.461538,3960.512821,4050.769230
49,4394.358974,4523.589743,4496.410256,4262.564102,4778.974358,4201.025641,4446.666666,4200.000000,4220.000000,4488.717948,4190.769230,4636.923076,3956.410257,4045.128205
50,4394.871794,4525.128205,4496.410256,4261.025641,4775.384615,4198.974358,4444.102564,4201.538461,4213.333333,4490.256410,4192.820512,4635.384615,3956.923077,4046.666666
51,4395.897435,4531.282051,4502.564102,4262.564102,4778.974358,4201.025641,4452.307692,4213.846153,4223.589743,4497.948717,4201.025641,4640.512820,3962.051283,4055.384615
52,4396.410256,4533.846153,4506.153846,4263.076923,4780.512820,4203.076923,4461.538461,4216.923076,4234.871794,4504.102564,4200.000000,4642.564102,3966.666667,4059.487179
53,4401.538461,4537.435897,4509.230769,4264.102564,4781.025641,4202.564102,4459.487179,4211.794871,4226.666666,4503.076923,4198.461538,4643.589743,3971.282052,4058.974358
54,4410.256410,4543.589743,4514.358974,4270.256410,4787.179487,4202.564102,4450.769230,4206.153846,4215.897435,4504.615384,4204.615384,4646.666666,3976.410257,4058.461538
55,4412.307692,4545.128205,4514.871794,4277.435897,4789.230769,4201.538461,4449.743589,4201.538461,4214.871794,4502.051282,4201.538461,4646.153846,3982.051283,4060.512820
56,4410.769230,4548.205128,4510.769230,4279.487179,4787.692307,4201.025641,4453.333333,4201.025641,4215.384615,4493.333333,4198.974358,4645.128205,3986.666667,4065.641025
57,4413.333333,4551.794871,4514.358974,4276.923076,4795.897435,4203.589743,4451.794871,4206.153846,4219.487179,4500.000000,4208.717948,4647.179487,3989.230770,4065.641025
58,4413.846153,4547.692307,4516.410256,4272.820512,4796.410256,4202.051282,4447.179487,4211.282051,4228.717948,4509.743589,4209.230769,4644.615384,3989.743590,4060.000000
59,4408.717948,4540.512820,4510.256410,4269.743589,4788.717948,4201.025641,4448.205128,4212.307692,4230.769230,4498.974358,4200.512820,4637.948717,3985.641026,4058.461538
60,4405.128205,4535.384615,4509.743589,4267.179487,4791.794871,4207.179487,4457.948717,4212.307692,4230.256410,4493.846153,4201.025641,4641.538461,3982.051283,4060.512820
61,4406.153846,4538.461538,4511.794871,4270.769230,4793.333333,4210.256410,4460.512820,4218.461538,4235.897435,4509.743589,4200.512820,4644.615384,3983.589744,4057.948717
62,4400.512820,4536.923076,4503.589743,4262.564102,4781.025641,4201.538461,4447.179487,4217.948717,4232.820512,4509.230769,4185.641025,4634.871794,3976.923077,4049.230769
63,4394.358974,4525.641025,4496.410256,4243.589743,4776.923076,4195.897435,4442.051282,4205.128205,4219.487179,4493.846153,4181.538461,4626.666666,3970.769231,4044.615384
64,4401.025641,4527.692307,4501.538461,4248.717948,4781.538461,4204.615384,4456.923076,4204.102564,4223.589743,4495.897435,4200.000000,4631.794871,3980.000000,4049.230769
65,4407.692307,4538.461538,4507.179487,4272.307692,4779.487179,4212.307692,4463.076923,4214.871794,4235.897435,4505.641025,4205.128205,4638.461538,3984.102565,4051.794871
66,4404.615384,4531.282051,4507.179487,4273.846153,4779.487179,4208.205128,4452.307692,4217.948717,4235.897435,4507.692307,4191.794871,4635.384615,3975.897436,4051.794871
67,4399.487179,4518.974358,4501.538461,4256.410256,4778.974358,4200.000000,4444.615384,4211.282051,4232.307692,4507.179487,4185.641025,4626.666666,3970.256411,4050.769230
68,4391.794871,4523.076923,4492.820512,4245.641025,4775.384615,4195.897435,4444.102564,4201.538461,4225.128205,4502.564102,4184.615384,4619.487179,3964.615385,4039.487179
69,4386.666666,4527.179487,4494.358974,4247.179487,4777.948717,4200.512820,4444.615384,4202.051282,4223.076923,4497.948717,4184.102564,4618.974358,3958.461539,4034.358974
70,4395.384615,4522.564102,4505.128205,4257.435897,4784.102564,4207.179487,4448.717948,4211.794871,4229.743589,4501.538461,4188.205128,4624.615384,3964.615385,4047.179487
71,4403.076923,4523.076923,4507.692307,4258.461538,4784.102564,4206.153846,4453.333333,4212.307692,4228.205128,4506.666666,4189.743589,4628.717948,3974.871795,4053.846153
72,4395.897435,4524.615384,4501.538461,4253.846153,4780.512820,4203.076923,4458.461538,4210.769230,4223.589743,4508.717948,4188.717948,4629.230769,3973.846154,4043.589743
73,4386.153846,4518.974358,4500.000000,4253.333333,4781.025641,4198.461538,4456.410256,4212.307692,4225.641025,4507.692307,4186.666666,4624.102564,3970.769231,4036.410256
74,4382.564102,4514.871794,4501.025641,4241.538461,4780.000000,4193.333333,4447.179487,4206.666666,4223.589743,4502.051282,4181.538461,4619.487179,3973.846154,4036.410256
75,4376.410256,4505.128205,4498.461538,4227.179487,4778.461538,4193.333333,4451.282051,4206.153846,4222.564102,4502.564102,4180.000000,4623.076923,3969.743590,4036.410256
76,4371.794871,4494.871794,4493.846153,4232.307692,4780.000000,4195.384615,4458.974358,4213.846153,4225.641025,4504.615384,4185.128205,4621.538461,3962.051283,4032.820512
77,4375.897435,4506.666666,4489.743589,4244.102564,4782.051282,4193.846153,4450.256410,4206.666666,4216.923076,4496.410256,4185.128205,4613.333333,3967.692308,4033.333333
78,4382.051282,4528.205128,4492.820512,4247.179487,4778.974358,4193.846153,4445.128205,4197.948717,4210.769230,4490.256410,4183.589743,4620.000000,3976.923077,4040.512820
79,4382.051282,4531.282051,4498.974358,4249.230769,4782.051282,4197.948717,4452.307692,4203.589743,4217.435897,4492.307692,4183.589743,4630.256410,3977.948718,4046.153846
80,4377.948717,4525.641025,4499.487179,4249.743589,4792.820512,4197.948717,4449.230769,4202.564102,4216.410256,4492.820512,4182.564102,4624.615384,3976.410257,4046.153846
81,4373.846153,4520.000000,4493.846153,4246.153846,4790.256410,4197.435897,4443.076923,4198.974358,4208.205128,4491.794871,4186.666666,4622.051282,3974.358975,4046.153846
82,4370.769230,4513.333333,4489.743589,4246.153846,4786.153846,4199.487179,4445.641025,4202.051282,4207.692307,4491.794871,4185.641025,4628.205128,3971.282052,4044.102564
83,4374.871794,4518.461538,4493.333333,4246.153846,4790.256410,4197.948717,4444.615384,4202.051282,4214.358974,4492.307692,4178.461538,4629.230769,3971.282052,4042.051282
84,4380.000000,4523.076923,4496.410256,4240.512820,4790.769230,4192.307692,4441.538461,4201.025641,4218.461538,4496.410256,4180.512820,4627.692307,3980.000000,4045.128205
85,4380.000000,4523.589743,4497.948717,4239.487179,4791.282051,4191.794871,4444.615384,4205.641025,4221.025641,4503.589743,4191.282051,4633.846153,3996.923077,4053.333333
86,4382.051282,4531.282051,4503.589743,4248.205128,4796.410256,4200.512820,4446.153846,4208.717948,4225.128205,4504.102564,4195.384615,4643.589743,3998.974359,4060.000000
87,4388.205128,4532.820512,4507.692307,4253.333333,4796.923076,4205.128205,4445.641025,4209.230769,4228.205128,4502.564102,4197.948717,4645.128205,3986.153847,4061.025641
88,4390.769230,4523.589743,4506.666666,4256.923076,4794.358974,4201.538461,4447.692307,4214.358974,4230.769230,4503.076923,4200.512820,4641.538461,3994.871795,4061.025641
89,4385.641025,4522.051282,4505.128205,4257.435897,4797.435897,4201.025641,4448.205128,4217.435897,4228.717948,4505.641025,4189.230769,4640.000000,4012.820512,4058.461538
90,4381.025641,4528.205128,4502.564102,4247.692307,4796.923076,4202.051282,4445.641025,4215.384615,4226.153846,4508.717948,4185.641025,4638.461538,4005.641025,4051.794871
91,4375.897435,4518.974358,4496.410256,4238.974358,4788.717948,4195.897435,4442.564102,4209.230769,4226.666666,4503.076923,4195.384615,4633.333333,3994.358975,4046.666666
92,4372.307692,4507.692307,4492.307692,4244.615384,4783.076923,4192.307692,4441.538461,4208.205128,4227.692307,4498.461538,4196.410256,4630.769230,3991.794872,4045.641025
93,4374.358974,4517.948717,4494.358974,4248.205128,4784.102564,4196.410256,4442.564102,4214.358974,4228.717948,4508.205128,4188.717948,4635.384615,3986.666667,4045.641025
94,4374.871794,4522.564102,4493.333333,4239.487179,4787.179487,4193.333333,4442.564102,4212.307692,4227.179487,4509.230769,4189.743589,4635.897435,3989.743590,4043.589743
95,4371.282051,4512.307692,4490.769230,4237.948717,4790.256410,4191.282051,4442.564102,4208.205128,4226.153846,4501.025641,4192.307692,4629.743589,4004.615384,4046.153846
96,4372.820512,4513.846153,4494.358974,4244.615384,4791.794871,4196.923076,4444.615384,4211.794871,4227.179487,4501.538461,4187.179487,4629.230769,4007.179487,4051.282051
97,4373.846153,4516.410256,4496.410256,4241.538461,4787.692307,4193.333333,4445.128205,4208.205128,4222.051282,4497.435897,4186.666666,4631.794871,3989.230770,4046.666666
98,4365.128205,4503.589743,4491.282051,4228.205128,4780.512820,4187.179487,4441.538461,4200.512820,4219.487179,4491.282051,4190.256410,4628.205128,3974.358975,4038.461538
99,4365.128205,4503.076923,4491.282051,4230.769230,4781.025641,4191.282051,4440.512820,4203.076923,4229.230769,4495.897435,4188.717948,4625.641025,3981.538462,4041.538461
100,4375.897435,4517.948717,4498.974358,4246.666666,4789.743589,4196.410256,4443.589743,4206.666666,4229.743589,4501.538461,4186.666666,4633.333333,3997.435898,4051.282051
101,4376.923076,4519.487179,4500.000000,4246.153846,4789.743589,4192.307692,4441.538461,4200.000000,4212.307692,4497.948717,4186.153846,4635.384615,3994.358975,4047.179487
102,4367.179487,4512.307692,4490.769230,4238.461538,4778.461538,4188.717948,4431.794871,4192.820512,4205.128205,4490.769230,4186.666666,4630.769230,3977.435898,4037.435897
103,4362.564102,4503.589743,4490.769230,4243.076923,4773.846153,4186.666666,4426.153846,4192.820512,4212.307692,4486.153846,4187.179487,4630.769230,3972.820513,4039.487179
104,4369.230769,4500.512820,4495.384615,4248.205128,4781.025641,4185.641025,4433.333333,4198.461538,4213.846153,4485.641025,4186.666666,4635.384615,3977.435898,4045.128205
105,4380.512820,4520.512820,4496.410256,4245.641025,4788.205128,4192.820512,4442.051282,4203.076923,4220.000000,4495.384615,4186.153846,4640.512820,3983.589744,4046.666666
106,4384.615384,4536.410256,4501.025641,4247.179487,4791.794871,4198.974358,4444.615384,4202.564102,4228.717948,4501.538461,4187.692307,4645.641025,3983.589744,4048.205128
107,4383.589743,4529.230769,4506.666666,4254.358974,4788.205128,4194.871794,4441.025641,4201.538461,4223.076923,4495.384615,4191.794871,4646.153846,3981.025642,4051.794871
108,4388.717948,4520.000000,4505.128205,4261.538461,4786.153846,4192.307692,4437.948717,4200.512820,4216.410256,4489.743589,4195.897435,4643.589743,3985.128206,4056.410256
109,4391.794871,4523.076923,4503.589743,4261.025641,4792.307692,4196.410256,4440.512820,4202.564102,4223.076923,4494.871794,4195.897435,4644.102564,3991.282052,4058.974358
110,4389.743589,4532.307692,4503.589743,4254.871794,4794.871794,4197.435897,4440.512820,4204.615384,4227.179487,4502.564102,4195.384615,4647.179487,3991.794872,4055.897435
111,4388.717948,4534.871794,4500.512820,4252.307692,4791.282051,4195.384615,4431.794871,4201.538461,4218.974358,4501.538461,4194.358974,4644.102564,3987.179488,4050.256410
112,4383.076923,4527.179487,4493.333333,4250.256410,4787.692307,4193.333333,4426.153846,4198.974358,4215.384615,4496.410256,4188.205128,4634.358974,3977.435898,4045.128205
113,4378.461538,4520.000000,4490.256410,4252.820512,4784.615384,4192.307692,4434.871794,4200.000000,4220.000000,4491.282051,4185.641025,4631.794871,3976.923077,4044.615384
114,4383.076923,4523.076923,4497.948717,4262.051282,4790.769230,4198.974358,4445.128205,4203.076923,4225.128205,4500.512820,4190.256410,4637.435897,3990.256411,4049.230769
115,4382.564102,4527.179487,4504.615384,4260.512820,4800.512820,4205.128205,4443.589743,4202.564102,4224.615384,4512.820512,4188.717948,4638.461538,3991.282052,4048.205128
116,4376.410256,4531.282051,4500.000000,4252.307692,4794.358974,4198.974358,4434.358974,4200.000000,4216.410256,4500.512820,4185.641025,4636.923076,3975.384616,4042.051282
117,4373.846153,4523.589743,4494.358974,4251.282051,4784.102564,4190.769230,4426.153846,4200.000000,4207.692307,4486.666666,4184.615384,4635.897435,3972.307693,4041.538461
118,4368.205128,4508.205128,4492.820512,4249.230769,4786.153846,4190.769230,4427.692307,4200.512820,4207.179487,4490.256410,4173.333333,4629.230769,3976.923077,4037.948717
119,4367.692307,4511.282051,4493.333333,4245.641025,4787.179487,4195.897435,4432.307692,4202.564102,4209.743589,4491.282051,4164.615384,4628.205128,3974.871795,4031.282051
120,4372.820512,4518.461538,4491.794871,4239.487179,4783.589743,4194.358974,4432.307692,4205.641025,4208.717948,4486.153846,4170.769230,4633.333333,3975.897436,4032.820512
121,4368.205128,4508.717948,4487.179487,4233.333333,4780.512820,4184.102564,4427.692307,4201.538461,4205.128205,4486.153846,4176.923076,4628.717948,3964.615385,4030.769230
122,4363.076923,4503.076923,4486.666666,4240.000000,4775.384615,4180.000000,4424.615384,4195.897435,4204.615384,4486.153846,4173.333333,4622.564102,3954.358975,4027.179487
123,4372.307692,4514.358974,4495.384615,4249.230769,4772.820512,4187.692307,4426.153846,4199.487179,4206.153846,4485.128205,4170.256410,4628.205128,3972.820513,4036.410256
124,4383.076923,4522.564102,4502.564102,4247.692307,4783.589743,4195.897435,4429.230769,4205.128205,4211.282051,4490.769230,4170.256410,4636.410256,3991.282052,4044.102564
125,4380.512820,4520.000000,4499.487179,4245.641025,4791.282051,4190.769230,4428.205128,4201.538461,4216.923076,4492.307692,4171.282051,4636.923076,3977.948718,4038.974358
126,4377.435897,4517.948717,4499.487179,4249.743589,4781.538461,4186.153846,4425.128205,4204.615384,4216.410256,4493.333333,4183.589743,4636.410256,3964.615385,4034.358974
127,4387.179487,4524.102564,4507.692307,4255.384615,4777.948717,4196.923076,4429.230769,4214.358974,4214.871794,4503.076923,4197.948717,4643.076923,3984.615385,4047.179487
128,4396.923076,4530.256410,4510.769230,4255.897435,4782.051282,4202.564102,4433.333333,4217.435897,4220.000000,4508.717948,4195.384615,4647.692307,4006.666666,4060.000000
129,4393.846153,4527.692307,4509.743589,4248.205128,4781.538461,4197.435897,4430.769230,4215.384615,4227.179487,4508.205128,4183.076923,4647.179487,4006.666666,4055.384615
130,4386.153846,4524.102564,4508.717948,4244.615384,4780.512820,4199.487179,4429.743589,4211.282051,4225.641025,4511.282051,4186.666666,4647.179487,3995.897436,4044.615384
131,4384.102564,4524.615384,4504.615384,4251.794871,4783.589743,4201.538461,4431.794871,4208.205128,4221.538461,4508.205128,4193.333333,4644.102564,3986.666667,4045.641025
132,4388.205128,4521.538461,4503.076923,4254.358974,4782.564102,4197.435897,4428.205128,4210.256410,4224.615384,4501.538461,4188.205128,4640.512820,3987.179488,4050.769230
133,4391.794871,4522.051282,4507.692307,4255.384615,4780.512820,4200.000000,4428.205128,4214.871794,4230.256410,4508.717948,4191.282051,4644.102564,3998.974359,4049.230769
134,4394.358974,4532.820512,4509.743589,4256.410256,4785.641025,4204.102564,4436.410256,4214.871794,4228.717948,4519.487179,4195.897435,4650.256410,4013.333333,4054.871794
135,4394.871794,4536.410256,4503.589743,4250.769230,4788.717948,4202.051282,4438.461538,4214.358974,4222.051282,4514.358974,4189.743589,4651.282051,4010.256410,4060.512820
136,4392.820512,4527.179487,4500.512820,4248.205128,4782.564102,4201.025641,4432.307692,4217.435897,4223.076923,4511.282051,4191.282051,4647.692307,4001.538461,4056.410256
137,4387.692307,4518.974358,4500.000000,4254.358974,4779.487179,4200.512820,4427.692307,4214.358974,4225.128205,4515.897435,4195.897435,4642.564102,4001.538461,4048.205128
138,4387.179487,4520.512820,4501.025641,4262.051282,4781.025641,4199.487179,4432.307692,4210.256410,4222.564102,4520.512820,4194.358974,4640.000000,4008.717948,4047.692307
139,4391.794871,4530.256410,4505.128205,4263.076923,4781.025641,4201.025641,4441.538461,4215.384615,4222.051282,4520.512820,4199.487179,4644.102564,4015.384615,4054.358974
140,4389.743589,4533.846153,4506.666666,4254.871794,4782.051282,4202.564102,4443.589743,4217.948717,4223.589743,4514.871794,4199.487179,4646.153846,4011.282051,4055.897435
141,4385.641025,4529.743589,4499.487179,4244.615384,4783.589743,4205.128205,4439.487179,4211.282051,4217.435897,4507.692307,4186.153846,4639.487179,3996.923077,4049.230769
142,4389.743589,4531.282051,4497.435897,4251.282051,4782.564102,4205.641025,4441.025641,4210.769230,4212.307692,4508.205128,4186.153846,4636.410256,4000.000000,4046.153846
143,4397.948717,4533.846153,4502.051282,4268.205128,4780.000000,4206.153846,4445.641025,4220.000000,4219.487179,4513.846153,4200.000000,4643.589743,4021.538461,4054.358974
144,4392.820512,4524.102564,4496.923076,4263.076923,4773.333333,4207.692307,4438.974358,4217.435897,4218.461538,4512.820512,4200.512820,4643.589743,4013.846153,4052.307692
145,4379.487179,4516.923076,4487.692307,4249.230769,4760.000000,4202.564102,4432.307692,4203.589743,4210.256410,4503.589743,4186.153846,4631.282051,3985.641026,4038.974358
146,4381.538461,4526.666666,4489.230769,4249.230769,4756.923076,4203.589743,4437.435897,4204.102564,4209.230769,4498.461538,4175.897435,4627.179487,3987.692308,4038.974358
147,4389.743589,4533.846153,4493.846153,4248.717948,4761.538461,4210.256410,4444.615384,4212.307692,4213.333333,4500.512820,4178.461538,4634.358974,4001.025641,4043.076923
148,4391.282051,4527.179487,4496.410256,4248.717948,4762.051282,4211.282051,4444.102564,4212.820512,4216.923076,4504.615384,4186.666666,4639.487179,3999.487180,4043.076923
149,4388.717948,4519.487179,4500.512820,4257.948717,4760.512820,4208.717948,4443.076923,4209.230769,4217.435897,4504.615384,4193.846153,4637.948717,3995.897436,4043.076923
150,4384.102564,4520.000000,4497.435897,4259.487179,4757.435897,4206.666666,4443.076923,4204.615384,4211.282051,4495.897435,4190.256410,4633.333333,3990.256411,4040.000000
151,4382.051282,4526.153846,4492.307692,4248.717948,4752.307692,4203.076923,4443.076923,4201.538461,4210.256410,4494.871794,4177.948717,4630.256410,3985.641026,4035.897435
152,4387.179487,4524.615384,4500.000000,4245.641025,4750.256410,4200.512820,4445.128205,4205.641025,4215.897435,4506.153846,4178.461538,4632.307692,3994.358975,4038.974358
153,4385.128205,4513.333333,4503.076923,4248.205128,4751.282051,4201.025641,4441.538461,4208.205128,4211.282051,4505.128205,4189.230769,4628.717948,3997.435898,4037.948717
154,4377.948717,4508.205128,4496.923076,4249.743589,4748.717948,4198.461538,4439.487179,4201.538461,4207.179487,4495.384615,4185.641025,4622.564102,3993.846154,4034.871794
155,4384.102564,4520.512820,4499.487179,4254.358974,4744.102564,4201.025641,4443.076923,4200.512820,4212.307692,4502.564102,4180.000000,4628.717948,4001.025641,4043.076923
156,4391.282051,4527.179487,4504.102564,4252.820512,4744.615384,4203.076923,4439.487179,4201.538461,4211.282051,4510.256410,4183.076923,4631.794871,4002.051282,4044.102564
157,4389.230769,4517.435897,4501.538461,4246.153846,4744.615384,4198.461538,4432.307692,4196.410256,4209.230769,4504.615384,4186.666666,4628.205128,3994.871795,4037.435897
158,4393.333333,4521.025641,4504.102564,4252.307692,4746.666666,4200.000000,4437.435897,4197.435897,4217.435897,4509.743589,4197.435897,4633.333333,4001.538461,4044.615384
159,4400.512820,4535.384615,4510.256410,4268.717948,4747.692307,4208.717948,4445.128205,4206.666666,4223.589743,4514.358974,4206.666666,4640.000000,4012.820512,4054.358974
160,4400.000000,4535.897435,4509.743589,4273.333333,4743.076923,4210.769230,4444.615384,4211.794871,4221.025641,4505.641025,4198.974358,4641.025641,4016.410256,4051.794871
161,4397.948717,4531.282051,4507.179487,4266.153846,4736.923076,4205.641025,4444.615384,4212.307692,4220.512820,4506.666666,4192.307692,4641.025641,4019.487179,4047.179487
162,4397.435897,4537.435897,4506.153846,4261.538461,4734.871794,4205.641025,4445.128205,4212.820512,4220.512820,4517.435897,4195.384615,4634.358974,4013.333333,4043.589743
163,4395.384615,4538.461538,4504.615384,4261.538461,4736.410256,4205.641025,4441.025641,4209.230769,4214.871794,4513.846153,4192.820512,4624.102564,4006.666666,4038.974358
164,4395.897435,4526.666666,4502.051282,4263.076923,4737.948717,4206.666666,4440.512820,4203.589743,4211.282051,4498.461538,4190.256410,4625.128205,4013.846153,4042.051282
165,4397.948717,4521.538461,4500.000000,4265.128205,4738.461538,4209.743589,4441.538461,4201.538461,4214.358974,4500.000000,4192.307692,4628.717948,4010.769230,4042.051282
166,4392.820512,4525.641025,4495.897435,4258.461538,4736.410256,4207.179487,4440.512820,4201.538461,4215.384615,4508.205128,4188.205128,4624.102564,3994.358975,4034.871794
167,4386.153846,4523.076923,4493.333333,4250.256410,4733.333333,4201.025641,4441.025641,4197.948717,4206.666666,4503.076923,4179.487179,4620.512820,3994.871795,4031.282051
168,4389.230769,4521.025641,4498.974358,4254.358974,4732.307692,4201.025641,4441.025641,4200.000000,4203.589743,4502.051282,4180.000000,4626.153846,4009.230769,4036.410256
169,4396.410256,4524.102564,4505.128205,4260.512820,4729.230769,4203.076923,4441.025641,4210.769230,4212.820512,4507.692307,4193.846153,4631.794871,4017.435897,4041.538461
170,4396.410256,4521.025641,4502.564102,4256.410256,4722.051282,4198.974358,4441.025641,4213.846153,4217.435897,4507.179487,4200.512820,4630.769230,4014.871794,4042.564102
171,4395.897435,4521.025641,4500.512820,4249.743589,4718.461538,4197.948717,4440.512820,4207.692307,4211.794871,4506.666666,4193.333333,4630.256410,4009.743589,4044.102564
172,4398.461538,4527.179487,4505.128205,4253.846153,4720.000000,4198.461538,4440.000000,4203.589743,4208.205128,4507.692307,4191.794871,4632.820512,4014.871794,4045.641025
173,4400.512820,4529.230769,4508.205128,4262.564102,4720.512820,4200.512820,4442.051282,4205.641025,4210.769230,4507.692307,4198.974358,4634.871794,4021.538461,4044.102564
174,4399.487179,4526.153846,4506.153846,4265.641025,4720.512820,4201.538461,4440.512820,4208.205128,4212.820512,4507.179487,4194.871794,4632.820512,4013.846153,4040.512820
175,4395.384615,4521.538461,4507.692307,4263.589743,4726.153846,4204.102564,4439.487179,4210.769230,4211.282051,4503.589743,4192.307692,4632.820512,4009.230769,4040.000000
176,4401.025641,4523.589743,4513.333333,4264.102564,4735.384615,4212.307692,4451.794871,4216.410256,4214.871794,4508.717948,4202.051282,4641.025641,4022.564102,4047.179487
177,4410.256410,4534.358974,4517.435897,4268.205128,4742.564102,4219.487179,4461.025641,4224.615384,4225.641025,4526.666666,4206.666666,4647.692307,4035.384615,4054.358974
178,4404.615384,4537.435897,4511.794871,4267.179487,4735.384615,4210.256410,4449.230769,4220.000000,4225.641025,4525.128205,4197.435897,4640.512820,4029.743589,4048.205128
179,4393.333333,4525.641025,4502.051282,4264.102564,4714.871794,4199.487179,4438.461538,4206.666666,4211.282051,4504.615384,4191.794871,4629.743589,4011.282051,4035.897435
180,4394.871794,4517.435897,4502.051282,4262.051282,4708.205128,4205.641025,4443.076923,4207.692307,4207.692307,4500.512820,4195.384615,4630.769230,4003.589743,4037.948717
181,4398.461538,4524.615384,4507.692307,4258.974358,4717.948717,4210.256410,4447.692307,4216.923076,4216.923076,4506.666666,4194.871794,4633.333333,4016.923076,4047.692307
182,4399.487179,4534.871794,4507.179487,4255.897435,4719.487179,4207.179487,4444.615384,4215.384615,4216.923076,4510.256410,4188.717948,4632.307692,4030.769230,4048.717948
183,4405.641025,4538.461538,4507.692307,4262.564102,4717.948717,4211.282051,4442.051282,4212.307692,4211.794871,4513.333333,4194.358974,4634.871794,4026.153846,4049.743589
184,4413.846153,4537.948717,4516.410256,4278.974358,4729.230769,4219.487179,4449.743589,4216.923076,4218.461538,4518.974358,4214.871794,4641.025641,4025.128205,4062.564102
185,4418.974358,4540.512820,4520.000000,4284.102564,4735.897435,4218.461538,4460.512820,4219.487179,4226.153846,4521.025641,4218.461538,4645.641025,4034.358974,4069.743589
186,4413.846153,4543.076923,4509.230769,4271.794871,4727.692307,4215.384615,4456.410256,4215.897435,4222.564102,4513.846153,4198.461538,4638.974358,4032.820512,4061.025641
187,4406.666666,4542.564102,4502.051282,4260.512820,4724.615384,4215.897435,4448.717948,4215.897435,4221.025641,4511.282051,4186.666666,4630.256410,4028.205128,4053.333333
188,4409.743589,4538.461538,4508.205128,4262.051282,4730.256410,4215.897435,4455.384615,4216.923076,4222.564102,4514.871794,4198.461538,4634.871794,4029.743589,4054.358974
189,4407.692307,4528.717948,4509.230769,4266.666666,4733.333333,4217.435897,4457.948717,4210.769230,4213.846153,4511.282051,4205.641025,4638.461538,4018.974358,4054.358974
190,4397.948717,4525.128205,4501.025641,4263.076923,4728.205128,4215.384615,4445.641025,4206.666666,4208.205128,4507.692307,4190.769230,4628.717948,4010.769230,4048.717948
191,4393.846153,4527.179487,4496.923076,4251.282051,4720.512820,4208.205128,4440.512820,4208.205128,4213.846153,4513.333333,4180.000000,4624.615384,4018.461538,4045.128205
192,4395.384615,4531.282051,4498.461538,4243.076923,4716.923076,4205.128205,4441.538461,4206.666666,4212.307692,4511.794871,4186.153846,4631.794871,4016.410256,4047.179487
193,4395.897435,4533.333333,4504.102564,4250.256410,4714.871794,4210.256410,4441.538461,4209.743589,4209.230769,4509.743589,4197.435897,4634.871794,4007.179487,4054.358974
194,4396.923076,4527.179487,4508.717948,4258.974358,4712.307692,4214.871794,4449.230769,4217.948717,4218.974358,4521.025641,4201.025641,4635.384615,4012.820512,4057.948717
195,4395.384615,4518.974358,4511.282051,4258.461538,4713.333333,4215.897435,4458.461538,4218.461538,4225.128205,4527.692307,4197.948717,4640.512820,4020.512820,4053.333333
196,4393.846153,4518.461538,4511.282051,4251.794871,4717.435897,4211.282051,4458.974358,4216.923076,4222.564102,4518.461538,4197.948717,4644.615384,4026.153846,4060.000000
197,4398.974358,4529.743589,4511.282051,4250.769230,4715.897435,4209.230769,4458.974358,4218.974358,4222.051282,4512.820512,4203.076923,4646.666666,4030.769230,4075.384615
198,4403.076923,4537.435897,4513.846153,4260.000000,4709.230769,4212.820512,4460.512820,4220.512820,4223.589743,4519.487179,4207.692307,4650.256410,4021.538461,4075.897435
199,4397.948717,4526.153846,4511.282051,4262.051282,4704.615384,4209.230769,4452.820512,4218.974358,4223.076923,4515.897435,4204.102564,4649.230769,4005.128205,4061.538461
200,4390.256410,4511.794871,4506.666666,4251.282051,4707.692307,4204.615384,4449.230769,4215.897435,4217.435897,4510.769230,4199.487179,4645.641025,4005.641025,4060.000000
201,4390.256410,4516.410256,4509.230769,4246.666666,4713.846153,4210.769230,4455.384615,4213.333333,4216.410256,4518.974358,4201.025641,4649.230769,4018.974358,4071.794871
202,4392.307692,4525.641025,4510.769230,4247.692307,4711.282051,4209.230769,4451.282051,4211.282051,4217.435897,4517.435897,4201.025641,4648.205128,4019.487179,4071.794871
203,4385.641025,4523.589743,4504.102564,4243.076923,4703.589743,4196.923076,4441.025641,4205.128205,4212.820512,4503.589743,4196.410256,4641.025641,4004.102564,4060.000000
204,4383.076923,4519.487179,4503.076923,4247.692307,4704.102564,4197.948717,4441.025641,4199.487179,4213.846153,4503.076923,4196.410256,4642.051282,4005.128205,4060.000000
205,4388.717948,4516.410256,4509.743589,4254.358974,4707.692307,4209.230769,4447.179487,4206.153846,4218.974358,4513.333333,4204.102564,4648.205128,4017.948717,4068.205128
206,4388.205128,4514.871794,4510.256410,4248.205128,4705.128205,4206.153846,4448.717948,4211.794871,4215.384615,4512.307692,4201.538461,4646.153846,4011.794871,4067.692307
207,4386.666666,4520.000000,4505.128205,4243.589743,4701.538461,4200.512820,4447.692307,4209.230769,4216.923076,4511.794871,4190.256410,4642.051282,4006.153846,4067.179487
208,4394.871794,4523.076923,4504.615384,4250.256410,4702.051282,4204.615384,4450.256410,4211.282051,4227.692307,4517.435897,4193.333333,4645.128205,4018.974358,4074.871794
209,4401.538461,4522.051282,4509.743589,4260.000000,4704.102564,4207.179487,4457.948717,4216.923076,4229.743589,4524.102564,4214.358974,4651.282051,4026.153846,4075.384615
210,4402.051282,4521.025641,4515.384615,4264.615384,4705.128205,4209.230769,4462.564102,4220.512820,4229.230769,4526.153846,4223.589743,4652.820512,4025.128205,4075.384615
211,4406.153846,4521.538461,4517.948717,4257.948717,4705.641025,4210.769230,4458.974358,4223.589743,4234.358974,4522.051282,4215.384615,4654.871794,4027.692307,4083.589743
212,4411.794871,4526.153846,4519.487179,4255.384615,4707.692307,4208.717948,4459.487179,4225.641025,4235.897435,4522.564102,4213.846153,4660.000000,4026.666666,4086.153846
213,4408.717948,4529.743589,4520.512820,4262.051282,4708.205128,4209.743589,4462.051282,4222.051282,4231.282051,4523.589743,4218.974358,4662.051282,4024.102564,4079.487179
214,4400.000000,4518.461538,4517.948717,4254.871794,4703.076923,4211.794871,4459.487179,4215.384615,4223.076923,4515.897435,4211.282051,4655.384615,4022.051282,4070.769230
215,4394.871794,4505.128205,4509.743589,4245.128205,4696.923076,4208.717948,4457.435897,4209.230769,4219.487179,4510.256410,4200.000000,4648.717948,4013.333333,4063.589743
216,4396.410256,4511.794871,4506.153846,4249.230769,4697.435897,4209.230769,4458.461538,4210.256410,4224.102564,4516.410256,4205.128205,4650.769230,4008.205128,4065.641025
217,4398.974358,4523.589743,4512.307692,4252.307692,4704.102564,4216.410256,4461.025641,4218.461538,4234.358974,4526.153846,4219.487179,4653.333333,4013.846153,4071.282051
218,4400.512820,4523.076923,4514.358974,4251.794871,4711.794871,4215.897435,4461.025641,4216.923076,4234.358974,4526.666666,4221.025641,4655.384615,4021.538461,4069.230769
219,4398.974358,4519.487179,4509.230769,4261.025641,4711.794871,4210.769230,4458.461538,4203.076923,4220.512820,4519.487179,4209.230769,4654.358974,4022.564102,4064.615384
220,4396.410256,4524.615384,4508.717948,4265.128205,4706.153846,4212.307692,4455.384615,4199.487179,4217.948717,4511.794871,4205.128205,4649.230769,4021.025641,4066.153846
221,4404.102564,4532.820512,4514.358974,4263.589743,4705.128205,4214.871794,4451.282051,4208.717948,4230.769230,4518.461538,4212.820512,4650.769230,4021.025641,4071.794871
222,4408.205128,4528.717948,4513.333333,4265.641025,4707.692307,4208.717948,4446.153846,4209.230769,4228.205128,4525.128205,4217.948717,4652.820512,4025.128205,4072.307692
223,4398.461538,4522.564102,4508.205128,4261.538461,4703.589743,4202.051282,4443.076923,4200.000000,4217.948717,4516.410256,4212.307692,4647.692307,4024.615384,4066.666666
224,4401.025641,4531.282051,4513.846153,4256.410256,4698.974358,4211.282051,4450.769230,4199.487179,4224.615384,4512.820512,4213.846153,4649.230769,4023.076923,4068.717948
225,4414.358974,4544.102564,4522.051282,4264.102564,4705.641025,4222.051282,4461.025641,4207.179487,4229.743589,4523.076923,4222.564102,4657.435897,4027.692307,4076.923076
226,4411.794871,4537.435897,4521.025641,4273.333333,4706.153846,4218.461538,4457.948717,4207.179487,4225.641025,4523.076923,4218.461538,4656.923076,4029.743589,4074.871794
227,4404.615384,4525.641025,4516.410256,4270.769230,4691.794871,4212.307692,4448.205128,4204.615384,4224.615384,4515.897435,4211.282051,4651.282051,4030.256410,4069.743589
228,4407.179487,4529.230769,4513.333333,4263.076923,4682.051282,4212.820512,4444.102564,4205.128205,4221.025641,4510.769230,4213.846153,4652.307692,4026.666666,4067.179487
229,4405.641025,4530.769230,4512.307692,4259.487179,4686.153846,4211.282051,4446.666666,4202.564102,4213.846153,4501.025641,4216.923076,4651.794871,4013.333333,4061.025641
230,4403.589743,4524.102564,4515.384615,4262.564102,4690.769230,4206.666666,4449.230769,4200.000000,4217.435897,4506.666666,4216.410256,4647.179487,4012.307692,4062.564102
231,4408.717948,4524.615384,4517.948717,4264.615384,4684.102564,4208.205128,4448.205128,4205.641025,4228.717948,4527.179487,4214.358974,4650.256410,4033.333333,4072.820512
232,4413.333333,4534.871794,4514.871794,4265.128205,4678.974358,4211.794871,4452.820512,4214.871794,4234.358974,4530.256410,4214.358974,4657.435897,4038.974358,4072.820512
233,4412.820512,4540.512820,4512.820512,4262.051282,4683.589743,4212.307692,4457.435897,4217.948717,4233.333333,4521.538461,4218.461538,4653.846153,4022.051282,4065.128205
234,4411.282051,4536.410256,4514.871794,4256.410256,4684.102564,4207.179487,4449.743589,4212.307692,4228.717948,4516.923076,4216.410256,4648.205128,4010.769230,4063.589743
235,4410.769230,4527.179487,4511.794871,4260.000000,4679.487179,4205.641025,4446.666666,4207.692307,4225.641025,4514.871794,4208.717948,4650.769230,4011.794871,4065.641025
236,4412.820512,4523.076923,4511.282051,4268.717948,4678.974358,4209.230769,4454.871794,4210.769230,4222.564102,4511.282051,4209.743589,4649.743589,4013.333333,4064.102564
237,4412.820512,4533.333333,4515.384615,4270.769230,4678.974358,4208.717948,4455.384615,4209.230769,4219.487179,4505.641025,4208.205128,4646.666666,4008.205128,4066.153846
238,4413.333333,4544.615384,4513.333333,4265.641025,4677.435897,4207.179487,4446.153846,4204.615384,4225.128205,4508.717948,4205.641025,4647.692307,3998.461539,4067.179487
239,4413.333333,4536.923076,4509.743589,4261.025641,4681.025641,4209.743589,4445.641025,4208.717948,4228.717948,4515.897435,4206.666666,4645.641025,3990.256411,4061.025641
240,4410.769230,4526.666666,4512.820512,4262.564102,4685.128205,4215.384615,4454.358974,4215.897435,4223.589743,4513.333333,4207.179487,4645.641025,3993.846154,4061.025641
241,4415.897435,4530.256410,4518.461538,4271.794871,4686.666666,4215.897435,4459.487179,4218.461538,4225.641025,4514.871794,4211.794871,4652.820512,4003.076923,4070.256410
242,4423.076923,4538.461538,4517.435897,4271.794871,4685.641025,4212.820512,4457.948717,4213.846153,4227.179487,4518.974358,4215.384615,4656.410256,3999.487180,4068.717948
243,4424.615384,4539.487179,4516.410256,4262.051282,4681.025641,4210.769230,4455.384615,4208.717948,4218.974358,4508.205128,4211.794871,4651.794871,3995.897436,4062.051282
244,4426.666666,4536.410256,4520.000000,4267.692307,4682.564102,4213.846153,4457.948717,4211.794871,4220.000000,4507.179487,4209.743589,4652.820512,4004.615384,4066.153846
245,4430.769230,4537.948717,4523.076923,4281.538461,4686.153846,4221.025641,4461.538461,4221.025641,4230.769230,4521.025641,4216.410256,4658.974358,4006.666666,4071.794871
246,4426.666666,4540.512820,4522.564102,4278.461538,4681.025641,4220.512820,4457.948717,4220.512820,4230.769230,4522.051282,4217.435897,4658.974358,3993.333334,4065.641025
247,4421.538461,4537.435897,4520.000000,4267.179487,4676.923076,4212.307692,4449.743589,4216.410256,4224.102564,4514.358974,4212.307692,4653.333333,3988.717949,4059.487179
248,4424.615384,4534.358974,4517.435897,4264.102564,4680.000000,4208.717948,4443.076923,4218.461538,4223.589743,4514.358974,4206.153846,4648.717948,3995.384616,4061.025641
249,4422.051282,4537.948717,4514.358974,4265.128205,4682.051282,4209.743589,4442.564102,4215.897435,4223.076923,4512.820512,4201.025641,4645.128205,3994.358975,4058.974358
250,4412.820512,4534.358974,4508.205128,4264.615384,4677.435897,4206.153846,4442.051282,4206.153846,4215.384615,4508.717948,4202.051282,4640.000000,3991.794872,4051.794871
251,4411.282051,4528.205128,4506.153846,4265.641025,4676.410256,4207.179487,4441.025641,4200.512820,4210.256410,4509.743589,4202.051282,4635.897435,3988.717949,4048.717948
252,4417.435897,4531.794871,4510.769230,4264.102564,4680.512820,4212.307692,4442.051282,4202.564102,4212.820512,4508.205128,4197.948717,4635.897435,3984.102565,4052.307692
253,4416.923076,4530.769230,4507.692307,4254.871794,4676.923076,4207.179487,4442.564102,4203.589743,4210.769230,4497.435897,4194.871794,4635.384615,3979.487180,4051.794871
254,4411.794871,4529.743589,4504.615384,4254.871794,4671.794871,4205.128205,4442.564102,4201.538461,4207.179487,4497.948717,4196.410256,4637.435897,3986.153847,4048.205128
255,4418.461538,4538.974358,4512.307692,4269.743589,4677.435897,4211.794871,4442.564102,4202.051282,4217.948717,4518.974358,4200.000000,4643.076923,4002.051282,4053.846153
256,4427.179487,4540.512820,4511.282051,4271.794871,4681.025641,4211.282051,4441.538461,4206.666666,4224.615384,4524.615384,4204.615384,4644.102564,4002.051282,4060.000000
257,4423.589743,4533.846153,4506.666666,4263.076923,4672.820512,4208.205128,4443.076923,4209.743589,4216.410256,4505.641025,4210.769230,4641.025641,3990.769231,4058.974358
258,4417.948717,4537.435897,4510.769230,4262.051282,4668.717948,4217.435897,4447.692307,4207.692307,4216.923076,4500.512820,4212.820512,4641.025641,3994.358975,4058.461538
259,4420.512820,4538.974358,4513.846153,4264.615384,4672.307692,4220.000000,4448.205128,4207.692307,4221.025641,4511.282051,4208.205128,4641.025641,4014.358974,4059.487179
