,AF3,F7,F3,FC5,T7,P7,O1,O2,P8,T8,FC6,F4,F8,AF4
0,4428.205128,4536.923076,4531.794871,4271.282051,4480.512820,4214.358974,4443.589743,4219.487179,4243.076923,4498.461538,4218.461538,4658.461538,4066.666666,4062.564102
1,4429.230769,4540.512820,4526.666666,4276.410256,4478.461538,4212.820512,4442.564102,4216.410256,4240.000000,4486.666666,4223.589743,4656.923076,4063.076923,4065.128205
2,4431.282051,4547.692307,4528.717948,4280.000000,4490.769230,4218.974358,4443.589743,4222.051282,4250.256410,4494.358974,4230.256410,4664.615384,4069.743589,4072.307692
3,4427.692307,4540.512820,4529.230769,4274.871794,4494.358974,4218.974358,4445.128205,4223.076923,4254.871794,4500.512820,4236.410256,4666.666666,4068.205128,4064.102564
4,4426.666666,4530.256410,4526.153846,4271.794871,4483.589743,4208.717948,4441.538461,4215.897435,4240.000000,4490.256410,4233.846153,4659.487179,4053.333333,4054.871794
5,4430.256410,4538.461538,4529.230769,4277.435897,4478.974358,4204.615384,4440.512820,4214.871794,4232.307692,4489.230769,4219.487179,4658.461538,4052.307692,4068.205128
6,4430.769230,4539.487179,4532.307692,4277.948717,4481.025641,4211.282051,4444.615384,4216.923076,4242.564102,4490.769230,4211.794871,4660.512820,4057.435897,4074.358974
7,4425.128205,4524.102564,4529.743589,4269.230769,4478.461538,4209.230769,4445.641025,4211.794871,4243.076923,4480.512820,4221.538461,4656.923076,4048.717948,4054.871794
8,4425.128205,4526.153846,4531.794871,4268.205128,4478.974358,4205.641025,4445.641025,4209.230769,4231.794871,4479.487179,4233.333333,4657.435897,4048.717948,4054.358974
9,4429.230769,4538.974358,4536.410256,4270.769230,4489.230769,4212.820512,4446.666666,4212.820512,4230.256410,4492.307692,4228.717948,4663.589743,4060.512820,4073.846153
10,4425.641025,4534.358974,4532.820512,4266.153846,4493.333333,4208.717948,4444.615384,4211.282051,4231.794871,4493.846153,4216.923076,4661.025641,4059.487179,4069.743589
11,4425.128205,4529.743589,4532.307692,4268.205128,4486.153846,4197.948717,4443.076923,4209.743589,4232.307692,4487.179487,4212.820512,4657.435897,4050.256410,4057.435897
12,4434.358974,4540.000000,4541.025641,4281.025641,4488.717948,4202.051282,4446.153846,4216.923076,4240.000000,4491.282051,4218.974358,4666.153846,4054.358974,4067.692307
13,4436.923076,4545.641025,4538.974358,4281.538461,4494.358974,4207.692307,4446.153846,4221.538461,4240.000000,4484.102564,4224.615384,4670.256410,4055.897435,4073.333333
14,4426.666666,4534.871794,4528.205128,4265.641025,4482.051282,4200.512820,4442.051282,4212.307692,4229.743589,4466.666666,4210.769230,4657.948717,4043.076923,4060.000000
15,4422.051282,4526.666666,4525.641025,4260.512820,4471.794871,4199.487179,4441.025641,4207.179487,4229.743589,4475.384615,4204.615384,4654.358974,4031.794871,4054.871794
16,4428.205128,4534.871794,4532.820512,4273.333333,4483.589743,4209.743589,4443.589743,4214.871794,4234.871794,4497.435897,4215.897435,4661.538461,4035.384615,4065.641025
17,4425.641025,4537.435897,4534.871794,4277.948717,4493.333333,4213.846153,4444.615384,4214.358974,4234.871794,4493.333333,4213.333333,4658.974358,4043.076923,4066.153846
18,4418.974358,4527.692307,4532.307692,4269.230769,4487.692307,4207.179487,4444.102564,4206.666666,4231.794871,4477.435897,4206.666666,4650.256410,4038.461538,4050.256410
19,4422.051282,4528.205128,4526.666666,4266.666666,4485.641025,4206.153846,4443.589743,4204.615384,4230.256410,4483.589743,4213.333333,4648.205128,4030.769230,4049.743589
20,4423.589743,4533.846153,4520.512820,4264.102564,4491.794871,4214.358974,4444.102564,4206.666666,4231.282051,4492.307692,4216.410256,4650.256410,4030.769230,4060.512820
21,4412.820512,4524.615384,4522.051282,4254.358974,4492.820512,4216.923076,4444.102564,4206.666666,4230.256410,4477.948717,4198.974358,4647.179487,4025.641025,4050.256410
22,4407.179487,4518.461538,4523.076923,4258.974358,4487.692307,4212.820512,4444.615384,4205.641025,4228.205128,4469.230769,4182.564102,4642.564102,4018.461538,4037.435897
23,4414.358974,4530.256410,4520.512820,4267.692307,4486.153846,4215.897435,4444.615384,4208.717948,4230.256410,4491.282051,4187.179487,4645.128205,4022.051282,4052.307692
24,4416.410256,4536.410256,4525.641025,4263.589743,4489.743589,4223.076923,4446.153846,4214.358974,4236.923076,4505.128205,4198.461538,4650.256410,4030.769230,4062.564102
25,4412.820512,4530.256410,4532.820512,4259.487179,4494.871794,4225.128205,4450.256410,4216.923076,4241.025641,4492.307692,4200.512820,4654.358974,4027.692307,4049.230769
26,4412.307692,4522.564102,4528.205128,4261.538461,4497.435897,4217.948717,4448.717948,4212.820512,4234.871794,4495.897435,4191.282051,4651.282051,4018.974358,4042.051282
27,4414.871794,4520.512820,4526.153846,4263.589743,4492.820512,4211.794871,4442.564102,4210.769230,4228.717948,4504.615384,4186.666666,4645.641025,4025.128205,4052.820512
28,4418.461538,4528.205128,4533.846153,4264.102564,4488.205128,4221.025641,4443.076923,4218.461538,4236.923076,4496.410256,4194.358974,4650.256410,4044.615384,4064.102564
29,4415.384615,4528.717948,4532.820512,4261.538461,4490.769230,4231.282051,4447.179487,4217.435897,4241.538461,4495.384615,4203.589743,4655.384615,4047.179487,4056.410256
30,4411.282051,4526.666666,4528.717948,4259.487179,4494.358974,4230.769230,4444.615384,4208.717948,4232.820512,4505.641025,4203.589743,4650.769230,4037.948717,4042.564102
31,4415.384615,4533.333333,4533.846153,4257.435897,4495.384615,4229.230769,4444.615384,4208.205128,4230.769230,4506.153846,4203.076923,4649.230769,4041.538461,4050.256410
32,4409.743589,4534.358974,4528.205128,4256.410256,4490.769230,4223.589743,4445.128205,4206.666666,4232.820512,4488.717948,4197.435897,4649.743589,4038.974358,4054.871794
33,4393.333333,4520.512820,4514.358974,4261.538461,4484.615384,4216.923076,4440.512820,4201.538461,4230.256410,4484.615384,4183.589743,4643.589743,4024.102564,4041.025641
34,4399.487179,4514.871794,4522.564102,4264.102564,4485.641025,4222.564102,4448.717948,4209.743589,4234.358974,4500.000000,4188.205128,4648.205128,4028.205128,4040.000000
35,4412.820512,4526.666666,4538.974358,4262.051282,4494.358974,4228.205128,4461.025641,4222.051282,4239.487179,4500.512820,4206.153846,4662.051282,4044.102564,4058.974358
36,4405.641025,4527.179487,4535.384615,4260.512820,4492.307692,4217.435897,4450.769230,4210.769230,4231.794871,4482.564102,4205.128205,4657.948717,4040.000000,4060.512820
37,4402.051282,4520.000000,4527.692307,4260.000000,4486.153846,4209.743589,4439.487179,4195.897435,4226.153846,4483.076923,4195.384615,4652.820512,4037.948717,4052.820512
38,4416.410256,4530.769230,4535.897435,4264.615384,4490.256410,4216.410256,4447.692307,4208.717948,4233.846153,4502.564102,4196.410256,4664.102564,4048.205128,4060.000000
39,4412.820512,4541.538461,4542.051282,4266.666666,4491.794871,4217.435897,4448.717948,4217.948717,4237.948717,4504.102564,4198.461538,4666.666666,4040.000000,4059.487179
40,4400.512820,4532.820512,4535.384615,4258.974358,4488.717948,4210.256410,4440.512820,4205.128205,4232.307692,4495.897435,4200.000000,4657.948717,4031.794871,4050.769230
41,4408.205128,4523.589743,4535.384615,4260.000000,4490.256410,4209.743589,4443.589743,4202.564102,4228.717948,4493.333333,4208.205128,4660.512820,4045.128205,4056.410256
42,4417.435897,4524.102564,4538.974358,4266.666666,4491.282051,4212.820512,4445.641025,4215.897435,4229.230769,4490.256410,4206.153846,4665.641025,4042.051282,4062.564102
43,4411.282051,4525.128205,4535.384615,4264.102564,4487.692307,4214.871794,4444.102564,4217.435897,4231.282051,4490.256410,4189.743589,4660.512820,4027.179487,4057.948717
44,4407.179487,4530.769230,4536.410256,4263.589743,4493.846153,4217.435897,4449.743589,4214.358974,4233.846153,4495.384615,4191.282051,4658.974358,4035.384615,4058.974358
45,4405.641025,4530.769230,4540.000000,4267.179487,4494.871794,4214.358974,4452.820512,4216.923076,4232.820512,4497.948717,4203.076923,4662.564102,4042.051282,4056.923076
46,4397.948717,4517.948717,4534.358974,4256.923076,4477.435897,4207.692307,4447.179487,4216.923076,4231.794871,4493.846153,4196.410256,4661.025641,4026.153846,4047.179487
47,4396.923076,4515.897435,4531.794871,4245.128205,4475.384615,4211.794871,4448.717948,4221.538461,4239.487179,4494.871794,4194.358974,4663.076923,4023.589743,4052.820512
48,4405.128205,4524.102564,4536.923076,4247.692307,4490.769230,4220.000000,4457.435897,4225.641025,4241.538461,4506.666666,4207.692307,4667.179487,4037.435897,4064.102564
49,4408.205128,4522.051282,4535.897435,4256.410256,4491.794871,4218.974358,4460.512820,4217.948717,4234.871794,4509.743589,4205.641025,4664.102564,4038.974358,4061.025641
50,4408.205128,4521.025641,4535.384615,4262.051282,4488.205128,4216.923076,4454.871794,4214.871794,4232.820512,4491.794871,4197.948717,4662.051282,4029.743589,4055.897435
51,4400.512820,4523.076923,4533.333333,4255.897435,4494.871794,4218.461538,4447.692307,4217.948717,4234.358974,4480.000000,4201.025641,4660.000000,4021.025641,4050.769230
52,4391.282051,4518.461538,4529.230769,4249.743589,4486.153846,4213.333333,4441.538461,4214.358974,4231.282051,4485.128205,4204.102564,4658.461538,4020.512820,4045.128205
53,4400.000000,4524.102564,4534.358974,4262.051282,4473.846153,4211.282051,4441.538461,4211.282051,4227.692307,4492.820512,4206.666666,4663.589743,4033.333333,4053.333333
54,4414.871794,4540.512820,4544.615384,4274.871794,4492.820512,4223.076923,4451.282051,4222.564102,4236.923076,4507.692307,4211.282051,4671.282051,4050.769230,4064.615384
55,4413.333333,4541.538461,4543.076923,4268.717948,4507.692307,4230.256410,4460.000000,4231.282051,4249.230769,4516.923076,4212.820512,4671.794871,4052.820512,4063.076923
56,4408.717948,4529.743589,4534.358974,4262.051282,4495.897435,4223.589743,4459.487179,4226.666666,4246.153846,4501.538461,4218.461538,4667.692307,4040.512820,4058.461538
57,4408.205128,4525.641025,4528.717948,4262.564102,4484.102564,4217.948717,4454.358974,4217.435897,4232.820512,4488.717948,4219.487179,4662.051282,4032.820512,4056.410256
58,4397.435897,4518.974358,4522.564102,4254.871794,4480.512820,4212.820512,4447.179487,4206.666666,4222.051282,4488.717948,4201.025641,4650.769230,4025.128205,4047.179487
59,4385.128205,4509.743589,4515.897435,4243.589743,4474.871794,4206.153846,4441.025641,4202.051282,4219.487179,4478.974358,4185.128205,4642.051282,4020.000000,4037.435897
60,4390.769230,4515.897435,4520.512820,4241.538461,4471.282051,4210.769230,4450.769230,4210.769230,4226.666666,4477.435897,4191.794871,4648.717948,4031.282051,4042.564102
61,4398.461538,4527.179487,4531.794871,4252.307692,4475.897435,4220.512820,4463.076923,4220.512820,4234.358974,4495.384615,4203.589743,4657.948717,4044.615384,4053.333333
62,4398.974358,4527.692307,4534.871794,4262.051282,4487.692307,4218.461538,4455.384615,4217.948717,4235.384615,4497.948717,4203.589743,4658.974358,4039.487179,4057.435897
63,4396.923076,4516.410256,4524.615384,4256.923076,4491.794871,4207.179487,4443.076923,4212.820512,4231.794871,4481.025641,4194.871794,4653.846153,4021.025641,4050.769230
64,4394.871794,4515.384615,4517.948717,4248.205128,4480.000000,4203.589743,4440.512820,4212.307692,4226.666666,4476.410256,4189.743589,4648.205128,4015.897435,4043.589743
65,4397.948717,4525.641025,4523.076923,4254.358974,4478.974358,4213.333333,4446.666666,4212.820512,4226.666666,4485.641025,4192.820512,4650.256410,4023.076923,4048.717948
66,4408.205128,4530.769230,4532.307692,4266.666666,4491.282051,4220.512820,4454.358974,4217.435897,4234.358974,4493.333333,4206.153846,4661.025641,4026.153846,4060.512820
67,4415.897435,4533.333333,4539.487179,4267.692307,4494.358974,4217.435897,4454.358974,4219.487179,4235.897435,4500.512820,4218.974358,4667.179487,4029.230769,4065.128205
68,4415.384615,4536.410256,4540.512820,4258.461538,4486.666666,4216.410256,4446.666666,4215.384615,4231.794871,4503.076923,4213.333333,4665.128205,4040.000000,4061.538461
69,4409.743589,4529.230769,4534.871794,4254.871794,4483.076923,4216.410256,4442.564102,4218.461538,4232.307692,4496.410256,4205.641025,4663.589743,4045.641025,4062.564102
70,4408.205128,4518.461538,4534.358974,4258.461538,4482.564102,4213.333333,4444.615384,4228.717948,4240.512820,4496.410256,4217.948717,4665.641025,4038.974358,4067.692307
71,4410.256410,4520.512820,4535.384615,4256.923076,4479.487179,4217.435897,4452.307692,4225.128205,4242.051282,4501.025641,4222.051282,4663.589743,4030.769230,4063.076923
72,4404.102564,4521.025641,4527.692307,4247.692307,4481.538461,4220.000000,4456.410256,4216.923076,4231.282051,4487.692307,4210.256410,4652.820512,4018.461538,4049.743589
73,4398.974358,4518.974358,4519.487179,4242.051282,4487.179487,4216.410256,4448.717948,4215.897435,4226.666666,4481.538461,4204.102564,4645.641025,4010.769230,4043.076923
74,4402.051282,4524.102564,4521.025641,4247.692307,4484.615384,4214.871794,4441.538461,4210.256410,4231.794871,4495.897435,4193.846153,4647.179487,4017.435897,4045.128205
75,4399.487179,4523.076923,4523.589743,4255.384615,4473.333333,4215.384615,4442.564102,4205.128205,4230.256410,4496.410256,4191.282051,4648.717948,4016.923076,4043.076923
76,4403.076923,4526.666666,4523.589743,4261.025641,4475.897435,4215.384615,4442.564102,4211.794871,4228.717948,4486.666666,4212.307692,4650.256410,4015.384615,4049.230769
77,4424.615384,4538.974358,4529.230769,4269.743589,4490.769230,4220.512820,4445.128205,4226.153846,4241.538461,4496.923076,4225.641025,4656.410256,4030.769230,4063.076923
78,4428.205128,4538.974358,4529.743589,4267.179487,4495.384615,4219.487179,4449.743589,4228.205128,4247.179487,4512.307692,4218.974358,4657.948717,4035.897435,4063.076923
79,4409.230769,4521.538461,4521.538461,4247.692307,4486.153846,4206.666666,4445.641025,4219.487179,4241.538461,4504.102564,4211.794871,4650.769230,4026.153846,4050.769230
80,4406.666666,4516.410256,4522.051282,4243.076923,4478.974358,4204.102564,4446.153846,4217.948717,4238.974358,4492.820512,4204.102564,4654.871794,4031.794871,4048.205128
81,4421.025641,4530.256410,4535.384615,4261.025641,4485.128205,4215.897435,4458.461538,4229.230769,4239.487179,4502.051282,4207.692307,4670.769230,4044.102564,4062.564102
82,4422.564102,4535.384615,4539.487179,4266.153846,4492.820512,4219.487179,4458.461538,4232.820512,4240.512820,4513.333333,4226.666666,4671.794871,4041.538461,4076.410256
83,4414.871794,4524.102564,4532.307692,4257.435897,4492.307692,4210.256410,4444.102564,4220.000000,4239.487179,4503.076923,4228.717948,4661.538461,4034.358974,4072.820512
84,4411.794871,4520.000000,4528.717948,4261.025641,4490.256410,4206.153846,4440.000000,4216.410256,4235.384615,4491.794871,4210.769230,4658.974358,4030.769230,4059.487179
85,4416.923076,4534.871794,4528.205128,4265.128205,4488.717948,4212.820512,4445.128205,4224.102564,4231.794871,4495.384615,4205.128205,4660.000000,4030.256410,4058.974358
86,4423.076923,4538.974358,4531.282051,4260.512820,4488.205128,4215.897435,4445.128205,4223.589743,4227.692307,4494.358974,4214.871794,4657.948717,4031.794871,4062.564102
87,4421.025641,4529.230769,4532.820512,4261.538461,4490.256410,4215.384615,4444.102564,4222.564102,4226.666666,4493.333333,4221.025641,4658.974358,4029.743589,4055.897435
88,4412.820512,4527.692307,4531.282051,4259.487179,4489.230769,4213.333333,4445.128205,4225.128205,4229.230769,4497.435897,4212.820512,4655.897435,4018.974358,4053.846153
89,4408.205128,4528.205128,4526.666666,4253.333333,4478.461538,4209.230769,4442.051282,4220.000000,4231.794871,4492.307692,4201.538461,4650.256410,4010.256410,4058.974358
90,4413.846153,4523.589743,4525.641025,4254.871794,4472.820512,4207.692307,4441.538461,4217.435897,4231.282051,4485.641025,4197.948717,4653.333333,4015.897435,4060.000000
91,4425.128205,4523.076923,4530.256410,4256.410256,4484.102564,4214.871794,4444.102564,4226.153846,4230.256410,4492.307692,4202.051282,4660.512820,4021.538461,4058.461538
92,4426.153846,4524.615384,4531.794871,4253.333333,4493.846153,4215.897435,4443.076923,4227.179487,4226.153846,4491.794871,4205.128205,4660.512820,4011.794871,4058.974358
93,4422.564102,4528.717948,4531.794871,4258.461538,4491.282051,4210.769230,4443.076923,4223.589743,4226.153846,4489.743589,4212.307692,4660.512820,4008.717948,4061.025641
94,4418.974358,4535.897435,4531.282051,4267.692307,4485.641025,4215.897435,4444.615384,4232.307692,4235.384615,4505.641025,4219.487179,4662.564102,4015.897435,4060.512820
95,4413.846153,4531.282051,4527.692307,4263.589743,4485.128205,4217.435897,4444.102564,4233.846153,4238.974358,4508.205128,4211.282051,4659.487179,4011.282051,4053.333333
96,4413.333333,4523.589743,4523.589743,4254.871794,4485.641025,4206.153846,4441.538461,4221.025641,4230.256410,4493.333333,4202.051282,4654.358974,4008.717948,4050.769230
97,4413.846153,4523.076923,4518.461538,4248.205128,4482.564102,4201.025641,4434.358974,4213.846153,4220.000000,4489.230769,4200.000000,4649.743589,4017.948717,4050.769230
98,4409.230769,4520.512820,4515.384615,4244.102564,4477.435897,4201.025641,4433.846153,4219.487179,4220.000000,4490.256410,4205.641025,4648.205128,4021.538461,4046.153846
99,4410.769230,4520.512820,4518.461538,4251.794871,4473.846153,4202.564102,4442.051282,4232.307692,4233.846153,4489.230769,4216.923076,4652.820512,4024.102564,4047.692307
100,4416.410256,4526.153846,4523.076923,4263.589743,4475.384615,4208.205128,4445.641025,4236.410256,4241.025641,4494.871794,4215.897435,4656.923076,4027.692307,4054.871794
101,4411.794871,4520.000000,4519.487179,4261.025641,4477.948717,4207.692307,4443.076923,4228.205128,4232.307692,4495.384615,4200.000000,4653.333333,4026.666666,4052.307692
102,4407.179487,4513.846153,4514.358974,4242.051282,4477.435897,4199.487179,4438.461538,4218.974358,4229.743589,4485.641025,4200.000000,4650.256410,4028.717948,4047.692307
103,4412.820512,4519.487179,4516.923076,4236.923076,4472.820512,4196.923076,4429.743589,4215.897435,4231.794871,4481.538461,4211.794871,4651.282051,4028.717948,4049.743589
104,4420.000000,4522.051282,4518.974358,4254.871794,4469.743589,4201.025641,4431.282051,4216.923076,4223.589743,4488.717948,4209.230769,4651.282051,4027.179487,4051.282051
105,4418.974358,4526.153846,4523.589743,4269.230769,4481.025641,4202.564102,4442.564102,4216.923076,4220.000000,4496.923076,4200.512820,4652.307692,4033.846153,4052.820512
106,4412.820512,4531.794871,4525.128205,4260.000000,4485.641025,4201.025641,4437.948717,4213.333333,4227.179487,4487.179487,4196.923076,4652.307692,4038.974358,4050.256410
107,4411.282051,4526.666666,4521.538461,4247.692307,4476.410256,4200.000000,4427.692307,4214.871794,4233.333333,4476.410256,4202.051282,4651.794871,4037.435897,4045.641025
108,4414.358974,4520.000000,4522.051282,4254.871794,4478.974358,4200.000000,4432.307692,4221.538461,4228.717948,4481.538461,4210.769230,4653.846153,4044.102564,4053.846153
109,4418.461538,4522.564102,4529.230769,4262.051282,4489.230769,4200.000000,4438.461538,4219.487179,4220.512820,4482.564102,4209.230769,4653.846153,4048.717948,4059.487179
110,4422.051282,4525.128205,4531.794871,4254.358974,4481.025641,4198.461538,4439.487179,4216.923076,4222.051282,4478.461538,4203.589743,4653.333333,4048.717948,4053.846153
111,4420.000000,4521.025641,4526.666666,4250.256410,4470.256410,4198.461538,4443.076923,4226.153846,4231.282051,4485.128205,4204.615384,4654.358974,4053.846153,4052.820512
112,4420.000000,4521.025641,4527.179487,4258.974358,4476.410256,4199.487179,4447.179487,4233.333333,4234.871794,4493.846153,4203.589743,4654.358974,4058.461538,4062.051282
113,4427.692307,4525.641025,4536.923076,4265.128205,4485.128205,4201.538461,4446.666666,4233.333333,4230.769230,4488.717948,4205.128205,4657.435897,4062.051282,4065.128205
114,4429.230769,4528.717948,4541.025641,4262.564102,4485.128205,4201.025641,4444.102564,4232.307692,4231.282051,4487.179487,4215.897435,4663.076923,4068.205128,4063.076923
115,4415.384615,4525.128205,4532.307692,4254.871794,4479.487179,4191.794871,4442.051282,4226.153846,4233.846153,4484.615384,4214.358974,4662.564102,4067.179487,4062.051282
116,4404.615384,4516.410256,4521.538461,4243.589743,4466.666666,4182.051282,4440.000000,4214.871794,4227.692307,4467.179487,4195.897435,4651.794871,4055.384615,4056.410256
117,4411.794871,4516.410256,4526.666666,4247.692307,4464.615384,4187.692307,4441.538461,4215.384615,4221.025641,4468.205128,4198.461538,4650.256410,4054.358974,4058.461538
118,4426.666666,4529.743589,4538.461538,4262.051282,4482.051282,4202.051282,4445.641025,4226.666666,4226.153846,4494.358974,4225.641025,4664.102564,4070.256410,4067.692307
119,4423.076923,4531.794871,4537.948717,4261.025641,4490.769230,4198.974358,4441.538461,4223.076923,4234.358974,4497.948717,4230.256410,4664.615384,4069.743589,4063.076923
120,4409.743589,4524.615384,4528.205128,4256.923076,4478.461538,4189.230769,4436.410256,4216.923076,4229.743589,4477.435897,4209.743589,4654.871794,4055.384615,4057.948717
121,4414.871794,4528.205128,4527.179487,4261.538461,4469.230769,4197.435897,4440.512820,4223.076923,4228.205128,4480.000000,4210.769230,4660.000000,4060.512820,4068.205128
122,4427.692307,4534.871794,4533.846153,4265.641025,4472.307692,4205.128205,4443.589743,4227.179487,4236.410256,4496.410256,4232.820512,4668.205128,4074.871794,4077.435897
123,4427.179487,4535.384615,4533.333333,4267.179487,4480.000000,4200.512820,4440.512820,4224.102564,4236.410256,4493.333333,4236.410256,4663.589743,4074.358974,4075.384615
124,4421.538461,4539.487179,4530.256410,4271.282051,4487.692307,4198.461538,4440.000000,4222.564102,4229.743589,4486.666666,4225.128205,4657.435897,4068.205128,4074.358974
125,4417.948717,4541.025641,4529.230769,4266.666666,4484.102564,4201.538461,4442.051282,4219.487179,4232.820512,4490.769230,4220.512820,4654.871794,4070.769230,4070.769230
126,4416.410256,4534.871794,4527.179487,4257.435897,4473.846153,4202.564102,4441.538461,4216.410256,4232.820512,4489.743589,4215.384615,4655.384615,4076.923076,4063.589743
127,4416.923076,4536.923076,4529.230769,4265.128205,4474.871794,4203.076923,4443.076923,4218.974358,4228.717948,4480.512820,4210.769230,4659.487179,4086.666666,4067.692307
128,4415.384615,4540.000000,4534.358974,4278.461538,4483.076923,4207.179487,4443.076923,4219.487179,4232.307692,4478.461538,4215.897435,4661.025641,4095.384615,4072.820512
129,4420.512820,4541.538461,4538.974358,4278.974358,4487.692307,4213.846153,4442.051282,4222.051282,4237.435897,4487.179487,4226.153846,4662.051282,4098.974358,4076.923076
130,4432.820512,4551.282051,4544.102564,4278.461538,4491.794871,4218.974358,4443.076923,4226.153846,4235.897435,4503.076923,4238.461538,4668.717948,4104.615384,4089.230769
131,4431.794871,4550.256410,4545.641025,4282.564102,4491.282051,4216.410256,4443.076923,4217.948717,4232.307692,4507.179487,4235.384615,4670.256410,4107.692307,4090.769230
132,4423.589743,4538.461538,4537.435897,4272.307692,4489.230769,4215.384615,4441.025641,4213.333333,4231.282051,4495.897435,4216.923076,4662.564102,4102.564102,4078.461538
133,4427.179487,4538.974358,4536.923076,4265.128205,4491.794871,4217.948717,4441.025641,4219.487179,4231.282051,4491.282051,4214.871794,4660.000000,4094.871794,4074.871794
134,4426.153846,4545.128205,4543.589743,4275.384615,4495.384615,4217.435897,4443.076923,4221.538461,4232.820512,4487.179487,4218.974358,4664.102564,4088.717948,4074.871794
135,4411.282051,4534.871794,4540.000000,4273.333333,4492.820512,4216.410256,4442.564102,4217.435897,4231.794871,4478.974358,4208.205128,4663.589743,4080.000000,4064.102564
136,4408.717948,4523.076923,4534.358974,4258.461538,4488.717948,4215.897435,4441.025641,4223.076923,4228.717948,4490.256410,4204.102564,4656.410256,4068.717948,4061.538461
137,4422.051282,4532.820512,4538.461538,4260.000000,4490.256410,4214.358974,4442.564102,4228.717948,4230.769230,4507.179487,4210.769230,4659.487179,4069.743589,4074.358974
138,4426.666666,4545.641025,4539.487179,4272.820512,4496.410256,4216.923076,4444.102564,4225.128205,4236.410256,4501.538461,4205.641025,4668.717948,4080.512820,4077.948717
139,4412.307692,4534.358974,4527.692307,4267.179487,4494.871794,4214.871794,4433.846153,4215.384615,4230.769230,4489.230769,4195.384615,4664.102564,4075.897435,4062.564102
140,4401.025641,4515.897435,4522.564102,4252.307692,4484.615384,4201.538461,4425.641025,4207.692307,4214.358974,4483.589743,4198.974358,4653.846153,4060.000000,4048.717948
141,4406.666666,4524.102564,4531.282051,4252.307692,4482.564102,4200.512820,4436.923076,4207.692307,4216.410256,4486.666666,4202.564102,4660.000000,4055.897435,4058.461538
142,4415.897435,4532.307692,4537.435897,4261.025641,4485.128205,4213.846153,4446.153846,4214.358974,4231.794871,4497.435897,4196.923076,4667.692307,4065.641025,4073.333333
143,4425.128205,4528.205128,4537.948717,4265.128205,4488.717948,4217.435897,4442.051282,4224.102564,4235.384615,4510.769230,4209.230769,4667.179487,4078.974358,4075.384615
144,4427.692307,4530.256410,4540.000000,4263.589743,4498.974358,4214.871794,4443.589743,4232.820512,4237.948717,4514.358974,4228.717948,4673.333333,4084.102564,4075.897435
145,4418.974358,4532.307692,4538.461538,4257.435897,4499.487179,4217.948717,4446.666666,4235.384615,4244.615384,4504.615384,4223.589743,4677.435897,4076.923076,4076.923076
146,4418.461538,4530.769230,4534.871794,4256.923076,4488.717948,4217.948717,4444.102564,4232.820512,4237.948717,4497.948717,4217.435897,4669.743589,4069.743589,4074.871794
147,4430.256410,4531.794871,4541.538461,4268.717948,4487.179487,4216.923076,4445.641025,4229.743589,4230.769230,4504.615384,4231.282051,4670.256410,4075.384615,4077.435897
148,4426.666666,4536.410256,4543.589743,4271.282051,4495.897435,4221.538461,4449.230769,4228.717948,4234.358974,4509.743589,4223.076923,4674.358974,4080.000000,4083.076923
149,4413.333333,4533.333333,4532.820512,4257.948717,4494.871794,4218.974358,4442.564102,4224.615384,4233.846153,4504.102564,4195.897435,4665.128205,4066.666666,4075.384615
150,4417.948717,4528.205128,4529.743589,4258.461538,4487.692307,4210.769230,4435.897435,4220.000000,4232.307692,4497.948717,4195.384615,4658.461538,4058.461538,4065.128205
151,4428.205128,4531.794871,4536.923076,4268.717948,4484.102564,4212.307692,4432.820512,4214.871794,4231.282051,4490.256410,4211.794871,4663.076923,4063.589743,4066.153846
152,4428.205128,4533.846153,4543.589743,4261.025641,4487.179487,4216.410256,4432.307692,4213.846153,4228.205128,4486.666666,4221.025641,4667.692307,4064.615384,4073.333333
153,4426.153846,4528.717948,4546.153846,4249.230769,4491.794871,4214.358974,4435.384615,4217.435897,4228.717948,4497.435897,4214.871794,4669.743589,4065.128205,4075.897435
154,4421.025641,4527.179487,4541.538461,4253.846153,4489.743589,4213.846153,4440.512820,4215.897435,4228.205128,4505.641025,4203.589743,4669.743589,4070.256410,4071.794871
155,4414.871794,4530.256410,4541.538461,4262.564102,4487.692307,4212.307692,4442.564102,4210.769230,4227.692307,4496.410256,4207.692307,4665.641025,4071.794871,4071.282051
156,4421.538461,4529.743589,4546.666666,4261.538461,4488.205128,4208.717948,4442.564102,4216.923076,4236.410256,4493.333333,4223.589743,4669.743589,4073.333333,4075.384615
157,4430.256410,4535.897435,4549.743589,4261.538461,4488.717948,4212.820512,4444.615384,4222.051282,4237.948717,4505.128205,4223.076923,4677.435897,4079.487179,4071.794871
158,4422.051282,4541.538461,4543.076923,4265.128205,4491.282051,4214.358974,4443.076923,4208.717948,4220.512820,4502.564102,4204.615384,4671.794871,4077.435897,4063.076923
159,4414.358974,4535.384615,4536.923076,4265.128205,4497.435897,4210.256410,4440.512820,4201.025641,4217.435897,4490.769230,4204.102564,4661.025641,4075.897435,4066.666666
160,4421.538461,4537.948717,4541.538461,4268.717948,4500.000000,4214.358974,4442.564102,4212.820512,4235.384615,4501.538461,4223.589743,4664.615384,4086.153846,4081.025641
161,4425.641025,4543.076923,4546.153846,4270.769230,4501.538461,4220.000000,4443.076923,4212.307692,4237.435897,4514.871794,4229.743589,4669.230769,4090.256410,4078.461538
162,4425.641025,4538.974358,4544.615384,4261.025641,4501.538461,4214.871794,4441.538461,4203.589743,4225.128205,4507.692307,4212.820512,4665.641025,4084.615384,4066.153846
163,4431.794871,4540.000000,4544.102564,4260.512820,4498.461538,4215.897435,4446.153846,4211.794871,4228.205128,4507.692307,4211.794871,4667.179487,4093.333333,4077.435897
164,4429.743589,4543.589743,4546.666666,4268.717948,4501.025641,4227.179487,4451.282051,4223.076923,4237.435897,4512.820512,4227.179487,4670.256410,4109.743589,4089.743589
165,4414.871794,4537.435897,4538.974358,4261.025641,4502.051282,4225.641025,4444.615384,4216.923076,4232.307692,4503.076923,4223.076923,4665.128205,4106.153846,4073.333333
166,4418.461538,4536.923076,4533.333333,4260.000000,4496.410256,4219.487179,4442.051282,4213.846153,4230.769230,4504.102564,4224.102564,4665.128205,4100.512820,4062.051282
167,4432.307692,4550.256410,4541.538461,4275.897435,4491.794871,4224.615384,4449.230769,4217.435897,4233.333333,4514.871794,4231.794871,4671.794871,4106.666666,4076.923076
168,4422.051282,4543.589743,4538.974358,4268.205128,4489.230769,4216.923076,4442.564102,4210.769230,4222.564102,4501.538461,4213.333333,4665.128205,4102.564102,4078.461538
169,4409.230769,4523.076923,4526.666666,4246.666666,4485.641025,4204.102564,4426.666666,4200.000000,4211.282051,4481.538461,4193.846153,4652.307692,4085.641025,4058.461538
170,4413.846153,4521.538461,4524.615384,4246.666666,4482.051282,4207.692307,4428.717948,4197.948717,4213.846153,4486.666666,4207.692307,4654.871794,4082.051282,4052.820512
171,4421.538461,4529.743589,4534.358974,4256.410256,4483.589743,4213.333333,4442.051282,4206.153846,4220.000000,4498.461538,4220.512820,4661.538461,4095.384615,4068.717948
172,4425.641025,4533.333333,4543.076923,4256.410256,4487.179487,4212.820512,4447.179487,4215.897435,4225.128205,4498.974358,4215.384615,4662.564102,4110.256410,4080.512820
173,4429.230769,4532.820512,4541.025641,4251.794871,4492.820512,4212.307692,4443.589743,4215.384615,4226.153846,4502.051282,4218.974358,4662.564102,4108.205128,4073.846153
174,4421.538461,4530.769230,4534.358974,4254.871794,4488.717948,4210.256410,4440.512820,4207.692307,4219.487179,4508.717948,4218.461538,4660.000000,4090.256410,4062.051282
175,4415.897435,4529.230769,4536.923076,4261.538461,4483.589743,4211.794871,4442.051282,4210.769230,4220.512820,4508.205128,4213.333333,4661.025641,4092.820512,4066.666666
176,4425.641025,4531.794871,4547.179487,4260.000000,4488.205128,4218.974358,4445.128205,4218.974358,4224.102564,4499.487179,4221.538461,4668.717948,4109.743589,4080.000000
177,4430.769230,4532.820512,4547.692307,4253.846153,4491.794871,4216.923076,4443.589743,4215.384615,4216.410256,4489.743589,4221.538461,4668.717948,4104.102564,4074.358974
178,4426.153846,4535.384615,4538.461538,4257.435897,4493.333333,4214.871794,4442.564102,4212.820512,4216.923076,4487.179487,4205.641025,4662.051282,4088.205128,4062.051282
179,4426.666666,4541.538461,4535.897435,4266.153846,4491.282051,4218.461538,4445.641025,4219.487179,4235.897435,4496.923076,4204.615384,4665.128205,4087.179487,4065.641025
180,4431.282051,4537.948717,4544.102564,4262.564102,4488.717948,4218.461538,4447.692307,4221.025641,4237.948717,4507.692307,4215.384615,4670.769230,4091.794871,4071.282051
181,4428.717948,4534.871794,4548.717948,4252.307692,4492.820512,4218.461538,4445.641025,4216.410256,4218.461538,4499.487179,4218.461538,4669.230769,4096.410256,4072.307692
182,4423.589743,4534.358974,4541.538461,4252.307692,4493.333333,4214.358974,4442.051282,4214.871794,4216.923076,4491.282051,4223.589743,4668.717948,4103.589743,4073.846153
183,4426.153846,4537.435897,4542.051282,4264.615384,4488.205128,4213.333333,4442.051282,4216.923076,4232.307692,4497.435897,4230.256410,4671.282051,4105.641025,4071.282051
184,4428.205128,4539.487179,4547.692307,4273.333333,4490.256410,4216.410256,4442.051282,4217.948717,4237.948717,4505.128205,4229.743589,4672.307692,4103.076923,4070.769230
185,4418.974358,4528.717948,4536.923076,4263.076923,4491.282051,4209.230769,4433.846153,4215.897435,4230.769230,4506.153846,4217.948717,4668.717948,4102.051282,4074.358974
186,4409.230769,4518.974358,4526.153846,4250.769230,4477.948717,4199.487179,4427.179487,4213.846153,4223.589743,4498.461538,4212.307692,4665.128205,4102.051282,4070.256410
187,4410.256410,4525.128205,4534.871794,4255.897435,4470.769230,4201.025641,4430.769230,4215.897435,4226.666666,4493.846153,4222.564102,4668.717948,4104.615384,4068.717948
188,4413.846153,4532.307692,4543.076923,4256.923076,4477.948717,4205.641025,4433.846153,4215.897435,4230.769230,4501.025641,4225.128205,4675.384615,4109.230769,4074.871794
189,4409.743589,4526.153846,4534.871794,4242.564102,4487.179487,4204.615384,4430.769230,4208.205128,4222.564102,4498.461538,4208.205128,4670.256410,4105.641025,4068.205128
190,4404.102564,4518.974358,4527.179487,4243.589743,4482.564102,4200.512820,4427.179487,4203.589743,4211.282051,4481.025641,4205.128205,4658.461538,4096.410256,4055.384615
191,4406.153846,4521.025641,4533.333333,4263.076923,4470.256410,4202.051282,4431.794871,4211.794871,4216.923076,4483.076923,4220.000000,4661.025641,4101.025641,4062.564102
192,4413.333333,4527.179487,4537.948717,4269.743589,4474.871794,4210.769230,4441.025641,4218.974358,4225.641025,4497.948717,4221.538461,4670.256410,4110.769230,4076.923076
193,4413.333333,4529.230769,4533.333333,4260.512820,4491.794871,4216.410256,4444.102564,4216.923076,4225.641025,4497.435897,4213.333333,4671.282051,4105.641025,4071.794871
194,4405.641025,4525.641025,4530.256410,4253.846153,4496.410256,4216.410256,4440.512820,4216.923076,4230.256410,4494.871794,4209.743589,4666.666666,4095.384615,4060.000000
195,4402.564102,4523.589743,4529.230769,4252.307692,4484.102564,4213.333333,4433.846153,4218.461538,4229.743589,4493.333333,4209.743589,4660.000000,4091.794871,4058.974358
196,4405.641025,4522.564102,4527.179487,4250.769230,4468.205128,4203.589743,4427.692307,4215.897435,4218.461538,4486.666666,4217.435897,4657.948717,4088.717948,4066.153846
197,4409.230769,4524.615384,4530.256410,4253.333333,4471.794871,4205.128205,4432.307692,4215.897435,4218.461538,4490.256410,4218.461538,4665.641025,4093.333333,4071.282051
198,4414.871794,4533.846153,4536.410256,4269.743589,4488.717948,4216.410256,4444.615384,4218.974358,4231.282051,4506.153846,4216.923076,4673.333333,4104.615384,4073.333333
199,4412.307692,4534.871794,4536.410256,4273.333333,4485.128205,4213.846153,4442.564102,4219.487179,4238.461538,4509.230769,4224.102564,4672.307692,4098.974358,4067.692307
200,4398.974358,4521.538461,4529.230769,4251.282051,4467.692307,4206.666666,4430.769230,4214.358974,4230.769230,4487.692307,4224.615384,4666.153846,4078.974358,4059.487179
201,4400.512820,4518.461538,4521.025641,4243.076923,4470.256410,4205.641025,4429.743589,4210.256410,4217.435897,4473.846153,4214.358974,4661.025641,4074.358974,4061.538461
202,4406.153846,4523.076923,4521.025641,4250.769230,4477.948717,4203.076923,4431.794871,4211.794871,4217.435897,4481.025641,4208.205128,4658.974358,4079.487179,4063.589743
203,4402.051282,4521.025641,4527.179487,4248.717948,4474.358974,4203.076923,4434.358974,4213.846153,4227.692307,4483.589743,4213.846153,4660.512820,4069.230769,4058.461538
204,4402.564102,4521.538461,4525.641025,4249.230769,4473.333333,4214.358974,4440.000000,4213.333333,4227.179487,4486.666666,4218.974358,4663.076923,4061.025641,4057.948717
205,4405.128205,4526.153846,4523.589743,4251.282051,4484.102564,4226.153846,4445.128205,4216.923076,4222.564102,4499.487179,4219.487179,4663.589743,4071.282051,4069.230769
206,4400.512820,4524.102564,4527.692307,4247.179487,4486.666666,4224.102564,4442.051282,4216.410256,4227.692307,4494.871794,4217.948717,4662.564102,4073.333333,4073.846153
207,4404.102564,4524.102564,4529.230769,4251.794871,4476.410256,4215.897435,4433.846153,4210.769230,4230.256410,4476.410256,4212.820512,4661.538461,4063.076923,4065.641025
208,4422.564102,4536.410256,4533.846153,4266.666666,4476.923076,4222.564102,4436.410256,4217.435897,4234.871794,4483.076923,4222.051282,4668.717948,4067.692307,4069.230769
209,4429.230769,4543.589743,4541.538461,4271.282051,4486.153846,4232.820512,4446.153846,4228.205128,4243.076923,4501.538461,4236.410256,4675.897435,4079.487179,4084.102564
210,4416.410256,4528.205128,4533.846153,4254.358974,4478.461538,4221.025641,4440.000000,4219.487179,4233.333333,4497.948717,4230.256410,4671.282051,4069.230769,4079.487179
211,4405.641025,4516.923076,4525.641025,4236.923076,4467.179487,4209.230769,4429.230769,4208.205128,4222.564102,4480.000000,4215.897435,4664.615384,4052.820512,4062.051282
212,4412.820512,4531.794871,4537.948717,4250.769230,4475.384615,4225.128205,4442.051282,4222.051282,4232.307692,4479.487179,4227.179487,4670.256410,4056.923076,4068.205128
213,4419.487179,4544.102564,4543.076923,4270.256410,4480.512820,4232.820512,4451.794871,4232.820512,4235.897435,4496.923076,4237.948717,4674.358974,4063.076923,4083.076923
214,4411.282051,4537.435897,4527.179487,4257.948717,4473.333333,4217.435897,4439.487179,4218.974358,4227.692307,4501.025641,4222.564102,4662.564102,4055.384615,4075.897435
215,4408.717948,4535.897435,4522.564102,4247.179487,4480.000000,4212.820512,4435.897435,4211.794871,4230.769230,4488.717948,4222.051282,4655.897435,4045.128205,4066.153846
216,4412.307692,4537.948717,4533.333333,4257.948717,4487.179487,4216.410256,4442.564102,4218.461538,4235.384615,4486.666666,4232.307692,4663.589743,4041.538461,4065.641025
217,4409.230769,4531.794871,4535.897435,4257.435897,4477.948717,4210.256410,4443.076923,4220.512820,4233.333333,4494.358974,4223.076923,4667.692307,4045.641025,4067.692307
218,4412.307692,4532.307692,4529.743589,4250.769230,4473.846153,4206.666666,4442.564102,4220.000000,4231.794871,4492.307692,4215.897435,4664.615384,4055.384615,4069.230769
219,4411.282051,4535.384615,4532.307692,4254.871794,4479.487179,4207.692307,4445.128205,4222.051282,4231.794871,4488.717948,4222.051282,4661.538461,4059.487179,4065.128205
220,4400.000000,4528.205128,4533.333333,4254.358974,4478.461538,4207.692307,4443.589743,4220.000000,4232.820512,4490.769230,4223.076923,4662.564102,4047.179487,4060.000000
221,4402.051282,4519.487179,4528.205128,4245.128205,4470.769230,4207.179487,4441.538461,4214.871794,4237.435897,4489.743589,4226.666666,4663.076923,4036.410256,4063.589743
222,4415.897435,4521.538461,4530.256410,4248.717948,4473.333333,4208.205128,4443.076923,4217.948717,4237.948717,4494.358974,4234.871794,4667.692307,4048.205128,4074.358974
223,4415.384615,4532.820512,4534.871794,4256.410256,4482.051282,4213.333333,4445.641025,4225.641025,4233.333333,4504.102564,4228.717948,4670.769230,4056.410256,4076.410256
224,4409.743589,4535.897435,4531.794871,4250.769230,4482.051282,4213.846153,4446.153846,4225.641025,4233.333333,4503.076923,4225.128205,4666.153846,4042.051282,4072.820512
225,4411.282051,4532.307692,4528.205128,4252.307692,4473.846153,4208.205128,4444.615384,4217.948717,4235.897435,4494.358974,4235.384615,4660.512820,4035.384615,4071.794871
226,4405.128205,4532.820512,4529.743589,4259.487179,4474.358974,4211.794871,4447.179487,4217.435897,4233.333333,4487.179487,4233.333333,4660.000000,4045.128205,4071.282051
227,4394.358974,4526.153846,4529.230769,4254.871794,4480.512820,4220.000000,4445.641025,4216.410256,4226.153846,4480.512820,4217.948717,4656.410256,4041.025641,4060.512820
228,4398.974358,4520.000000,4533.846153,4249.743589,4474.358974,4214.358974,4443.076923,4213.333333,4222.051282,4478.461538,4211.794871,4657.435897,4029.743589,4054.871794
229,4413.333333,4531.794871,4543.589743,4250.256410,4472.820512,4214.358974,4452.820512,4220.512820,4230.769230,4486.666666,4223.076923,4670.256410,4031.282051,4072.820512
230,4413.333333,4537.948717,4540.512820,4252.307692,4479.487179,4219.487179,4453.333333,4231.794871,4238.461538,4492.820512,4233.333333,4670.769230,4030.769230,4075.897435
231,4402.051282,4523.589743,4533.333333,4258.974358,4476.923076,4215.897435,4444.102564,4230.769230,4236.410256,4493.846153,4230.256410,4661.025641,4024.102564,4059.487179
232,4404.615384,4520.000000,4532.820512,4259.487179,4475.897435,4213.846153,4449.743589,4222.564102,4231.794871,4496.410256,4225.641025,4661.538461,4025.641025,4063.076923
233,4414.358974,4532.820512,4539.487179,4251.282051,4479.487179,4218.974358,4458.974358,4224.615384,4233.846153,4494.871794,4232.307692,4668.717948,4036.923076,4078.974358
234,4411.794871,4537.435897,4543.076923,4254.871794,4475.384615,4218.461538,4456.410256,4232.307692,4241.025641,4492.307692,4233.333333,4672.820512,4041.025641,4075.897435
235,4406.153846,4529.743589,4535.384615,4263.589743,4469.230769,4210.256410,4451.282051,4228.717948,4241.538461,4491.794871,4222.564102,4666.153846,4027.179487,4064.615384
236,4409.743589,4527.692307,4531.794871,4261.025641,4479.487179,4209.230769,4447.692307,4224.615384,4233.333333,4491.794871,4223.076923,4660.000000,4017.435897,4067.692307
237,4413.333333,4536.410256,4537.948717,4257.435897,4493.333333,4215.384615,4444.102564,4226.666666,4230.769230,4493.846153,4234.358974,4665.128205,4023.076923,4074.871794
238,4411.282051,4540.000000,4538.974358,4257.435897,4487.179487,4217.948717,4445.641025,4223.589743,4234.871794,4490.256410,4233.846153,4665.641025,4026.666666,4073.846153
239,4412.820512,4535.897435,4536.410256,4260.512820,4474.358974,4213.846153,4445.641025,4218.461538,4235.384615,4487.179487,4231.282051,4658.461538,4023.589743,4073.333333
240,4411.794871,4537.435897,4537.948717,4258.974358,4475.897435,4207.692307,4444.102564,4219.487179,4226.153846,4489.230769,4232.820512,4658.974358,4022.051282,4078.461538
241,4402.564102,4538.461538,4530.769230,4246.666666,4476.410256,4203.589743,4443.076923,4212.820512,4218.461538,4486.666666,4228.205128,4655.897435,4023.589743,4073.846153
242,4402.051282,4535.897435,4525.641025,4243.589743,4471.794871,4208.717948,4441.538461,4210.256410,4225.641025,4490.256410,4226.153846,4648.717948,4033.333333,4066.153846
243,4414.871794,4541.025641,4534.871794,4258.461538,4487.692307,4218.461538,4444.615384,4222.051282,4241.025641,4495.897435,4233.846153,4659.487179,4042.564102,4075.897435
244,4409.743589,4538.461538,4533.846153,4261.538461,4489.743589,4214.358974,4443.076923,4221.025641,4233.846153,4480.000000,4232.307692,4664.102564,4030.256410,4076.923076
245,4391.282051,4526.666666,4522.051282,4247.179487,4461.025641,4201.025641,4435.897435,4211.282051,4220.000000,4470.256410,4226.153846,4650.769230,4012.820512,4062.051282
246,4398.974358,4531.282051,4527.179487,4249.743589,4467.179487,4200.000000,4441.025641,4220.512820,4232.820512,4490.256410,4234.871794,4653.846153,4020.512820,4068.205128
247,4413.846153,4538.461538,4538.974358,4264.102564,4497.435897,4205.641025,4448.717948,4228.717948,4244.102564,4496.410256,4234.358974,4662.564102,4036.410256,4083.076923
248,4400.512820,4531.282051,4532.820512,4256.923076,4485.128205,4199.487179,4438.974358,4217.435897,4234.871794,4484.615384,4220.000000,4653.333333,4032.820512,4072.307692
249,4390.256410,4527.179487,4526.153846,4238.974358,4465.128205,4194.358974,4432.307692,4210.769230,4227.692307,4490.769230,4224.102564,4649.743589,4023.076923,4061.538461
250,4405.128205,4532.820512,4531.794871,4248.205128,4473.333333,4200.000000,4438.974358,4215.897435,4226.153846,4494.358974,4233.846153,4658.974358,4028.205128,4076.410256
251,4411.794871,4535.897435,4535.897435,4264.102564,4480.512820,4202.564102,4439.487179,4215.384615,4223.589743,4485.128205,4218.974358,4660.512820,4038.461538,4085.128205
252,4406.666666,4541.025641,4536.410256,4264.102564,4484.615384,4202.564102,4436.923076,4215.384615,4230.256410,4494.358974,4210.769230,4661.025641,4036.923076,4077.435897
253,4405.128205,4542.051282,4536.923076,4260.512820,4492.307692,4204.102564,4442.564102,4218.974358,4238.974358,4503.076923,4222.051282,4664.102564,4026.153846,4075.384615
254,4399.487179,4531.794871,4534.871794,4257.435897,4490.256410,4201.025641,4444.102564,4216.410256,4230.769230,4490.256410,4216.923076,4656.923076,4016.410256,4076.923076
255,4401.025641,4533.333333,4533.846153,4257.435897,4489.230769,4203.076923,4440.512820,4213.333333,4226.666666,4488.205128,4208.717948,4653.846153,4012.820512,4075.384615
256,4412.307692,4544.102564,4536.923076,4265.641025,4494.358974,4216.923076,4447.179487,4219.487179,4233.333333,4496.923076,4218.974358,4661.025641,4012.307692,4075.384615
257,4406.153846,4537.948717,4535.384615,4261.538461,4494.871794,4215.897435,4446.666666,4217.435897,4227.692307,4491.794871,4209.230769,4655.897435,4000.512820,4072.307692
258,4390.256410,4524.615384,4527.179487,4245.641025,4490.256410,4201.538461,4431.794871,4204.102564,4215.384615,4486.666666,4189.230769,4642.564102,3988.717949,4067.179487
259,4401.025641,4531.282051,4529.743589,4252.307692,4488.205128,4204.102564,4432.820512,4206.153846,4223.076923,4497.948717,4198.974358,4650.256410,3991.282052,4072.820512
