,AF3,F7,F3,FC5,T7,P7,O1,O2,P8,T8,FC6,F4,F8,AF4
0,4461.538461,4522.564102,4512.820512,4277.435897,4507.692307,4189.230769,4449.230769,4207.179487,4224.615384,4489.230769,4211.794871,4617.435897,3976.410257,4032.307692
1,4467.692307,4521.538461,4517.948717,4283.589743,4505.128205,4190.256410,4451.282051,4215.384615,4230.256410,4490.769230,4217.948717,4621.025641,3983.589744,4036.410256
2,4465.128205,4526.153846,4517.435897,4277.435897,4507.179487,4187.692307,4447.692307,4215.384615,4233.846153,4496.923076,4213.333333,4614.871794,3983.076924,4027.692307
3,4458.461538,4525.128205,4510.256410,4273.846153,4504.615384,4183.076923,4443.076923,4215.384615,4234.871794,4505.128205,4209.743589,4615.897435,3975.897436,4023.076923
4,4458.974358,4521.538461,4511.794871,4278.461538,4502.564102,4184.615384,4437.948717,4212.307692,4236.410256,4501.025641,4215.897435,4618.974358,3975.384616,4028.205128
5,4467.179487,4527.692307,4521.025641,4281.025641,4505.641025,4186.666666,4436.923076,4207.692307,4232.307692,4495.897435,4216.410256,4616.923076,3975.384616,4030.256410
6,4471.282051,4532.820512,4518.974358,4278.974358,4503.076923,4183.589743,4441.025641,4209.743589,4226.666666,4500.000000,4213.333333,4616.923076,3973.846154,4030.769230
7,4474.871794,4532.820512,4517.435897,4282.564102,4498.461538,4184.615384,4443.589743,4216.410256,4233.333333,4503.076923,4220.000000,4624.102564,3985.641026,4037.948717
8,4480.000000,4534.358974,4524.102564,4283.589743,4501.025641,4184.615384,4440.512820,4214.871794,4243.076923,4504.615384,4225.641025,4626.666666,3996.923077,4042.051282
9,4480.512820,4537.435897,4522.051282,4274.358974,4506.153846,4182.564102,4440.512820,4212.307692,4241.025641,4506.153846,4223.076923,4622.564102,3985.641026,4039.487179
10,4476.923076,4536.923076,4521.025641,4281.025641,4509.230769,4191.282051,4444.615384,4217.435897,4233.333333,4504.102564,4221.025641,4625.641025,3973.846154,4037.948717
11,4470.256410,4535.897435,4524.102564,4293.333333,4508.717948,4195.897435,4444.102564,4216.923076,4230.769230,4499.487179,4223.076923,4627.692307,3976.923077,4036.410256
12,4463.076923,4538.461538,4522.051282,4286.153846,4506.666666,4186.666666,4442.564102,4212.820512,4231.282051,4495.384615,4221.025641,4623.589743,3979.487180,4037.435897
13,4458.974358,4540.512820,4521.538461,4282.051282,4504.615384,4186.666666,4442.564102,4214.358974,4231.794871,4498.461538,4215.384615,4624.102564,3981.538462,4041.025641
14,4459.487179,4538.974358,4525.641025,4289.230769,4507.692307,4194.358974,4444.102564,4215.384615,4233.846153,4505.641025,4215.384615,4629.743589,3985.641026,4040.000000
15,4457.435897,4538.974358,4525.641025,4283.589743,4507.692307,4189.743589,4443.076923,4210.769230,4230.769230,4499.487179,4222.564102,4630.769230,3983.589744,4037.435897
16,4450.769230,4535.897435,4526.153846,4276.410256,4504.615384,4182.564102,4442.564102,4210.256410,4225.641025,4492.820512,4226.153846,4630.769230,3980.512821,4041.025641
17,4446.666666,4531.794871,4531.282051,4283.589743,4506.666666,4188.205128,4447.179487,4218.974358,4233.333333,4505.641025,4224.615384,4634.871794,3979.487180,4042.564102
18,4445.641025,4534.871794,4528.205128,4284.102564,4509.743589,4195.384615,4451.794871,4226.153846,4243.589743,4513.333333,4220.512820,4636.410256,3976.410257,4040.000000
19,4443.076923,4531.794871,4524.102564,4275.384615,4507.692307,4190.256410,4446.666666,4221.538461,4238.974358,4506.666666,4217.435897,4631.794871,3973.333334,4038.461538
20,4448.205128,4525.128205,4528.717948,4275.384615,4505.641025,4185.641025,4446.153846,4219.487179,4236.923076,4504.102564,4222.564102,4628.717948,3969.743590,4038.461538
21,4458.974358,4529.230769,4530.256410,4280.512820,4507.179487,4190.769230,4453.846153,4228.205128,4248.205128,4509.230769,4230.256410,4631.794871,3969.743590,4042.051282
22,4453.846153,4530.256410,4522.564102,4278.974358,4506.666666,4190.769230,4451.794871,4227.692307,4249.743589,4508.717948,4224.102564,4633.333333,3977.948718,4041.025641
23,4440.000000,4518.974358,4519.487179,4272.820512,4504.615384,4183.589743,4443.076923,4217.435897,4234.358974,4498.974358,4212.820512,4628.717948,3975.897436,4030.769230
24,4441.025641,4519.487179,4524.615384,4274.871794,4504.615384,4183.589743,4442.564102,4214.871794,4225.641025,4492.820512,4215.897435,4627.179487,3970.256411,4028.205128
25,4446.153846,4527.692307,4522.051282,4281.538461,4506.153846,4188.717948,4447.179487,4220.000000,4235.384615,4500.512820,4220.512820,4629.743589,3978.461539,4035.897435
26,4443.589743,4525.128205,4516.410256,4277.948717,4506.153846,4191.282051,4448.205128,4224.102564,4246.666666,4509.230769,4217.948717,4631.794871,3985.641026,4036.410256
27,4439.487179,4522.051282,4519.487179,4269.743589,4506.153846,4191.282051,4446.153846,4224.102564,4243.076923,4503.589743,4217.948717,4632.820512,3978.461539,4030.256410
28,4433.846153,4522.051282,4517.948717,4271.794871,4508.717948,4187.179487,4444.102564,4215.384615,4228.717948,4490.256410,4216.923076,4628.717948,3969.743590,4025.641025
29,4429.743589,4520.000000,4512.820512,4275.897435,4504.615384,4185.641025,4444.102564,4212.820512,4226.666666,4487.692307,4210.769230,4621.025641,3968.205129,4023.589743
30,4430.256410,4520.000000,4514.871794,4275.384615,4499.487179,4187.179487,4444.615384,4218.974358,4233.846153,4496.410256,4206.666666,4620.000000,3974.358975,4026.666666
31,4429.743589,4521.025641,4514.358974,4275.897435,4503.076923,4184.615384,4443.076923,4216.410256,4231.282051,4493.333333,4206.153846,4621.025641,3980.512821,4029.230769
32,4428.205128,4521.025641,4512.307692,4275.384615,4504.615384,4184.102564,4444.102564,4212.820512,4231.794871,4488.717948,4208.717948,4619.487179,3978.461539,4026.666666
33,4426.153846,4518.974358,4513.846153,4273.846153,4501.538461,4186.153846,4445.128205,4216.410256,4237.435897,4502.564102,4212.307692,4618.461538,3973.846154,4024.102564
34,4424.615384,4517.435897,4514.358974,4275.384615,4503.076923,4184.102564,4442.564102,4216.410256,4234.358974,4507.179487,4216.410256,4620.000000,3973.333334,4025.128205
35,4427.692307,4520.512820,4515.384615,4280.512820,4506.666666,4184.615384,4444.102564,4215.384615,4231.282051,4499.487179,4218.974358,4623.076923,3975.897436,4028.717948
36,4429.743589,4524.615384,4516.410256,4279.487179,4507.179487,4186.153846,4446.153846,4216.923076,4233.846153,4500.512820,4215.384615,4623.589743,3983.076924,4028.717948
37,4427.179487,4517.948717,4511.282051,4269.230769,4501.025641,4182.051282,4441.025641,4214.358974,4232.820512,4500.512820,4212.820512,4618.461538,3987.692308,4024.102564
38,4426.153846,4511.794871,4507.692307,4267.692307,4496.410256,4180.000000,4438.461538,4215.897435,4230.256410,4497.435897,4221.538461,4617.435897,3984.615385,4025.641025
39,4429.743589,4518.461538,4517.435897,4280.512820,4502.051282,4185.641025,4443.589743,4219.487179,4232.307692,4501.538461,4228.717948,4626.666666,3977.435898,4031.794871
40,4435.897435,4526.153846,4521.025641,4286.153846,4507.692307,4188.717948,4445.641025,4210.256410,4232.307692,4503.589743,4222.564102,4629.743589,3975.897436,4032.307692
41,4442.051282,4523.076923,4512.820512,4278.974358,4505.641025,4186.153846,4442.051282,4202.564102,4230.769230,4496.923076,4213.333333,4621.025641,3982.051283,4028.205128
42,4445.128205,4516.923076,4513.846153,4274.358974,4500.000000,4184.615384,4440.000000,4209.743589,4229.230769,4494.871794,4216.410256,4619.487179,3986.153847,4030.769230
43,4441.538461,4518.974358,4518.974358,4273.846153,4500.000000,4185.641025,4444.102564,4218.974358,4229.230769,4494.871794,4220.512820,4624.102564,3982.051283,4032.307692
44,4432.307692,4520.000000,4512.820512,4274.358974,4500.512820,4183.589743,4443.076923,4214.871794,4228.717948,4491.794871,4212.820512,4621.025641,3969.230770,4024.615384
45,4422.564102,4511.794871,4505.641025,4278.461538,4496.410256,4181.538461,4436.923076,4208.205128,4225.641025,4492.307692,4208.717948,4614.871794,3957.948718,4018.974358
46,4422.051282,4505.128205,4510.769230,4278.461538,4497.948717,4184.102564,4437.948717,4209.230769,4224.615384,4493.333333,4213.846153,4615.897435,3964.102565,4020.000000
47,4424.615384,4504.615384,4511.282051,4272.307692,4497.948717,4178.974358,4437.435897,4205.641025,4220.512820,4487.692307,4206.666666,4617.948717,3970.256411,4018.461538
48,4423.076923,4508.205128,4505.128205,4269.230769,4494.871794,4172.820512,4431.794871,4203.589743,4220.512820,4487.692307,4198.461538,4615.897435,3961.538462,4015.897435
49,4427.179487,4515.897435,4512.820512,4274.358974,4496.410256,4178.974358,4436.923076,4212.820512,4228.205128,4501.538461,4212.307692,4621.538461,3965.128206,4023.589743
50,4430.769230,4514.871794,4522.564102,4280.512820,4497.948717,4185.128205,4443.589743,4219.487179,4226.666666,4504.615384,4222.051282,4628.717948,3978.974359,4027.179487
51,4430.769230,4510.256410,4518.461538,4278.974358,4501.025641,4184.102564,4440.000000,4214.358974,4220.000000,4490.256410,4210.769230,4625.641025,3973.846154,4021.025641
52,4435.897435,4516.923076,4513.846153,4280.000000,4502.564102,4182.564102,4439.487179,4215.897435,4225.128205,4486.666666,4208.205128,4621.025641,3968.717949,4023.589743
53,4437.435897,4518.461538,4516.410256,4282.051282,4497.948717,4181.025641,4444.102564,4220.000000,4233.333333,4493.846153,4218.974358,4621.538461,3976.923077,4026.153846
54,4435.384615,4507.692307,4513.846153,4279.487179,4497.435897,4181.538461,4445.641025,4216.410256,4230.256410,4494.871794,4214.871794,4620.512820,3975.384616,4018.974358
55,4435.384615,4504.615384,4508.205128,4275.897435,4502.051282,4184.615384,4446.666666,4217.435897,4224.615384,4485.641025,4205.641025,4619.487179,3967.179488,4011.794871
56,4436.410256,4508.717948,4511.282051,4271.282051,4498.461538,4183.589743,4450.256410,4220.000000,4225.641025,4486.153846,4207.692307,4616.410256,3962.051283,4010.256410
57,4432.307692,4504.615384,4510.769230,4263.589743,4494.358974,4180.512820,4450.256410,4218.461538,4232.307692,4498.974358,4208.205128,4608.717948,3949.743590,4009.743589
58,4427.692307,4496.923076,4503.076923,4262.051282,4498.974358,4178.461538,4447.179487,4215.897435,4235.384615,4499.487179,4200.000000,4605.128205,3945.641026,4009.230769
59,4432.820512,4494.871794,4503.589743,4268.205128,4500.000000,4177.435897,4444.615384,4216.410256,4231.282051,4489.230769,4196.923076,4606.153846,3954.358975,4004.102564
60,4444.615384,4502.564102,4507.692307,4272.820512,4495.384615,4182.564102,4446.666666,4218.974358,4231.794871,4491.282051,4204.102564,4605.641025,3958.974359,4001.025641
61,4450.769230,4508.717948,4503.076923,4270.769230,4496.923076,4186.153846,4448.717948,4219.487179,4235.897435,4496.923076,4205.128205,4604.615384,3957.948718,4006.666666
62,4442.564102,4498.974358,4496.923076,4263.589743,4498.974358,4182.564102,4446.153846,4214.871794,4228.205128,4487.179487,4191.282051,4604.615384,3956.410257,4002.051282
63,4433.846153,4489.743589,4497.948717,4262.051282,4496.923076,4182.051282,4444.615384,4209.743589,4217.948717,4474.358974,4180.000000,4602.564102,3950.256411,3991.794872
64,4429.743589,4495.897435,4498.461538,4268.717948,4497.435897,4183.076923,4445.128205,4211.794871,4220.512820,4474.358974,4186.153846,4598.461538,3939.487180,3994.871795
65,4424.102564,4504.615384,4496.410256,4272.820512,4501.025641,4183.076923,4443.589743,4215.897435,4227.179487,4484.102564,4196.923076,4601.025641,3938.461539,4002.564102
66,4428.205128,4507.692307,4502.051282,4275.384615,4501.538461,4183.589743,4445.128205,4217.948717,4226.666666,4494.358974,4202.564102,4609.743589,3955.384616,4006.153846
67,4435.897435,4505.641025,4509.230769,4281.025641,4501.025641,4183.589743,4448.717948,4217.435897,4228.717948,4497.948717,4203.589743,4611.794871,3966.666667,4009.743589
68,4434.871794,4504.102564,4508.717948,4284.102564,4505.641025,4186.153846,4448.717948,4216.410256,4235.384615,4496.410256,4195.897435,4610.769230,3963.589744,4010.256410
69,4435.384615,4511.794871,4506.666666,4283.589743,4507.179487,4187.179487,4445.128205,4215.384615,4232.820512,4491.282051,4192.307692,4612.307692,3961.538462,4006.666666
70,4437.435897,4517.948717,4507.692307,4284.102564,4501.538461,4185.128205,4444.102564,4214.871794,4224.615384,4484.615384,4202.564102,4611.282051,3964.615385,4010.769230
71,4435.384615,4513.846153,4506.666666,4287.179487,4496.410256,4182.564102,4444.615384,4215.384615,4229.743589,4486.666666,4203.076923,4610.256410,3964.615385,4017.435897
72,4436.410256,4512.307692,4509.230769,4289.230769,4494.358974,4182.051282,4442.051282,4214.871794,4230.769230,4485.641025,4197.435897,4612.307692,3961.538462,4015.384615
73,4441.025641,4513.846153,4514.358974,4286.666666,4497.435897,4184.615384,4442.051282,4212.307692,4222.564102,4482.051282,4203.589743,4615.384615,3958.974359,4016.923076
74,4436.410256,4507.692307,4512.820512,4281.538461,4495.897435,4185.641025,4443.076923,4209.743589,4222.564102,4485.641025,4204.615384,4613.846153,3962.051283,4014.871794
75,4426.153846,4501.538461,4506.153846,4279.487179,4491.282051,4178.974358,4435.897435,4208.717948,4225.641025,4489.230769,4193.333333,4607.692307,3971.282052,4004.102564
76,4429.230769,4509.230769,4507.179487,4281.538461,4493.846153,4176.410256,4430.769230,4211.282051,4225.128205,4488.717948,4200.512820,4608.717948,3977.948718,4006.153846
77,4442.051282,4521.025641,4512.820512,4290.256410,4503.076923,4187.179487,4441.025641,4218.974358,4229.230769,4487.692307,4212.307692,4619.487179,3979.487180,4022.051282
78,4443.076923,4519.487179,4511.794871,4296.923076,4505.128205,4187.179487,4444.615384,4219.487179,4227.179487,4483.589743,4198.461538,4616.410256,3972.820513,4022.564102
79,4429.743589,4512.307692,4503.076923,4287.179487,4495.384615,4177.948717,4432.820512,4207.179487,4214.358974,4475.384615,4181.025641,4599.487179,3958.974359,4005.641025
80,4430.256410,4510.769230,4497.435897,4278.461538,4488.717948,4176.923076,4428.717948,4197.948717,4209.743589,4470.769230,4182.051282,4597.435897,3955.897436,3998.461539
81,4444.615384,4512.820512,4501.025641,4281.538461,4492.820512,4178.461538,4435.897435,4200.512820,4213.333333,4467.179487,4187.692307,4602.564102,3960.512821,4003.076923
82,4448.205128,4516.923076,4506.666666,4281.025641,4494.871794,4179.487179,4441.025641,4206.153846,4211.794871,4467.692307,4192.820512,4601.538461,3957.435898,4006.666666
83,4447.179487,4522.564102,4508.717948,4280.512820,4494.871794,4179.487179,4438.461538,4206.666666,4217.435897,4477.948717,4193.333333,4602.564102,3955.384616,4003.076923
84,4444.102564,4514.871794,4500.512820,4283.589743,4491.794871,4174.358974,4431.282051,4205.128205,4218.974358,4481.025641,4185.641025,4600.000000,3954.871795,3998.974359
85,4432.307692,4502.051282,4493.846153,4280.000000,4488.717948,4167.179487,4424.102564,4200.000000,4203.589743,4471.282051,4180.512820,4591.282051,3951.794872,3997.948718
86,4426.153846,4505.641025,4497.948717,4280.512820,4488.205128,4167.692307,4424.615384,4197.435897,4197.435897,4462.564102,4180.512820,4590.256410,3958.461539,3999.487180
87,4430.256410,4518.974358,4500.512820,4286.666666,4490.256410,4177.948717,4435.897435,4206.153846,4214.871794,4467.692307,4185.128205,4598.974358,3971.282052,4005.641025
88,4431.282051,4520.000000,4499.487179,4282.051282,4491.282051,4179.487179,4441.025641,4210.256410,4227.179487,4478.461538,4187.179487,4602.564102,3974.358975,4008.717948
89,4427.692307,4509.743589,4496.923076,4280.512820,4491.794871,4174.871794,4431.282051,4202.564102,4218.974358,4478.974358,4178.461538,4597.948717,3977.435898,4005.641025
90,4431.794871,4511.282051,4496.923076,4289.230769,4491.282051,4177.948717,4428.205128,4201.025641,4210.769230,4472.820512,4179.487179,4597.435897,3981.538462,4010.256410
91,4444.102564,4526.153846,4502.051282,4297.435897,4493.333333,4185.128205,4443.076923,4214.358974,4217.948717,4477.435897,4194.358974,4606.666666,3978.974359,4021.538461
92,4446.666666,4525.128205,4505.641025,4297.948717,4494.358974,4184.102564,4448.717948,4220.512820,4229.230769,4490.769230,4192.820512,4611.282051,3977.435898,4022.564102
93,4436.923076,4511.794871,4501.538461,4292.307692,4489.230769,4176.410256,4435.897435,4210.769230,4223.589743,4487.692307,4181.025641,4605.128205,3969.743590,4011.794871
94,4435.897435,4515.897435,4501.025641,4284.615384,4490.769230,4176.923076,4432.307692,4207.692307,4214.871794,4473.846153,4182.051282,4604.615384,3960.000000,4010.769230
95,4443.076923,4530.256410,4510.256410,4289.743589,4498.461538,4182.051282,4440.512820,4216.923076,4226.666666,4478.974358,4192.307692,4616.410256,3970.256411,4022.051282
96,4445.641025,4530.256410,4512.820512,4301.025641,4496.923076,4182.564102,4437.948717,4222.564102,4235.384615,4489.230769,4203.589743,4622.564102,3975.897436,4028.717948
97,4441.025641,4522.564102,4506.666666,4296.923076,4490.256410,4180.000000,4430.769230,4216.923076,4222.564102,4480.000000,4206.153846,4615.897435,3962.051283,4021.538461
98,4431.282051,4517.435897,4500.512820,4288.717948,4489.743589,4176.923076,4429.230769,4207.692307,4214.358974,4469.743589,4194.358974,4605.641025,3959.487180,4010.769230
99,4425.128205,4515.897435,4499.487179,4292.307692,4491.282051,4175.897435,4431.282051,4203.076923,4216.923076,4472.307692,4185.641025,4600.512820,3964.615385,4008.205128
100,4434.358974,4517.948717,4506.666666,4296.410256,4491.282051,4180.000000,4435.897435,4207.692307,4221.025641,4480.000000,4189.230769,4605.641025,3967.692308,4016.410256
101,4446.666666,4524.615384,4514.871794,4293.333333,4490.769230,4184.615384,4442.051282,4218.461538,4228.717948,4491.282051,4197.435897,4616.923076,3980.000000,4028.205128
102,4452.307692,4532.307692,4516.923076,4296.923076,4493.333333,4179.487179,4441.538461,4221.538461,4233.846153,4497.435897,4202.564102,4623.076923,3982.051283,4032.820512
103,4458.461538,4532.820512,4516.410256,4303.076923,4494.358974,4178.461538,4434.358974,4216.410256,4229.743589,4491.794871,4204.615384,4621.538461,3971.282052,4028.717948
104,4465.128205,4527.692307,4515.384615,4301.025641,4494.871794,4186.666666,4432.820512,4213.846153,4224.102564,4485.128205,4200.000000,4619.487179,3972.307693,4024.102564
105,4460.000000,4521.538461,4512.820512,4295.897435,4498.974358,4186.666666,4432.307692,4212.307692,4217.948717,4478.974358,4185.641025,4616.923076,3976.923077,4022.564102
106,4446.153846,4517.435897,4505.128205,4290.769230,4496.923076,4178.974358,4430.769230,4202.564102,4212.307692,4471.794871,4177.948717,4613.333333,3966.153847,4021.025641
107,4446.153846,4523.076923,4505.128205,4290.769230,4492.820512,4179.487179,4435.897435,4200.000000,4220.000000,4475.897435,4187.692307,4615.384615,3961.025642,4024.615384
108,4456.923076,4533.846153,4509.743589,4298.461538,4496.410256,4182.564102,4440.512820,4210.256410,4231.794871,4489.230769,4197.435897,4620.512820,3965.128206,4031.794871
109,4452.307692,4530.769230,4506.666666,4299.487179,4496.410256,4176.410256,4434.358974,4210.256410,4225.641025,4484.615384,4191.282051,4616.410256,3963.589744,4026.666666
110,4441.025641,4518.461538,4504.102564,4296.410256,4489.230769,4173.333333,4424.615384,4198.461538,4213.846153,4475.384615,4174.871794,4608.205128,3962.051283,4017.435897
111,4444.102564,4514.871794,4507.179487,4301.025641,4490.256410,4180.000000,4426.666666,4199.487179,4215.897435,4481.025641,4167.692307,4610.769230,3967.692308,4021.538461
112,4450.256410,4516.410256,4507.179487,4300.512820,4494.358974,4176.923076,4430.769230,4203.589743,4221.025641,4478.974358,4174.358974,4615.384615,3966.153847,4026.666666
113,4451.794871,4517.948717,4505.641025,4292.307692,4489.230769,4166.153846,4426.666666,4195.384615,4211.794871,4465.641025,4183.076923,4609.743589,3954.358975,4018.974358
114,4454.871794,4522.564102,4509.230769,4292.820512,4488.205128,4166.666666,4426.666666,4194.358974,4204.615384,4467.179487,4186.666666,4609.743589,3954.871795,4019.487179
115,4458.974358,4522.564102,4512.307692,4296.923076,4491.794871,4174.871794,4433.846153,4200.512820,4210.256410,4480.000000,4185.641025,4620.000000,3971.282052,4031.794871
116,4472.307692,4523.076923,4518.974358,4304.102564,4494.358974,4181.025641,4440.512820,4202.564102,4218.461538,4483.076923,4182.051282,4625.641025,3981.538462,4038.974358
117,4481.025641,4527.692307,4523.076923,4314.871794,4496.923076,4187.692307,4440.512820,4202.564102,4217.948717,4478.974358,4185.128205,4623.589743,3980.000000,4040.000000
118,4468.717948,4527.179487,4515.384615,4308.205128,4494.871794,4183.076923,4434.871794,4200.000000,4214.871794,4473.846153,4193.333333,4621.025641,3972.307693,4034.871794
119,4457.435897,4516.923076,4511.794871,4292.820512,4488.717948,4171.794871,4429.230769,4198.461538,4218.461538,4475.897435,4193.333333,4616.410256,3962.051283,4025.128205
120,4455.384615,4506.666666,4513.846153,4293.333333,4489.230769,4170.769230,4432.820512,4202.564102,4220.000000,4479.487179,4186.153846,4613.333333,3961.025642,4022.051282
121,4448.205128,4505.128205,4511.282051,4296.923076,4491.282051,4174.871794,4437.435897,4200.512820,4212.820512,4471.794871,4183.076923,4615.384615,3975.384616,4025.128205
122,4441.025641,4502.564102,4504.102564,4288.717948,4482.564102,4170.769230,4432.307692,4189.743589,4209.743589,4467.179487,4183.589743,4615.897435,3978.461539,4023.076923
123,4441.538461,4496.923076,4499.487179,4285.128205,4474.871794,4164.102564,4425.128205,4185.128205,4215.897435,4473.333333,4186.666666,4612.820512,3959.487180,4017.948717
124,4443.589743,4500.000000,4501.538461,4291.282051,4475.897435,4166.666666,4420.512820,4186.153846,4216.923076,4475.384615,4187.692307,4612.307692,3952.307693,4018.974358
125,4443.589743,4516.410256,4501.538461,4293.333333,4482.051282,4168.205128,4414.358974,4184.615384,4207.692307,4472.820512,4183.076923,4611.794871,3966.153847,4022.051282
126,4442.564102,4521.538461,4498.974358,4293.333333,4484.102564,4165.128205,4411.282051,4177.435897,4198.974358,4469.230769,4180.000000,4607.692307,3973.846154,4023.076923
127,4442.564102,4513.333333,4499.487179,4294.871794,4483.589743,4167.692307,4414.358974,4170.769230,4200.512820,4466.666666,4183.076923,4608.205128,3968.205129,4022.564102
128,4443.589743,4514.358974,4501.538461,4294.871794,4486.666666,4171.282051,4418.974358,4175.384615,4206.666666,4469.230769,4184.615384,4610.256410,3964.102565,4020.512820
129,4441.538461,4515.384615,4500.000000,4293.846153,4490.769230,4170.256410,4423.076923,4182.564102,4212.307692,4474.871794,4178.974358,4606.153846,3960.512821,4016.923076
130,4441.025641,4511.794871,4503.076923,4295.384615,4490.769230,4169.743589,4425.128205,4189.743589,4217.948717,4476.923076,4176.410256,4607.692307,3956.923077,4016.923076
131,4448.205128,4516.410256,4509.230769,4298.461538,4488.717948,4172.307692,4427.179487,4195.897435,4217.948717,4477.948717,4181.538461,4616.923076,3965.128206,4026.153846
132,4449.743589,4516.923076,4507.692307,4297.435897,4491.282051,4171.794871,4423.076923,4192.307692,4213.846153,4478.974358,4189.230769,4618.974358,3973.846154,4028.717948
133,4443.589743,4506.666666,4506.666666,4294.871794,4490.256410,4169.743589,4416.923076,4190.256410,4214.358974,4478.461538,4194.358974,4614.871794,3970.256411,4018.974358
134,4443.076923,4508.717948,4510.256410,4291.282051,4489.743589,4170.769230,4423.076923,4195.384615,4215.384615,4474.871794,4192.820512,4616.410256,3962.564103,4017.948717
135,4447.179487,4516.410256,4507.692307,4288.717948,4491.282051,4172.820512,4430.769230,4190.769230,4210.769230,4465.641025,4186.666666,4617.435897,3962.564103,4021.025641
136,4441.538461,4509.230769,4501.538461,4285.128205,4487.692307,4170.256410,4425.641025,4184.102564,4209.743589,4464.102564,4182.564102,4613.333333,3962.051283,4016.410256
137,4434.871794,4503.589743,4500.000000,4282.564102,4487.692307,4167.692307,4424.102564,4194.871794,4220.000000,4476.410256,4187.179487,4613.333333,3964.102565,4016.923076
138,4442.051282,4512.820512,4508.205128,4288.205128,4492.820512,4176.410256,4430.256410,4203.589743,4227.692307,4485.641025,4194.358974,4620.512820,3972.820513,4026.153846
139,4448.717948,4520.512820,4510.769230,4294.871794,4493.333333,4180.512820,4425.641025,4195.897435,4218.974358,4477.435897,4194.871794,4622.564102,3972.307693,4026.153846
140,4444.615384,4515.897435,4506.153846,4292.820512,4489.230769,4171.282051,4415.384615,4185.128205,4212.307692,4468.717948,4186.666666,4619.487179,3967.692308,4021.538461
141,4442.564102,4515.384615,4508.205128,4291.794871,4489.743589,4170.256410,4418.974358,4183.589743,4223.589743,4481.538461,4182.051282,4622.051282,3974.358975,4025.128205
142,4448.205128,4522.051282,4514.358974,4293.846153,4490.769230,4175.897435,4425.641025,4185.128205,4232.307692,4493.846153,4188.717948,4625.641025,3978.974359,4028.717948
143,4447.179487,4521.025641,4506.153846,4287.179487,4492.820512,4177.948717,4423.589743,4182.051282,4222.564102,4481.538461,4191.794871,4618.974358,3965.641026,4025.641025
144,4439.487179,4511.794871,4495.897435,4283.076923,4495.897435,4178.461538,4421.025641,4175.384615,4209.743589,4463.076923,4181.538461,4607.692307,3952.307693,4018.461538
145,4438.974358,4511.282051,4500.000000,4292.307692,4496.410256,4181.538461,4423.589743,4174.871794,4208.717948,4465.641025,4177.948717,4608.205128,3953.333334,4011.282051
146,4443.076923,4518.974358,4508.717948,4298.461538,4495.897435,4181.025641,4425.641025,4180.512820,4213.333333,4476.923076,4180.512820,4615.384615,3964.102565,4016.923076
147,4444.102564,4520.512820,4507.692307,4294.871794,4494.358974,4177.435897,4426.666666,4185.128205,4217.435897,4473.846153,4173.846153,4616.923076,3972.820513,4021.538461
148,4443.589743,4520.512820,4502.051282,4291.794871,4493.846153,4178.974358,4429.743589,4184.615384,4216.923076,4467.179487,4174.871794,4612.820512,3956.923077,4011.282051
149,4438.974358,4516.410256,4500.000000,4291.282051,4491.794871,4178.461538,4427.179487,4180.000000,4212.307692,4467.179487,4182.051282,4608.717948,3933.333334,4003.076923
150,4442.051282,4512.307692,4502.564102,4292.820512,4490.769230,4173.846153,4426.666666,4182.564102,4212.307692,4466.666666,4182.564102,4608.205128,3943.076924,4011.282051
151,4456.923076,4512.820512,4508.205128,4294.871794,4495.897435,4176.923076,4434.871794,4193.846153,4221.538461,4467.692307,4180.512820,4614.871794,3973.333334,4017.948717
152,4458.974358,4511.794871,4508.205128,4293.846153,4498.461538,4182.051282,4435.897435,4198.461538,4228.205128,4476.923076,4173.846153,4620.000000,3975.384616,4010.769230
153,4448.205128,4507.179487,4504.615384,4294.358974,4492.820512,4174.871794,4429.230769,4190.769230,4223.076923,4481.025641,4173.333333,4614.358974,3960.512821,4008.717948
154,4445.128205,4505.641025,4507.179487,4290.256410,4487.179487,4165.128205,4427.179487,4183.076923,4215.384615,4474.871794,4185.128205,4611.794871,3964.615385,4013.846153
155,4447.692307,4508.717948,4511.282051,4286.666666,4489.230769,4169.230769,4427.179487,4187.692307,4216.923076,4472.307692,4195.384615,4621.025641,3972.820513,4016.410256
156,4451.282051,4510.769230,4511.282051,4294.871794,4491.794871,4175.384615,4425.128205,4193.333333,4223.589743,4479.487179,4193.333333,4623.076923,3972.820513,4016.923076
157,4457.435897,4511.794871,4513.333333,4303.589743,4490.769230,4175.384615,4425.128205,4189.743589,4225.128205,4488.717948,4190.256410,4621.025641,3976.410257,4020.512820
158,4458.461538,4513.333333,4513.846153,4302.564102,4493.846153,4180.000000,4429.230769,4189.230769,4227.179487,4485.128205,4192.307692,4624.102564,3981.025642,4022.564102
159,4455.897435,4512.307692,4510.769230,4301.538461,4496.923076,4183.076923,4433.846153,4196.923076,4229.230769,4472.307692,4195.897435,4624.615384,3980.512821,4020.000000
160,4456.923076,4510.256410,4508.205128,4298.974358,4493.846153,4173.333333,4434.871794,4202.051282,4223.589743,4471.794871,4196.410256,4620.512820,3975.897436,4020.000000
161,4457.435897,4511.794871,4506.666666,4293.846153,4488.717948,4169.743589,4429.743589,4198.974358,4221.538461,4481.538461,4187.692307,4622.051282,3970.769231,4022.051282
162,4457.948717,4517.435897,4513.846153,4298.974358,4490.256410,4176.923076,4426.666666,4197.948717,4224.615384,4481.025641,4183.589743,4628.717948,3973.846154,4024.615384
163,4459.487179,4515.384615,4519.487179,4309.743589,4493.846153,4176.923076,4428.717948,4198.974358,4226.666666,4476.410256,4193.846153,4632.307692,3988.717949,4027.179487
164,4460.512820,4509.743589,4516.410256,4309.743589,4492.820512,4173.333333,4428.205128,4197.948717,4229.230769,4481.538461,4200.000000,4630.256410,3990.769231,4025.641025
165,4459.487179,4511.282051,4516.923076,4303.589743,4491.794871,4177.435897,4427.692307,4200.000000,4229.230769,4486.153846,4195.384615,4624.615384,3976.410257,4022.051282
166,4458.461538,4508.205128,4515.384615,4297.435897,4494.871794,4179.487179,4430.256410,4199.487179,4222.564102,4476.923076,4185.128205,4619.487179,3962.564103,4015.897435
167,4466.666666,4499.487179,4507.692307,4292.820512,4501.025641,4181.538461,4437.948717,4195.897435,4222.564102,4466.666666,4182.051282,4617.435897,3958.461539,4011.794871
168,4478.974358,4508.717948,4512.820512,4301.025641,4507.179487,4186.666666,4444.615384,4204.615384,4235.897435,4476.923076,4188.205128,4622.051282,3969.230770,4018.974358
169,4480.512820,4519.487179,4526.153846,4318.974358,4508.205128,4185.641025,4445.641025,4216.923076,4241.538461,4490.256410,4199.487179,4631.794871,3986.153847,4028.717948
170,4474.358974,4512.820512,4525.128205,4322.564102,4506.153846,4185.128205,4439.487179,4212.307692,4235.897435,4488.205128,4207.179487,4634.871794,3988.205129,4027.179487
171,4474.871794,4509.230769,4520.000000,4311.794871,4504.102564,4184.615384,4430.769230,4202.051282,4235.897435,4485.128205,4202.051282,4632.820512,3984.102565,4023.589743
172,4475.897435,4514.871794,4518.974358,4308.205128,4504.615384,4182.564102,4433.333333,4201.538461,4242.564102,4491.282051,4198.461538,4633.333333,3983.076924,4027.179487
173,4468.205128,4517.948717,4518.461538,4311.794871,4505.641025,4185.128205,4443.589743,4204.615384,4243.076923,4495.384615,4201.025641,4633.846153,3979.487180,4026.666666
174,4467.179487,4519.487179,4523.076923,4314.358974,4503.589743,4185.641025,4444.102564,4208.717948,4238.461538,4491.794871,4203.076923,4632.307692,3982.051283,4024.102564
175,4467.692307,4519.487179,4522.564102,4315.384615,4503.589743,4184.102564,4439.487179,4211.282051,4236.410256,4490.256410,4203.076923,4633.333333,3988.205129,4026.666666
176,4464.615384,4516.410256,4518.974358,4316.410256,4506.666666,4185.641025,4443.076923,4211.794871,4238.974358,4493.846153,4200.000000,4636.923076,3989.230770,4031.282051
177,4466.666666,4520.000000,4522.564102,4317.948717,4508.717948,4188.205128,4445.128205,4214.871794,4243.589743,4496.923076,4199.487179,4637.948717,3984.615385,4034.358974
178,4468.717948,4522.564102,4523.589743,4318.974358,4507.179487,4186.153846,4436.410256,4210.256410,4240.512820,4488.717948,4200.512820,4634.358974,3980.000000,4029.743589
179,4462.564102,4517.948717,4514.871794,4318.461538,4505.641025,4182.564102,4428.717948,4199.487179,4230.256410,4480.512820,4200.512820,4627.692307,3983.076924,4020.512820
180,4456.923076,4517.948717,4513.846153,4315.897435,4501.538461,4182.564102,4426.153846,4197.948717,4229.230769,4483.589743,4194.358974,4623.589743,3987.692308,4017.948717
181,4460.512820,4513.846153,4517.948717,4312.307692,4496.410256,4183.076923,4432.307692,4204.615384,4235.384615,4482.051282,4185.128205,4622.051282,3981.025642,4020.000000
182,4457.948717,4503.076923,4512.307692,4307.692307,4498.974358,4183.076923,4438.461538,4201.538461,4232.307692,4474.358974,4181.538461,4620.000000,3969.743590,4015.897435
183,4448.205128,4503.589743,4508.717948,4305.641025,4505.128205,4183.076923,4434.871794,4192.307692,4221.538461,4474.358974,4185.641025,4616.923076,3970.769231,4010.256410
184,4448.717948,4508.717948,4517.435897,4308.717948,4506.153846,4183.589743,4433.846153,4192.820512,4220.000000,4475.384615,4194.358974,4617.948717,3973.846154,4012.820512
185,4455.384615,4508.205128,4521.538461,4310.769230,4506.153846,4185.128205,4442.564102,4197.948717,4227.179487,4471.794871,4194.871794,4625.641025,3972.820513,4017.948717
186,4464.102564,4508.717948,4522.051282,4315.897435,4509.743589,4188.205128,4447.179487,4204.615384,4233.846153,4480.000000,4187.179487,4634.871794,3983.589744,4023.076923
187,4468.717948,4511.794871,4526.666666,4317.435897,4509.743589,4188.717948,4443.589743,4212.820512,4239.487179,4493.333333,4190.256410,4637.948717,3998.461539,4025.128205
188,4472.820512,4510.256410,4524.615384,4311.794871,4506.153846,4184.615384,4443.076923,4213.846153,4243.589743,4493.333333,4202.051282,4636.410256,3995.384616,4020.512820
189,4482.564102,4508.205128,4521.538461,4313.846153,4507.179487,4187.692307,4446.666666,4211.282051,4246.153846,4488.205128,4204.102564,4637.435897,3984.615385,4020.000000
190,4487.179487,4510.256410,4526.153846,4318.461538,4508.717948,4190.769230,4446.153846,4210.256410,4242.051282,4489.743589,4197.435897,4639.487179,3986.666667,4024.615384
191,4476.410256,4506.666666,4524.102564,4314.871794,4506.153846,4184.615384,4442.051282,4207.179487,4234.358974,4491.282051,4186.666666,4636.923076,3988.717949,4021.025641
192,4466.666666,4503.076923,4521.025641,4313.333333,4506.153846,4186.153846,4444.102564,4207.692307,4235.897435,4488.717948,4184.615384,4636.410256,3988.205129,4018.461538
193,4475.897435,4515.897435,4533.333333,4319.487179,4510.769230,4196.410256,4450.256410,4219.487179,4242.564102,4490.256410,4203.589743,4645.641025,3995.897436,4034.871794
194,4483.589743,4527.179487,4545.641025,4327.692307,4517.435897,4202.564102,4451.282051,4222.564102,4245.641025,4499.487179,4224.102564,4653.846153,4001.025641,4049.743589
195,4478.461538,4522.564102,4543.589743,4332.307692,4517.435897,4197.948717,4450.769230,4215.897435,4246.666666,4504.615384,4217.948717,4653.333333,3995.384616,4044.615384
196,4471.794871,4521.538461,4537.435897,4329.743589,4513.333333,4195.384615,4453.846153,4216.410256,4242.564102,4496.410256,4198.974358,4648.205128,3993.333334,4038.461538
197,4462.564102,4521.025641,4529.743589,4321.025641,4513.846153,4197.948717,4457.435897,4218.461538,4235.384615,4488.205128,4194.871794,4640.000000,3992.820513,4036.923076
198,4454.358974,4507.179487,4521.025641,4309.743589,4510.256410,4194.871794,4452.820512,4209.230769,4232.820512,4489.743589,4196.923076,4630.769230,3980.512821,4026.153846
199,4454.358974,4501.538461,4518.461538,4302.564102,4508.205128,4189.230769,4447.179487,4203.589743,4230.256410,4491.794871,4196.410256,4629.230769,3966.153847,4019.487179
200,4468.717948,4515.897435,4525.128205,4312.820512,4512.820512,4193.846153,4451.794871,4210.256410,4230.256410,4487.692307,4196.410256,4637.948717,3969.743590,4030.256410
201,4487.692307,4527.692307,4534.358974,4327.179487,4518.461538,4203.076923,4460.000000,4218.461538,4243.076923,4491.794871,4201.538461,4649.230769,3988.205129,4045.641025
202,4494.358974,4527.179487,4538.461538,4326.153846,4519.487179,4201.025641,4461.025641,4223.076923,4253.846153,4509.230769,4211.794871,4655.384615,4004.615384,4053.846153
203,4488.205128,4521.025641,4543.589743,4325.128205,4521.025641,4199.487179,4457.435897,4231.794871,4261.025641,4518.974358,4219.487179,4659.487179,4010.256410,4055.384615
204,4481.025641,4524.102564,4548.205128,4330.256410,4522.051282,4202.564102,4459.487179,4235.897435,4263.589743,4513.846153,4219.487179,4661.538461,4001.025641,4053.846153
205,4477.435897,4533.846153,4546.153846,4325.641025,4520.000000,4198.974358,4460.000000,4227.692307,4251.794871,4507.692307,4215.897435,4656.923076,3990.769231,4049.743589
206,4471.794871,4533.333333,4543.076923,4319.487179,4517.948717,4197.948717,4455.897435,4219.487179,4237.948717,4507.179487,4212.820512,4650.256410,3994.358975,4045.128205
207,4464.102564,4524.102564,4540.512820,4320.512820,4517.948717,4202.051282,4452.307692,4216.410256,4241.538461,4509.230769,4210.769230,4648.205128,3998.461539,4043.076923
208,4454.871794,4518.974358,4533.846153,4317.435897,4516.410256,4196.923076,4450.256410,4210.256410,4242.051282,4502.564102,4203.076923,4642.564102,3986.666667,4036.410256
209,4447.179487,4520.000000,4530.769230,4307.692307,4508.717948,4187.692307,4446.666666,4208.205128,4231.794871,4489.230769,4191.282051,4635.384615,3973.846154,4028.205128
210,4453.333333,4529.743589,4538.461538,4310.769230,4510.256410,4193.333333,4450.769230,4215.384615,4233.846153,4493.846153,4199.487179,4644.102564,3982.564103,4035.384615
211,4465.641025,4539.487179,4543.589743,4321.538461,4520.512820,4199.487179,4457.435897,4220.512820,4245.128205,4505.128205,4211.282051,4659.487179,4000.512820,4049.230769
212,4467.692307,4532.307692,4535.384615,4318.461538,4514.871794,4195.384615,4448.205128,4218.461538,4241.025641,4502.564102,4205.641025,4657.435897,4003.076923,4045.128205
213,4467.692307,4521.025641,4530.256410,4309.230769,4504.615384,4190.256410,4438.974358,4214.358974,4231.282051,4497.948717,4203.589743,4648.205128,3993.846154,4034.358974
214,4476.923076,4527.179487,4532.820512,4312.820512,4507.179487,4188.717948,4444.615384,4208.205128,4233.333333,4500.512820,4210.769230,4647.179487,3992.307693,4036.923076
215,4477.948717,4538.461538,4533.333333,4321.025641,4508.717948,4190.256410,4445.641025,4205.641025,4235.384615,4500.512820,4208.717948,4646.153846,3991.282052,4041.025641
216,4465.128205,4535.897435,4532.307692,4318.461538,4506.666666,4192.307692,4438.974358,4207.692307,4232.820512,4498.974358,4200.512820,4644.102564,3985.641026,4037.948717
217,4460.000000,4526.153846,4532.820512,4310.769230,4506.666666,4188.205128,4436.410256,4205.641025,4233.333333,4496.410256,4196.410256,4645.641025,3991.794872,4037.948717
218,4455.897435,4522.564102,4525.641025,4307.179487,4504.615384,4182.051282,4432.307692,4199.487179,4227.179487,4485.128205,4195.897435,4640.000000,3993.846154,4034.358974
219,4445.128205,4522.051282,4516.410256,4308.205128,4504.615384,4184.102564,4432.307692,4197.948717,4216.923076,4480.000000,4202.564102,4632.307692,3979.487180,4026.666666
220,4448.205128,4521.025641,4521.025641,4310.256410,4506.666666,4185.128205,4441.538461,4202.564102,4218.974358,4485.641025,4204.102564,4638.974358,3970.769231,4029.230769
221,4456.410256,4524.102564,4526.666666,4312.307692,4506.666666,4185.128205,4446.153846,4206.666666,4231.282051,4490.769230,4200.000000,4646.666666,3980.000000,4038.461538
222,4448.717948,4525.128205,4522.051282,4311.794871,4506.153846,4187.179487,4441.538461,4204.615384,4232.820512,4492.307692,4202.051282,4641.025641,3988.205129,4035.384615
223,4444.102564,4524.102564,4521.025641,4307.692307,4506.666666,4186.153846,4439.487179,4197.435897,4225.641025,4496.923076,4205.641025,4638.461538,3986.153847,4031.282051
224,4457.948717,4528.205128,4531.282051,4310.769230,4509.230769,4187.179487,4444.102564,4205.641025,4231.282051,4510.256410,4214.871794,4648.205128,3988.205129,4045.128205
225,4466.666666,4529.230769,4535.897435,4314.871794,4509.743589,4192.307692,4446.666666,4219.487179,4242.051282,4512.820512,4223.076923,4649.743589,3994.871795,4049.230769
226,4455.384615,4523.076923,4527.179487,4309.743589,4506.666666,4190.769230,4444.102564,4213.846153,4237.948717,4497.948717,4208.717948,4640.512820,3993.333334,4034.871794
227,4447.179487,4520.000000,4521.538461,4305.641025,4506.666666,4187.179487,4445.641025,4204.102564,4232.820512,4490.769230,4189.230769,4634.358974,3991.794872,4030.256410
228,4454.358974,4522.051282,4526.666666,4309.743589,4512.820512,4193.333333,4450.769230,4208.205128,4233.846153,4497.435897,4195.384615,4635.897435,3996.923077,4034.871794
229,4460.000000,4522.564102,4530.769230,4310.769230,4513.846153,4194.358974,4447.692307,4209.743589,4226.153846,4497.435897,4210.256410,4638.461538,3999.487180,4030.769230
230,4450.769230,4521.025641,4525.128205,4309.743589,4507.692307,4185.128205,4438.974358,4198.461538,4218.974358,4488.717948,4207.179487,4636.410256,3997.435898,4027.692307
231,4450.769230,4520.000000,4525.641025,4312.820512,4505.128205,4184.102564,4440.000000,4194.871794,4225.128205,4489.743589,4196.923076,4637.948717,4004.615384,4034.871794
232,4460.512820,4523.589743,4533.333333,4315.384615,4509.230769,4190.769230,4445.641025,4204.615384,4236.410256,4500.000000,4204.102564,4644.102564,4013.846153,4043.589743
233,4461.538461,4527.692307,4533.333333,4316.410256,4512.820512,4191.794871,4443.076923,4210.769230,4240.512820,4506.153846,4216.923076,4645.641025,4011.794871,4042.564102
234,4467.692307,4527.179487,4531.794871,4317.948717,4512.307692,4189.743589,4439.487179,4207.692307,4240.000000,4503.589743,4217.948717,4642.564102,4005.641025,4038.461538
235,4478.461538,4522.564102,4532.820512,4318.974358,4509.743589,4188.205128,4441.025641,4206.666666,4234.871794,4498.461538,4205.128205,4638.974358,3997.948718,4037.435897
236,4475.384615,4520.000000,4531.282051,4317.948717,4507.692307,4187.692307,4443.076923,4212.307692,4230.769230,4496.410256,4196.410256,4637.435897,3991.282052,4036.923076
237,4464.615384,4520.512820,4530.256410,4316.923076,4507.179487,4186.153846,4444.102564,4217.948717,4231.282051,4494.358974,4201.025641,4636.410256,3994.358975,4035.384615
238,4459.487179,4519.487179,4529.743589,4313.846153,4506.666666,4183.589743,4444.615384,4214.871794,4234.358974,4490.769230,4203.076923,4635.384615,3991.282052,4032.820512
239,4457.435897,4518.461538,4522.564102,4309.743589,4507.179487,4185.641025,4444.102564,4204.102564,4231.282051,4490.256410,4194.358974,4630.256410,3973.846154,4026.666666
240,4454.871794,4524.102564,4515.897435,4313.333333,4507.692307,4188.205128,4443.076923,4197.948717,4223.076923,4492.307692,4189.743589,4623.589743,3969.230770,4022.051282
241,4448.717948,4522.564102,4518.974358,4316.923076,4507.692307,4185.641025,4441.025641,4197.435897,4219.487179,4486.153846,4191.794871,4622.564102,3981.538462,4024.102564
242,4447.179487,4513.846153,4522.564102,4313.846153,4508.717948,4185.128205,4441.538461,4200.000000,4222.564102,4478.974358,4195.384615,4627.179487,3980.512821,4026.153846
243,4455.384615,4517.948717,4524.102564,4315.384615,4508.205128,4186.666666,4445.128205,4205.641025,4226.666666,4487.179487,4203.076923,4631.282051,3972.307693,4027.179487
244,4456.923076,4523.589743,4527.179487,4320.000000,4507.179487,4185.128205,4443.589743,4210.256410,4231.794871,4498.461538,4207.179487,4632.307692,3976.410257,4030.769230
245,4447.179487,4512.307692,4531.794871,4315.384615,4506.153846,4183.589743,4437.435897,4206.153846,4234.871794,4495.384615,4196.923076,4630.256410,3983.589744,4027.692307
246,4439.487179,4503.589743,4528.205128,4307.692307,4504.615384,4182.051282,4437.435897,4198.974358,4229.230769,4488.205128,4184.615384,4627.179487,3984.102565,4020.000000
247,4446.666666,4504.615384,4518.974358,4309.230769,4503.076923,4181.025641,4443.076923,4199.487179,4220.000000,4485.128205,4184.615384,4625.128205,3979.487180,4018.461538
248,4461.538461,4509.743589,4522.051282,4319.487179,4504.102564,4183.076923,4443.589743,4202.564102,4222.564102,4479.487179,4194.358974,4630.256410,3972.307693,4023.076923
249,4463.076923,4512.820512,4526.153846,4318.974358,4505.128205,4183.589743,4440.512820,4200.512820,4225.641025,4473.333333,4202.564102,4633.333333,3969.230770,4023.589743
250,4455.897435,4512.307692,4521.538461,4313.846153,4505.641025,4178.974358,4442.051282,4200.000000,4224.102564,4476.923076,4200.000000,4629.743589,3976.923077,4023.589743
251,4455.384615,4511.282051,4523.076923,4319.487179,4506.666666,4180.512820,4443.076923,4207.692307,4230.256410,4492.307692,4197.948717,4631.282051,3987.692308,4027.692307
252,4453.846153,4512.307692,4527.692307,4321.025641,4506.666666,4185.128205,4441.538461,4209.230769,4236.410256,4499.487179,4204.615384,4633.846153,3993.846154,4028.205128
253,4446.153846,4514.358974,4523.589743,4316.923076,4506.153846,4183.589743,4442.051282,4205.641025,4236.410256,4494.871794,4205.128205,4631.282051,3993.846154,4024.102564
254,4443.589743,4517.948717,4526.153846,4326.666666,4506.153846,4181.025641,4445.641025,4214.358974,4240.000000,4497.435897,4202.051282,4633.333333,3987.692308,4026.666666
255,4448.205128,4522.051282,4534.871794,4332.820512,4506.153846,4183.589743,4446.666666,4221.538461,4241.025641,4504.102564,4204.615384,4637.948717,3983.589744,4031.794871
256,4449.230769,4523.076923,4530.256410,4324.102564,4506.153846,4184.615384,4445.128205,4217.435897,4238.974358,4502.564102,4203.076923,4635.897435,3990.769231,4030.769230
257,4445.128205,4517.435897,4529.230769,4324.102564,4506.666666,4181.025641,4443.589743,4216.410256,4238.461538,4496.410256,4196.410256,4634.358974,4000.000000,4030.256410
258,4447.692307,4513.846153,4533.846153,4329.743589,4505.641025,4180.000000,4443.589743,4217.948717,4235.897435,4490.769230,4203.589743,4638.974358,3995.897436,4034.358974
259,4458.461538,4518.974358,4533.333333,4327.692307,4505.128205,4183.589743,4446.153846,4215.897435,4234.358974,4491.794871,4214.871794,4641.538461,3986.153847,4032.820512
