,AF3,F7,F3,FC5,T7,P7,O1,O2,P8,T8,FC6,F4,F8,AF4
0,4408.717948,4566.666666,4560.512820,4310.256410,4522.564102,4247.692307,4490.769230,4257.948717,4260.512820,4526.153846,4240.000000,4677.948717,4011.794871,4080.512820
1,4410.769230,4568.205128,4561.538461,4305.128205,4519.487179,4248.717948,4491.282051,4259.487179,4262.051282,4523.589743,4246.666666,4681.538461,4014.358974,4082.564102
2,4426.153846,4574.358974,4570.256410,4308.717948,4521.538461,4257.435897,4492.820512,4267.692307,4273.333333,4539.487179,4260.512820,4693.846153,4037.435897,4094.871794
3,4424.615384,4573.333333,4570.769230,4314.358974,4522.564102,4250.769230,4489.743589,4265.128205,4272.307692,4547.179487,4256.923076,4690.769230,4045.128205,4097.435897
4,4416.410256,4569.743589,4569.230769,4315.897435,4521.025641,4243.589743,4488.205128,4262.564102,4272.820512,4548.717948,4253.846153,4688.205128,4039.487179,4098.461538
5,4423.076923,4571.282051,4574.871794,4314.871794,4523.589743,4249.743589,4492.307692,4272.820512,4281.025641,4557.948717,4265.641025,4700.000000,4042.051282,4105.128205
6,4427.692307,4576.410256,4576.410256,4314.871794,4524.615384,4252.820512,4495.384615,4281.538461,4283.589743,4556.410256,4268.205128,4706.153846,4045.128205,4104.615384
7,4417.435897,4575.897435,4568.717948,4315.897435,4515.384615,4243.076923,4492.307692,4274.358974,4280.512820,4543.589743,4253.333333,4695.384615,4037.948717,4095.897435
8,4411.794871,4569.743589,4566.666666,4313.333333,4510.769230,4237.948717,4487.692307,4263.589743,4271.794871,4537.435897,4240.000000,4684.102564,4031.282051,4089.743589
9,4414.871794,4568.717948,4569.230769,4310.256410,4518.974358,4241.025641,4487.179487,4258.974358,4263.076923,4534.358974,4242.564102,4684.102564,4028.717948,4090.256410
10,4414.871794,4569.743589,4567.692307,4305.128205,4521.538461,4242.051282,4486.666666,4254.871794,4266.666666,4534.358974,4251.794871,4688.205128,4025.128205,4093.333333
11,4414.358974,4569.230769,4566.153846,4303.076923,4513.846153,4238.461538,4480.512820,4254.871794,4273.846153,4540.512820,4252.307692,4688.205128,4024.615384,4090.769230
12,4411.282051,4567.692307,4566.666666,4307.692307,4506.666666,4235.384615,4478.461538,4258.461538,4271.282051,4541.025641,4244.615384,4682.564102,4026.153846,4085.641025
13,4409.230769,4566.666666,4563.589743,4311.282051,4509.743589,4236.923076,4486.666666,4261.025641,4272.307692,4539.487179,4242.051282,4677.948717,4023.589743,4086.153846
14,4409.743589,4568.205128,4561.025641,4313.846153,4514.871794,4244.615384,4493.846153,4266.666666,4280.000000,4544.615384,4249.743589,4678.974358,4024.615384,4089.230769
15,4412.307692,4574.358974,4566.153846,4320.512820,4515.384615,4253.333333,4493.846153,4273.846153,4284.102564,4547.179487,4254.871794,4685.641025,4038.461538,4092.307692
16,4417.948717,4576.923076,4570.769230,4318.461538,4520.000000,4252.820512,4493.846153,4276.410256,4288.717948,4546.666666,4253.846153,4691.282051,4043.589743,4094.358974
17,4419.487179,4571.282051,4570.256410,4309.230769,4520.000000,4246.666666,4494.358974,4271.282051,4286.153846,4548.717948,4255.897435,4688.205128,4032.820512,4093.333333
18,4410.769230,4561.538461,4563.589743,4309.230769,4512.820512,4237.948717,4487.179487,4256.923076,4272.820512,4542.564102,4251.282051,4680.512820,4024.615384,4084.102564
19,4398.461538,4551.794871,4556.410256,4308.717948,4513.333333,4228.205128,4474.871794,4242.564102,4261.538461,4529.230769,4232.307692,4671.282051,4021.538461,4074.358974
20,4398.974358,4551.282051,4555.897435,4302.564102,4519.487179,4230.769230,4470.769230,4245.128205,4263.076923,4525.641025,4227.179487,4672.307692,4021.025641,4075.897435
21,4407.692307,4563.076923,4559.487179,4303.589743,4514.871794,4234.358974,4479.487179,4255.384615,4269.230769,4530.256410,4241.538461,4678.461538,4025.128205,4082.564102
22,4409.743589,4562.051282,4560.512820,4302.051282,4512.820512,4232.307692,4488.717948,4258.974358,4273.846153,4535.384615,4244.102564,4675.897435,4022.051282,4084.102564
23,4410.256410,4558.974358,4564.102564,4296.410256,4523.589743,4238.461538,4492.307692,4263.076923,4278.461538,4539.487179,4235.897435,4674.358974,4016.923076,4084.615384
24,4412.307692,4569.230769,4569.743589,4302.051282,4532.820512,4247.692307,4493.846153,4267.692307,4279.487179,4538.461538,4234.871794,4680.000000,4022.051282,4088.717948
25,4412.307692,4573.333333,4568.717948,4311.282051,4538.974358,4248.205128,4493.333333,4268.205128,4274.358974,4536.410256,4243.076923,4684.615384,4025.641025,4090.769230
26,4416.923076,4572.307692,4567.692307,4310.256410,4543.076923,4246.666666,4494.871794,4266.666666,4271.794871,4541.025641,4253.846153,4686.666666,4025.128205,4094.871794
27,4422.564102,4580.000000,4572.307692,4312.820512,4540.000000,4247.692307,4495.897435,4268.717948,4276.923076,4545.641025,4256.410256,4691.794871,4027.179487,4102.051282
28,4421.538461,4580.512820,4575.384615,4321.025641,4539.487179,4249.230769,4495.897435,4270.769230,4281.538461,4541.538461,4252.307692,4694.871794,4030.769230,4103.076923
29,4415.384615,4567.692307,4571.282051,4310.256410,4544.102564,4246.666666,4492.820512,4265.128205,4275.897435,4533.846153,4244.102564,4687.179487,4028.205128,4095.384615
30,4411.282051,4563.076923,4565.641025,4295.897435,4542.564102,4236.923076,4488.205128,4257.435897,4270.256410,4531.794871,4235.897435,4680.512820,4020.512820,4088.205128
31,4414.871794,4571.282051,4572.820512,4303.076923,4540.512820,4238.461538,4494.358974,4266.666666,4283.589743,4542.051282,4239.487179,4690.256410,4025.641025,4095.897435
32,4426.153846,4580.000000,4586.153846,4318.974358,4544.102564,4251.794871,4506.153846,4284.102564,4305.128205,4558.461538,4251.282051,4706.153846,4045.641025,4108.205128
33,4432.820512,4583.589743,4590.256410,4325.128205,4546.666666,4253.846153,4510.769230,4288.205128,4306.153846,4564.102564,4253.333333,4710.256410,4050.256410,4112.820512
34,4430.256410,4583.589743,4587.179487,4323.076923,4552.820512,4253.846153,4509.230769,4284.615384,4293.846153,4564.102564,4255.384615,4707.179487,4039.487179,4113.333333
35,4429.230769,4585.128205,4587.179487,4322.564102,4556.923076,4255.384615,4509.743589,4284.615384,4291.794871,4560.512820,4262.051282,4706.153846,4040.000000,4115.897435
36,4431.794871,4580.512820,4583.076923,4316.410256,4552.307692,4251.282051,4510.256410,4279.487179,4287.179487,4550.256410,4256.923076,4703.076923,4046.666666,4108.205128
37,4423.076923,4569.230769,4573.333333,4301.025641,4547.179487,4243.076923,4503.076923,4269.743589,4276.410256,4542.051282,4243.076923,4696.923076,4041.025641,4096.410256
38,4413.333333,4565.641025,4568.205128,4298.974358,4546.153846,4237.948717,4493.846153,4265.641025,4276.923076,4542.051282,4238.974358,4691.282051,4037.435897,4094.871794
39,4415.897435,4570.256410,4568.717948,4310.256410,4543.589743,4238.461538,4490.769230,4262.051282,4281.025641,4547.692307,4241.025641,4688.205128,4041.538461,4095.897435
40,4420.000000,4574.871794,4569.743589,4314.871794,4543.589743,4241.025641,4492.820512,4261.538461,4281.538461,4549.230769,4242.564102,4688.717948,4037.435897,4094.358974
41,4413.846153,4574.358974,4569.230769,4309.743589,4542.564102,4238.461538,4494.871794,4265.641025,4281.538461,4546.666666,4237.435897,4689.230769,4029.743589,4092.820512
42,4408.717948,4570.769230,4566.666666,4305.641025,4535.897435,4235.897435,4493.846153,4264.615384,4278.461538,4543.589743,4228.205128,4685.641025,4034.871794,4091.282051
43,4411.282051,4570.256410,4564.615384,4304.102564,4537.435897,4236.923076,4492.307692,4262.051282,4276.410256,4541.025641,4231.282051,4681.025641,4041.538461,4088.717948
44,4413.846153,4571.794871,4565.641025,4306.666666,4539.487179,4238.974358,4498.974358,4264.615384,4280.512820,4540.512820,4239.487179,4683.589743,4036.923076,4088.717948
45,4412.820512,4569.743589,4568.205128,4310.256410,4535.897435,4241.025641,4504.615384,4268.205128,4282.051282,4544.615384,4237.435897,4689.230769,4036.410256,4091.282051
46,4414.358974,4568.717948,4567.692307,4305.641025,4537.435897,4239.487179,4494.358974,4264.102564,4276.923076,4544.615384,4231.282051,4687.179487,4040.512820,4095.897435
47,4420.512820,4572.820512,4569.230769,4308.717948,4541.025641,4236.923076,4489.743589,4265.128205,4277.435897,4542.051282,4236.410256,4688.205128,4045.641025,4098.974358
48,4423.589743,4571.282051,4575.897435,4312.820512,4541.025641,4238.461538,4502.051282,4273.846153,4285.128205,4553.846153,4245.641025,4697.948717,4051.794871,4099.487179
49,4424.102564,4569.743589,4581.025641,4302.051282,4541.025641,4242.051282,4507.179487,4279.487179,4287.692307,4561.538461,4246.666666,4704.102564,4054.871794,4104.102564
50,4423.076923,4575.384615,4584.102564,4299.487179,4541.538461,4243.076923,4504.102564,4277.435897,4282.564102,4548.205128,4245.128205,4698.461538,4047.179487,4105.128205
51,4417.948717,4577.948717,4584.102564,4312.820512,4537.948717,4243.076923,4506.153846,4273.846153,4282.051282,4541.025641,4245.128205,4692.820512,4040.512820,4097.435897
52,4413.333333,4572.820512,4576.923076,4312.820512,4537.435897,4242.051282,4506.666666,4273.846153,4287.179487,4549.743589,4242.564102,4695.384615,4047.692307,4096.923076
53,4416.410256,4568.717948,4573.846153,4301.025641,4536.410256,4240.000000,4502.564102,4269.230769,4284.615384,4551.282051,4237.948717,4696.410256,4053.333333,4102.564102
54,4422.564102,4571.282051,4578.974358,4307.179487,4533.846153,4241.025641,4504.615384,4266.153846,4280.000000,4548.205128,4240.000000,4693.846153,4051.282051,4102.051282
55,4421.538461,4569.230769,4576.410256,4312.820512,4532.820512,4242.564102,4508.205128,4266.666666,4278.974358,4550.256410,4243.589743,4691.794871,4046.666666,4097.948717
56,4413.333333,4562.564102,4565.128205,4297.948717,4531.794871,4238.974358,4502.051282,4263.589743,4273.333333,4546.153846,4237.435897,4684.615384,4034.871794,4090.769230
57,4408.717948,4563.589743,4564.102564,4290.769230,4532.307692,4233.846153,4498.974358,4263.076923,4271.794871,4534.871794,4228.717948,4675.897435,4021.538461,4084.615384
58,4413.333333,4567.692307,4569.743589,4303.589743,4532.307692,4234.871794,4500.000000,4267.692307,4280.512820,4535.897435,4228.205128,4680.000000,4026.153846,4088.205128
59,4415.897435,4568.205128,4569.743589,4311.794871,4533.333333,4240.000000,4495.897435,4270.256410,4285.128205,4547.692307,4232.820512,4684.615384,4041.538461,4094.358974
60,4418.461538,4569.743589,4569.743589,4306.153846,4533.846153,4242.564102,4496.410256,4269.743589,4280.000000,4549.743589,4237.435897,4681.025641,4045.128205,4094.871794
61,4425.128205,4576.410256,4570.769230,4307.692307,4531.282051,4242.564102,4506.666666,4272.820512,4280.512820,4544.102564,4240.000000,4683.589743,4042.564102,4095.897435
62,4423.589743,4576.410256,4570.256410,4315.384615,4524.615384,4241.538461,4509.743589,4275.384615,4284.615384,4543.076923,4235.384615,4686.666666,4043.076923,4096.410256
63,4414.871794,4565.128205,4567.692307,4306.153846,4521.025641,4238.461538,4501.025641,4271.794871,4282.051282,4540.512820,4230.769230,4680.000000,4038.974358,4087.179487
64,4410.769230,4560.512820,4561.025641,4292.820512,4524.102564,4234.358974,4492.307692,4267.179487,4277.435897,4531.794871,4230.769230,4672.307692,4027.692307,4076.410256
65,4413.846153,4564.102564,4561.025641,4296.923076,4526.666666,4236.923076,4494.871794,4266.153846,4278.461538,4532.820512,4229.230769,4674.871794,4030.256410,4081.538461
66,4414.871794,4562.051282,4568.717948,4303.589743,4526.666666,4243.076923,4504.102564,4271.794871,4285.641025,4545.641025,4230.256410,4682.564102,4053.846153,4094.358974
67,4412.307692,4558.461538,4571.282051,4300.000000,4522.051282,4242.564102,4506.666666,4275.384615,4290.769230,4550.256410,4235.384615,4684.102564,4065.641025,4095.384615
68,4411.282051,4563.589743,4569.230769,4297.948717,4521.025641,4242.564102,4505.128205,4270.256410,4284.615384,4544.615384,4236.923076,4681.025641,4054.871794,4089.230769
69,4412.820512,4568.717948,4569.743589,4301.025641,4525.641025,4241.025641,4502.564102,4265.128205,4275.897435,4542.051282,4235.897435,4680.000000,4041.538461,4088.205128
70,4414.871794,4567.692307,4571.282051,4301.025641,4527.692307,4232.307692,4492.820512,4264.102564,4275.384615,4541.538461,4233.333333,4682.051282,4034.871794,4087.179487
71,4410.769230,4562.051282,4566.666666,4299.487179,4526.153846,4232.307692,4489.230769,4259.487179,4273.846153,4535.897435,4224.615384,4678.461538,4032.307692,4082.051282
72,4402.051282,4552.820512,4556.923076,4300.000000,4523.589743,4235.897435,4490.769230,4254.358974,4267.179487,4532.820512,4217.948717,4674.358974,4036.923076,4075.897435
73,4404.102564,4555.384615,4556.410256,4302.051282,4523.589743,4235.897435,4489.743589,4257.948717,4269.743589,4538.974358,4226.666666,4677.948717,4042.564102,4075.384615
74,4414.358974,4568.717948,4565.641025,4304.615384,4524.102564,4236.923076,4492.307692,4261.538461,4280.512820,4542.051282,4235.384615,4685.128205,4043.589743,4082.051282
75,4415.384615,4573.333333,4571.282051,4310.769230,4523.589743,4236.410256,4493.333333,4254.871794,4282.564102,4536.923076,4229.743589,4686.666666,4045.128205,4086.666666
76,4410.256410,4567.179487,4567.179487,4311.282051,4517.435897,4233.333333,4489.230769,4249.743589,4277.948717,4538.461538,4226.666666,4684.615384,4046.153846,4086.153846
77,4411.794871,4563.589743,4565.641025,4302.564102,4512.307692,4232.307692,4488.717948,4255.897435,4276.410256,4544.615384,4235.897435,4684.102564,4045.128205,4085.641025
78,4410.256410,4562.564102,4566.666666,4300.512820,4516.410256,4230.769230,4490.769230,4261.538461,4275.897435,4535.897435,4236.923076,4681.538461,4043.589743,4081.025641
79,4408.205128,4558.461538,4566.153846,4304.615384,4519.487179,4229.230769,4488.205128,4257.435897,4277.435897,4526.153846,4229.743589,4681.025641,4040.000000,4081.025641
80,4419.487179,4560.512820,4567.692307,4306.153846,4516.410256,4231.282051,4487.179487,4256.923076,4285.128205,4542.051282,4235.897435,4685.641025,4042.051282,4089.230769
81,4426.153846,4567.692307,4570.256410,4307.179487,4517.435897,4233.846153,4490.769230,4261.025641,4289.230769,4556.923076,4247.179487,4688.205128,4049.743589,4092.307692
82,4416.923076,4567.692307,4566.153846,4305.128205,4523.589743,4232.820512,4487.179487,4255.384615,4275.897435,4538.974358,4237.435897,4681.538461,4048.717948,4086.666666
83,4407.692307,4562.564102,4556.410256,4298.461538,4519.487179,4230.256410,4479.487179,4243.076923,4260.512820,4524.102564,4217.948717,4672.820512,4033.846153,4080.000000
84,4410.769230,4561.538461,4558.461538,4295.384615,4511.282051,4232.307692,4482.051282,4247.692307,4265.128205,4537.435897,4222.564102,4674.358974,4025.641025,4081.025641
85,4418.974358,4565.128205,4569.230769,4304.102564,4513.846153,4236.923076,4486.666666,4257.948717,4276.410256,4544.102564,4241.025641,4685.641025,4032.307692,4088.205128
86,4419.487179,4566.666666,4571.282051,4311.282051,4516.410256,4232.307692,4476.923076,4252.307692,4274.871794,4533.846153,4242.564102,4690.256410,4039.487179,4089.743589
87,4407.692307,4559.487179,4562.564102,4305.128205,4510.256410,4224.615384,4473.846153,4246.153846,4274.871794,4535.897435,4233.846153,4683.589743,4036.410256,4083.076923
88,4403.076923,4550.769230,4557.435897,4300.512820,4509.230769,4228.717948,4489.743589,4253.846153,4283.076923,4550.256410,4232.820512,4680.512820,4032.307692,4084.102564
89,4410.769230,4555.897435,4560.512820,4307.179487,4513.846153,4231.794871,4491.282051,4259.487179,4280.512820,4548.205128,4231.794871,4683.589743,4032.820512,4087.179487
90,4405.128205,4559.487179,4561.025641,4302.564102,4515.384615,4226.153846,4475.384615,4247.179487,4263.589743,4527.179487,4220.512820,4678.974358,4024.615384,4082.564102
91,4393.846153,4554.871794,4555.897435,4290.256410,4513.846153,4225.641025,4471.794871,4240.000000,4255.897435,4515.384615,4211.282051,4671.794871,4011.282051,4078.461538
92,4396.923076,4554.871794,4554.358974,4294.358974,4512.307692,4231.282051,4478.974358,4247.692307,4264.102564,4521.538461,4215.897435,4671.282051,4009.230769,4076.923076
93,4397.948717,4555.897435,4556.410256,4302.051282,4515.897435,4232.307692,4478.461538,4248.717948,4270.256410,4523.589743,4222.564102,4673.846153,4014.358974,4074.358974
94,4390.256410,4555.897435,4553.846153,4300.512820,4518.461538,4230.256410,4475.897435,4241.538461,4267.179487,4521.025641,4219.487179,4670.256410,4014.871794,4071.794871
95,4384.615384,4554.358974,4547.179487,4293.846153,4512.820512,4223.076923,4475.384615,4241.025641,4264.102564,4529.743589,4217.435897,4666.153846,4009.230769,4068.717948
96,4385.641025,4554.871794,4542.051282,4287.179487,4501.538461,4215.897435,4472.307692,4245.128205,4267.179487,4537.948717,4226.153846,4666.153846,4008.205128,4068.717948
97,4388.717948,4555.384615,4539.487179,4288.205128,4495.897435,4216.923076,4470.769230,4242.051282,4271.282051,4532.307692,4229.743589,4664.102564,4010.256410,4072.820512
98,4389.230769,4552.307692,4540.512820,4291.282051,4498.461538,4217.948717,4471.282051,4236.923076,4264.615384,4523.589743,4216.923076,4659.487179,4005.641025,4067.692307
99,4387.692307,4551.282051,4537.435897,4291.282051,4504.615384,4216.410256,4475.384615,4237.948717,4254.358974,4518.461538,4203.076923,4658.974358,3998.461539,4058.461538
100,4389.230769,4555.384615,4537.948717,4294.358974,4498.461538,4218.974358,4474.871794,4236.923076,4255.384615,4516.410256,4206.153846,4663.076923,3996.410257,4062.051282
101,4392.307692,4552.307692,4542.564102,4293.846153,4487.179487,4216.923076,4465.128205,4232.820512,4260.000000,4517.948717,4219.487179,4664.102564,3993.846154,4066.666666
102,4391.282051,4541.025641,4542.051282,4284.615384,4491.794871,4209.230769,4458.974358,4233.333333,4253.333333,4517.435897,4222.564102,4666.153846,3992.307693,4063.076923
103,4388.205128,4537.948717,4538.461538,4283.076923,4495.897435,4208.205128,4461.025641,4232.820512,4245.641025,4509.230769,4214.871794,4668.717948,3998.974359,4061.538461
104,4386.666666,4541.538461,4538.461538,4283.589743,4488.717948,4214.358974,4461.538461,4229.743589,4245.641025,4503.589743,4207.692307,4665.128205,4000.512820,4064.102564
105,4390.256410,4543.076923,4541.538461,4281.025641,4488.717948,4216.923076,4463.076923,4231.794871,4250.256410,4511.794871,4210.769230,4665.128205,3999.487180,4065.128205
106,4391.794871,4541.538461,4542.051282,4286.153846,4497.435897,4215.384615,4465.641025,4234.871794,4255.384615,4520.000000,4215.897435,4668.717948,4001.025641,4065.128205
107,4382.564102,4537.435897,4537.435897,4285.128205,4498.974358,4214.871794,4462.051282,4228.717948,4252.820512,4510.769230,4210.769230,4662.564102,3993.333334,4060.512820
108,4383.076923,4543.076923,4536.923076,4282.051282,4492.307692,4216.410256,4463.589743,4223.076923,4249.743589,4504.102564,4206.153846,4656.410256,3988.717949,4054.871794
109,4394.871794,4553.333333,4540.512820,4293.333333,4490.769230,4216.923076,4472.307692,4227.692307,4252.820512,4513.846153,4208.717948,4661.538461,3995.897436,4058.974358
110,4393.846153,4556.923076,4542.564102,4303.076923,4491.794871,4215.897435,4469.743589,4232.307692,4253.846153,4517.435897,4204.615384,4663.589743,3998.461539,4063.589743
111,4386.666666,4553.333333,4538.974358,4291.794871,4490.769230,4215.897435,4462.051282,4232.820512,4254.358974,4513.846153,4204.102564,4660.512820,3996.410257,4061.025641
112,4386.666666,4544.102564,4534.871794,4281.025641,4491.282051,4212.820512,4460.512820,4228.717948,4253.846153,4511.282051,4208.205128,4656.410256,3998.461539,4055.897435
113,4388.717948,4543.076923,4536.923076,4287.179487,4491.794871,4208.205128,4460.000000,4225.641025,4247.179487,4510.256410,4206.666666,4650.256410,3992.307693,4052.820512
114,4390.769230,4550.769230,4541.025641,4297.435897,4490.256410,4213.846153,4460.000000,4228.717948,4245.641025,4511.794871,4211.282051,4652.307692,3983.589744,4055.384615
115,4391.794871,4549.743589,4540.512820,4297.435897,4490.256410,4220.000000,4462.051282,4226.666666,4244.102564,4509.743589,4218.461538,4656.410256,3986.153847,4059.487179
116,4385.128205,4540.000000,4537.435897,4290.769230,4491.282051,4215.897435,4460.000000,4222.051282,4237.948717,4501.538461,4209.743589,4655.897435,3995.384616,4058.974358
117,4385.128205,4537.435897,4539.487179,4289.743589,4490.769230,4213.333333,4459.487179,4227.179487,4242.564102,4504.102564,4208.205128,4661.025641,4002.051282,4057.948717
118,4390.769230,4543.076923,4538.974358,4287.692307,4491.794871,4216.923076,4462.564102,4235.384615,4255.384615,4515.384615,4221.538461,4668.205128,4002.564102,4063.589743
119,4388.717948,4549.743589,4541.025641,4286.666666,4492.820512,4215.897435,4462.051282,4237.435897,4258.974358,4520.000000,4223.076923,4669.230769,4005.128205,4070.256410
120,4387.179487,4554.871794,4548.717948,4296.410256,4490.769230,4214.358974,4460.512820,4238.974358,4258.461538,4525.641025,4220.512820,4671.282051,4012.307692,4072.307692
121,4391.794871,4552.820512,4544.615384,4298.461538,4490.256410,4216.410256,4460.512820,4235.897435,4258.974358,4526.666666,4223.589743,4672.307692,4010.256410,4069.230769
122,4394.871794,4547.692307,4540.000000,4293.846153,4491.794871,4213.333333,4459.487179,4231.794871,4256.410256,4519.487179,4220.512820,4667.179487,3998.974359,4066.153846
123,4396.923076,4548.717948,4547.179487,4295.897435,4490.256410,4209.230769,4462.564102,4233.846153,4251.794871,4518.461538,4223.076923,4670.256410,3995.897436,4071.282051
124,4397.435897,4550.769230,4551.794871,4294.358974,4489.230769,4213.333333,4465.641025,4231.794871,4247.692307,4518.461538,4229.743589,4676.410256,4000.000000,4075.384615
125,4393.333333,4548.205128,4548.717948,4288.205128,4489.230769,4215.384615,4461.538461,4229.230769,4246.153846,4510.769230,4222.051282,4670.769230,3994.871795,4070.769230
126,4395.897435,4548.717948,4550.256410,4294.358974,4490.256410,4216.410256,4464.102564,4230.769230,4249.230769,4510.769230,4215.897435,4667.179487,3987.692308,4066.666666
127,4408.717948,4555.897435,4555.384615,4305.128205,4494.358974,4220.000000,4474.871794,4231.794871,4255.384615,4523.076923,4223.076923,4675.384615,3994.358975,4073.846153
128,4406.666666,4556.410256,4556.410256,4301.025641,4496.923076,4224.102564,4477.948717,4234.358974,4259.487179,4528.205128,4230.256410,4678.974358,3999.487180,4079.487179
129,4392.307692,4550.256410,4554.358974,4296.923076,4491.282051,4224.102564,4471.282051,4238.461538,4257.435897,4521.538461,4227.692307,4672.820512,3987.692308,4073.846153
130,4392.307692,4550.256410,4553.333333,4298.974358,4486.666666,4221.538461,4471.282051,4237.435897,4253.846153,4512.307692,4222.051282,4669.230769,3983.589744,4071.794871
131,4400.000000,4562.051282,4550.256410,4297.948717,4495.384615,4221.538461,4473.333333,4233.333333,4250.256410,4513.333333,4214.358974,4669.743589,3993.846154,4077.948717
132,4397.435897,4569.743589,4546.666666,4298.461538,4501.538461,4221.538461,4463.589743,4230.256410,4246.666666,4515.897435,4213.846153,4665.128205,3989.230770,4076.410256
133,4395.384615,4563.076923,4547.179487,4307.692307,4495.897435,4218.461538,4460.000000,4230.769230,4248.205128,4511.794871,4219.487179,4661.025641,3976.923077,4069.230769
134,4396.410256,4557.948717,4546.153846,4309.743589,4493.333333,4216.410256,4467.179487,4233.333333,4253.333333,4512.307692,4218.974358,4662.564102,3981.025642,4068.717948
135,4388.717948,4557.435897,4539.487179,4298.461538,4494.871794,4217.435897,4466.666666,4233.846153,4253.846153,4518.974358,4213.333333,4664.102564,3988.717949,4070.256410
136,4384.102564,4552.307692,4537.435897,4293.846153,4498.461538,4220.000000,4464.615384,4236.923076,4254.358974,4518.974358,4210.769230,4660.512820,3984.615385,4067.692307
137,4389.743589,4552.820512,4540.512820,4294.358974,4507.179487,4225.128205,4472.307692,4243.589743,4256.923076,4517.435897,4217.948717,4657.435897,3984.102565,4069.230769
138,4390.769230,4561.538461,4541.538461,4291.794871,4512.307692,4232.307692,4475.897435,4248.717948,4263.076923,4523.589743,4225.641025,4664.102564,3991.794872,4073.333333
139,4389.743589,4564.615384,4547.692307,4293.333333,4506.666666,4232.820512,4480.000000,4252.820512,4271.794871,4526.666666,4226.666666,4671.794871,3993.846154,4076.923076
140,4395.384615,4561.538461,4555.897435,4300.512820,4505.641025,4232.820512,4488.717948,4253.846153,4273.333333,4521.538461,4222.564102,4674.871794,3994.358975,4080.512820
141,4392.820512,4556.923076,4551.794871,4299.487179,4513.846153,4231.282051,4481.538461,4249.743589,4264.615384,4515.384615,4217.435897,4674.871794,3994.871795,4078.461538
142,4388.717948,4550.256410,4545.641025,4288.717948,4519.487179,4228.717948,4475.384615,4248.717948,4258.974358,4516.410256,4214.871794,4672.820512,3989.230770,4072.820512
143,4394.871794,4552.307692,4550.256410,4292.307692,4522.051282,4232.820512,4486.666666,4253.846153,4265.641025,4525.128205,4216.923076,4675.897435,3991.794872,4076.923076
144,4398.461538,4558.974358,4556.410256,4295.384615,4521.025641,4236.410256,4492.307692,4257.948717,4271.282051,4525.128205,4224.102564,4678.974358,3998.974359,4082.564102
145,4392.307692,4555.897435,4551.794871,4281.025641,4520.000000,4233.333333,4487.179487,4256.923076,4267.692307,4520.000000,4225.641025,4676.923076,3994.358975,4077.948717
146,4394.871794,4552.820512,4550.769230,4282.564102,4522.564102,4232.307692,4489.743589,4258.461538,4272.820512,4526.666666,4228.717948,4681.538461,3990.769231,4080.512820
147,4403.076923,4557.948717,4556.923076,4302.564102,4523.589743,4233.846153,4492.307692,4264.102564,4283.589743,4541.025641,4231.794871,4691.794871,3996.923077,4087.179487
148,4402.051282,4556.923076,4555.384615,4303.589743,4522.564102,4230.256410,4489.230769,4259.487179,4275.897435,4536.923076,4225.128205,4687.692307,3997.948718,4081.025641
149,4397.948717,4553.846153,4551.794871,4294.358974,4523.589743,4227.692307,4488.717948,4250.256410,4262.051282,4526.153846,4220.000000,4676.923076,3992.820513,4077.435897
150,4396.923076,4557.435897,4553.846153,4293.333333,4524.102564,4228.717948,4485.641025,4247.692307,4263.589743,4527.692307,4222.051282,4677.948717,3985.128206,4082.051282
151,4397.435897,4562.051282,4555.384615,4296.410256,4524.615384,4227.692307,4480.512820,4249.230769,4267.179487,4529.743589,4225.641025,4680.512820,3981.025642,4080.000000
152,4403.589743,4564.615384,4554.871794,4301.538461,4528.205128,4229.230769,4483.076923,4251.282051,4267.692307,4526.666666,4225.641025,4677.948717,3988.717949,4080.512820
153,4410.256410,4564.615384,4554.358974,4303.076923,4528.205128,4230.769230,4488.717948,4256.410256,4271.794871,4527.179487,4224.615384,4678.461538,3995.897436,4088.717948
154,4409.743589,4566.666666,4556.410256,4301.025641,4523.589743,4231.794871,4486.666666,4253.333333,4270.256410,4531.282051,4219.487179,4680.000000,3992.820513,4086.153846
155,4404.615384,4566.153846,4556.923076,4304.615384,4522.564102,4230.769230,4481.025641,4246.666666,4262.051282,4530.769230,4213.846153,4676.410256,3987.179488,4077.948717
156,4403.589743,4560.512820,4553.846153,4303.589743,4524.102564,4227.692307,4478.461538,4248.205128,4256.923076,4525.641025,4215.384615,4670.256410,3979.487180,4078.461538
157,4406.153846,4561.538461,4553.333333,4293.333333,4526.153846,4228.205128,4475.897435,4248.205128,4255.384615,4520.512820,4220.000000,4668.717948,3973.846154,4077.435897
158,4410.256410,4569.743589,4554.871794,4293.333333,4523.589743,4230.769230,4479.487179,4246.153846,4258.974358,4522.051282,4223.589743,4670.256410,3976.923077,4075.384615
159,4410.769230,4569.743589,4553.846153,4304.102564,4526.153846,4232.820512,4484.102564,4248.717948,4265.128205,4525.128205,4218.461538,4671.282051,3979.487180,4081.025641
160,4407.692307,4562.564102,4555.384615,4304.102564,4534.358974,4230.769230,4481.025641,4249.230769,4263.589743,4522.051282,4211.282051,4672.307692,3975.897436,4082.051282
161,4403.076923,4560.512820,4554.358974,4294.358974,4531.794871,4225.128205,4476.410256,4243.589743,4255.384615,4522.051282,4214.871794,4670.256410,3971.282052,4072.307692
162,4397.435897,4556.410256,4544.615384,4292.307692,4518.974358,4224.102564,4476.923076,4242.564102,4252.307692,4522.051282,4220.000000,4666.153846,3972.307693,4067.692307
163,4395.897435,4549.743589,4542.564102,4297.435897,4518.974358,4224.102564,4475.384615,4246.666666,4256.923076,4523.076923,4211.282051,4666.666666,3975.384616,4071.282051
164,4398.461538,4553.846153,4551.794871,4292.820512,4525.641025,4223.076923,4474.358974,4249.230769,4262.564102,4525.128205,4205.641025,4668.205128,3976.410257,4071.794871
165,4408.205128,4564.615384,4556.923076,4294.358974,4522.564102,4224.615384,4487.692307,4255.384615,4264.102564,4528.205128,4222.051282,4673.846153,3983.076924,4074.871794
166,4413.333333,4563.076923,4556.923076,4306.153846,4522.564102,4227.179487,4492.820512,4256.923076,4265.128205,4532.307692,4230.769230,4680.000000,3989.743590,4080.000000
167,4400.512820,4554.358974,4552.820512,4303.076923,4525.641025,4225.128205,4478.461538,4250.769230,4268.205128,4533.333333,4221.538461,4673.846153,3984.102565,4076.410256
168,4397.435897,4560.000000,4553.846153,4297.948717,4523.076923,4224.615384,4478.461538,4248.717948,4273.333333,4535.384615,4224.102564,4672.307692,3982.051283,4073.846153
169,4413.846153,4571.794871,4565.641025,4310.769230,4523.589743,4230.256410,4491.794871,4256.923076,4276.410256,4543.589743,4232.820512,4687.179487,3992.820513,4084.615384
170,4411.794871,4565.128205,4563.076923,4310.769230,4524.615384,4227.179487,4481.538461,4253.846153,4267.692307,4538.461538,4219.487179,4684.102564,3990.256411,4086.153846
171,4390.769230,4550.256410,4539.487179,4289.743589,4519.487179,4217.435897,4462.564102,4236.410256,4253.333333,4512.820512,4201.538461,4660.000000,3971.282052,4071.794871
172,4389.230769,4553.333333,4537.948717,4293.333333,4518.974358,4219.487179,4467.179487,4234.358974,4251.794871,4512.820512,4208.205128,4661.025641,3969.230770,4065.641025
173,4403.076923,4565.641025,4557.948717,4312.307692,4520.000000,4228.717948,4478.461538,4247.692307,4262.564102,4535.897435,4222.051282,4676.410256,3987.179488,4075.897435
174,4405.641025,4565.128205,4556.410256,4303.589743,4513.846153,4226.666666,4478.461538,4247.179487,4270.256410,4535.897435,4224.615384,4672.307692,3990.769231,4082.051282
175,4396.923076,4554.871794,4539.487179,4287.692307,4511.794871,4215.384615,4471.282051,4232.820512,4263.589743,4520.000000,4216.923076,4660.512820,3976.923077,4073.333333
176,4385.641025,4547.179487,4536.410256,4289.743589,4509.230769,4206.666666,4461.025641,4226.153846,4248.717948,4515.897435,4203.076923,4653.846153,3967.692308,4063.076923
177,4381.025641,4541.025641,4534.358974,4286.666666,4501.025641,4206.666666,4457.435897,4227.179487,4240.000000,4511.794871,4194.358974,4647.179487,3962.564103,4058.974358
178,4382.051282,4537.435897,4529.230769,4275.897435,4502.051282,4210.256410,4461.025641,4230.256410,4244.102564,4504.102564,4194.358974,4648.205128,3958.974359,4058.461538
179,4382.564102,4541.538461,4531.282051,4280.000000,4506.666666,4208.205128,4463.589743,4234.358974,4250.256410,4506.666666,4195.897435,4654.358974,3962.564103,4060.000000
180,4381.025641,4540.000000,4533.333333,4290.256410,4504.615384,4202.564102,4459.487179,4232.307692,4246.666666,4513.333333,4193.846153,4650.256410,3961.025642,4057.948717
181,4384.615384,4536.923076,4532.820512,4293.333333,4505.641025,4205.641025,4458.461538,4231.282051,4246.666666,4518.461538,4197.948717,4649.230769,3954.871795,4056.923076
182,4394.871794,4547.179487,4538.461538,4296.410256,4512.307692,4212.307692,4467.179487,4234.358974,4251.282051,4524.102564,4209.230769,4662.051282,3963.589744,4064.102564
183,4396.410256,4553.333333,4542.051282,4295.897435,4511.794871,4214.358974,4471.282051,4233.333333,4248.205128,4521.025641,4214.871794,4667.692307,3969.743590,4069.743589
184,4389.743589,4549.743589,4537.435897,4294.358974,4507.179487,4216.410256,4466.153846,4232.820512,4244.615384,4510.769230,4210.256410,4663.076923,3964.102565,4067.179487
185,4390.256410,4554.358974,4538.461538,4295.384615,4506.153846,4216.923076,4463.076923,4235.384615,4249.230769,4512.307692,4206.666666,4663.076923,3969.743590,4067.179487
186,4388.717948,4554.358974,4538.461538,4292.307692,4505.128205,4211.794871,4462.564102,4227.692307,4246.153846,4515.897435,4205.128205,4659.487179,3970.769231,4065.641025
187,4378.974358,4542.564102,4533.333333,4288.717948,4501.538461,4205.641025,4458.974358,4217.435897,4232.307692,4509.743589,4200.000000,4652.307692,3956.923077,4056.410256
188,4382.564102,4545.641025,4536.410256,4292.820512,4502.051282,4206.666666,4459.487179,4223.076923,4235.897435,4510.769230,4199.487179,4657.435897,3958.974359,4058.974358
189,4396.410256,4553.333333,4540.512820,4290.256410,4508.717948,4214.358974,4461.025641,4231.794871,4247.692307,4515.897435,4205.128205,4664.102564,3967.692308,4067.692307
190,4397.435897,4551.794871,4538.461538,4289.743589,4511.794871,4217.435897,4464.102564,4234.871794,4253.846153,4517.948717,4207.692307,4663.589743,3961.538462,4067.692307
191,4394.358974,4550.256410,4543.076923,4300.512820,4506.153846,4217.435897,4474.358974,4235.384615,4255.897435,4517.948717,4208.205128,4664.102564,3960.512821,4064.102564
192,4396.923076,4548.205128,4547.692307,4300.512820,4506.666666,4218.461538,4475.384615,4234.871794,4254.871794,4513.846153,4207.692307,4666.153846,3964.102565,4065.128205
193,4400.512820,4550.256410,4544.615384,4296.923076,4513.846153,4221.025641,4472.307692,4242.051282,4257.948717,4515.897435,4208.717948,4665.128205,3963.589744,4072.820512
194,4398.461538,4556.410256,4544.615384,4302.051282,4512.820512,4222.564102,4477.435897,4247.692307,4258.974358,4522.051282,4210.256410,4664.615384,3968.717949,4073.333333
195,4388.717948,4547.179487,4542.051282,4292.820512,4504.102564,4220.000000,4473.333333,4239.487179,4254.358974,4518.974358,4205.128205,4660.000000,3968.205129,4063.076923
196,4380.512820,4533.333333,4532.307692,4279.487179,4496.410256,4211.282051,4460.000000,4232.820512,4249.743589,4512.820512,4196.410256,4654.871794,3958.974359,4054.871794
197,4385.128205,4536.410256,4530.256410,4288.717948,4495.384615,4206.666666,4458.461538,4229.743589,4244.615384,4512.307692,4195.897435,4653.333333,3957.948718,4054.358974
198,4390.256410,4538.461538,4534.871794,4297.435897,4497.948717,4209.230769,4461.538461,4219.487179,4234.871794,4503.076923,4197.948717,4651.794871,3962.051283,4054.358974
199,4386.666666,4537.948717,4536.410256,4288.205128,4497.948717,4207.179487,4457.435897,4213.333333,4228.717948,4490.769230,4193.846153,4652.307692,3958.974359,4053.333333
200,4382.564102,4540.512820,4532.820512,4287.179487,4492.820512,4204.102564,4455.384615,4215.384615,4231.282051,4493.333333,4194.358974,4652.820512,3955.897436,4054.871794
201,4381.025641,4539.487179,4529.743589,4292.820512,4491.794871,4204.615384,4457.435897,4213.846153,4234.871794,4500.000000,4195.897435,4650.256410,3954.871795,4052.820512
202,4380.512820,4538.974358,4532.307692,4286.666666,4494.358974,4205.641025,4456.410256,4214.358974,4237.948717,4498.461538,4192.307692,4651.794871,3956.923077,4051.282051
203,4386.666666,4541.025641,4538.461538,4286.153846,4492.820512,4209.743589,4458.461538,4223.076923,4236.923076,4498.461538,4194.358974,4657.435897,3965.128206,4056.923076
204,4393.333333,4539.487179,4540.512820,4294.358974,4492.307692,4210.256410,4459.487179,4222.051282,4233.846153,4504.615384,4199.487179,4662.051282,3965.641026,4060.000000
205,4391.794871,4538.974358,4534.871794,4293.333333,4493.846153,4204.102564,4453.846153,4218.461538,4241.025641,4505.128205,4197.435897,4662.564102,3961.538462,4056.410256
206,4387.179487,4543.589743,4530.769230,4291.282051,4493.846153,4204.615384,4452.820512,4224.102564,4246.666666,4503.076923,4200.512820,4661.025641,3962.051283,4054.358974
207,4385.128205,4542.564102,4535.384615,4290.256410,4494.871794,4207.692307,4457.435897,4226.153846,4242.051282,4507.179487,4209.230769,4656.410256,3963.076924,4057.948717
208,4385.641025,4538.461538,4534.871794,4285.128205,4493.333333,4200.000000,4455.897435,4221.025641,4238.461538,4511.282051,4206.666666,4653.333333,3962.564103,4056.410256
209,4386.153846,4540.000000,4529.743589,4288.205128,4485.128205,4197.948717,4447.179487,4219.487179,4238.974358,4504.615384,4197.435897,4652.820512,3963.076924,4052.307692
210,4386.666666,4540.512820,4529.743589,4294.871794,4480.000000,4202.051282,4442.564102,4218.461538,4234.871794,4495.897435,4194.358974,4654.871794,3962.051283,4054.871794
211,4388.205128,4536.410256,4534.871794,4289.743589,4486.666666,4197.948717,4444.102564,4213.333333,4227.179487,4495.384615,4198.974358,4657.435897,3964.615385,4058.461538
212,4387.692307,4536.923076,4536.923076,4290.256410,4489.743589,4199.487179,4448.205128,4214.358974,4229.230769,4498.461538,4207.692307,4655.897435,3972.820513,4056.923076
213,4384.615384,4541.538461,4532.307692,4298.974358,4484.615384,4204.615384,4451.282051,4216.923076,4233.333333,4504.102564,4204.615384,4654.358974,3973.333334,4054.358974
214,4384.615384,4540.000000,4529.743589,4292.307692,4485.128205,4203.076923,4450.769230,4216.923076,4234.358974,4513.846153,4197.435897,4655.384615,3966.153847,4054.871794
215,4386.666666,4538.461538,4533.846153,4283.076923,4493.333333,4200.512820,4446.666666,4217.948717,4233.846153,4515.384615,4200.512820,4655.384615,3966.666667,4054.871794
216,4382.051282,4538.974358,4531.282051,4287.692307,4492.307692,4199.487179,4443.076923,4214.358974,4228.717948,4505.128205,4198.461538,4650.256410,3967.692308,4052.307692
217,4379.487179,4533.333333,4521.025641,4292.820512,4480.000000,4195.897435,4444.615384,4215.384615,4225.641025,4499.487179,4196.923076,4645.128205,3962.051283,4053.333333
218,4382.051282,4531.794871,4523.589743,4282.051282,4476.923076,4195.897435,4446.153846,4218.461538,4228.205128,4501.538461,4200.000000,4646.153846,3960.000000,4050.769230
219,4384.102564,4536.410256,4528.205128,4274.871794,4481.025641,4197.435897,4445.641025,4215.384615,4230.769230,4500.512820,4199.487179,4649.230769,3968.205129,4049.230769
220,4382.564102,4532.820512,4524.102564,4281.538461,4478.974358,4194.871794,4445.128205,4215.384615,4225.641025,4495.384615,4200.000000,4648.717948,3970.769231,4052.820512
221,4375.384615,4522.564102,4520.512820,4273.846153,4472.307692,4191.282051,4442.564102,4215.897435,4220.512820,4489.743589,4199.487179,4642.051282,3960.512821,4047.692307
222,4367.692307,4521.025641,4515.384615,4260.512820,4468.205128,4188.205128,4438.974358,4205.641025,4219.487179,4490.256410,4190.256410,4638.461538,3951.794872,4037.435897
223,4365.641025,4524.102564,4508.205128,4267.692307,4468.205128,4185.641025,4441.025641,4200.512820,4217.948717,4491.282051,4180.512820,4637.435897,3950.769231,4038.461538
224,4365.641025,4519.487179,4509.230769,4277.948717,4475.384615,4183.589743,4441.538461,4205.641025,4219.487179,4491.794871,4185.128205,4636.923076,3950.256411,4041.025641
225,4373.846153,4523.589743,4518.461538,4278.974358,4476.410256,4187.692307,4440.000000,4209.230769,4230.769230,4498.461538,4201.538461,4643.589743,3952.820513,4042.051282
226,4380.512820,4533.846153,4520.000000,4282.051282,4468.205128,4193.333333,4438.974358,4209.743589,4234.871794,4497.948717,4206.666666,4649.230769,3957.435898,4046.666666
227,4373.333333,4527.179487,4512.307692,4278.461538,4469.743589,4189.230769,4435.384615,4204.102564,4218.974358,4481.538461,4191.282051,4642.564102,3954.358975,4042.564102
228,4371.794871,4522.564102,4514.358974,4270.769230,4479.487179,4189.743589,4437.435897,4200.512820,4212.307692,4477.435897,4180.000000,4638.974358,3944.102565,4035.384615
229,4381.025641,4531.282051,4523.076923,4277.948717,4481.025641,4198.461538,4443.589743,4211.282051,4228.717948,4497.435897,4189.230769,4647.179487,3935.897436,4041.538461
230,4383.076923,4530.256410,4522.564102,4284.615384,4474.871794,4192.820512,4438.461538,4214.358974,4234.358974,4506.153846,4202.051282,4652.307692,3942.051283,4048.717948
231,4380.000000,4523.589743,4521.025641,4277.435897,4471.282051,4185.641025,4433.333333,4207.179487,4223.589743,4495.384615,4204.615384,4653.846153,3955.384616,4049.743589
232,4382.051282,4524.102564,4525.641025,4275.897435,4474.871794,4193.846153,4441.538461,4212.820512,4224.102564,4489.743589,4196.410256,4651.794871,3951.282052,4051.282051
233,4383.589743,4527.692307,4525.641025,4283.589743,4477.948717,4197.435897,4447.692307,4222.051282,4233.333333,4498.461538,4192.820512,4648.717948,3947.179488,4054.871794
234,4382.051282,4532.307692,4524.615384,4284.102564,4476.410256,4190.769230,4444.102564,4214.871794,4230.769230,4503.076923,4197.948717,4648.717948,3957.435898,4055.897435
235,4383.076923,4530.769230,4521.538461,4275.897435,4472.307692,4189.230769,4443.076923,4212.307692,4228.717948,4496.410256,4203.076923,4652.820512,3961.538462,4053.333333
236,4386.666666,4527.692307,4512.820512,4278.974358,4473.333333,4195.384615,4445.641025,4224.615384,4237.948717,4497.948717,4211.794871,4655.384615,3958.974359,4053.333333
237,4386.153846,4533.333333,4508.205128,4291.282051,4474.358974,4200.000000,4447.692307,4228.205128,4242.564102,4504.615384,4212.307692,4654.871794,3964.615385,4055.897435
238,4377.948717,4532.820512,4505.128205,4290.769230,4471.282051,4195.897435,4447.692307,4220.000000,4236.923076,4501.025641,4195.384615,4647.692307,3963.589744,4049.743589
239,4371.282051,4524.102564,4495.897435,4278.461538,4467.692307,4188.717948,4440.512820,4215.384615,4230.769230,4494.871794,4188.205128,4636.923076,3952.820513,4039.487179
240,4367.179487,4516.923076,4488.717948,4272.820512,4465.641025,4189.230769,4431.794871,4204.615384,4225.641025,4492.307692,4190.256410,4630.256410,3950.256411,4036.410256
241,4361.538461,4509.743589,4487.179487,4266.153846,4463.589743,4185.641025,4426.666666,4189.743589,4216.410256,4483.076923,4180.000000,4627.692307,3945.641026,4030.769230
242,4364.102564,4508.205128,4488.717948,4258.974358,4459.487179,4178.974358,4426.153846,4187.179487,4207.692307,4470.769230,4175.897435,4628.205128,3935.384616,4027.179487
243,4370.256410,4516.923076,4491.282051,4264.102564,4456.410256,4184.102564,4432.820512,4194.358974,4210.769230,4473.846153,4186.666666,4630.769230,3937.435898,4036.410256
244,4371.794871,4520.000000,4490.256410,4274.358974,4453.846153,4187.692307,4440.512820,4203.076923,4221.025641,4485.128205,4192.820512,4633.846153,3952.307693,4042.051282
245,4374.871794,4518.974358,4495.384615,4276.410256,4455.897435,4187.179487,4443.076923,4210.256410,4223.076923,4488.205128,4196.923076,4640.000000,3956.923077,4042.051282
246,4381.538461,4522.051282,4501.538461,4279.487179,4465.641025,4194.871794,4443.076923,4212.820512,4224.615384,4487.692307,4204.615384,4646.153846,3950.256411,4047.179487
247,4383.589743,4523.076923,4497.948717,4278.974358,4467.692307,4197.948717,4443.589743,4212.307692,4228.205128,4485.641025,4200.512820,4645.641025,3951.794872,4047.179487
248,4381.025641,4522.564102,4495.897435,4271.794871,4463.589743,4190.769230,4442.051282,4210.769230,4222.051282,4483.076923,4189.230769,4640.512820,3952.307693,4040.512820
249,4374.871794,4522.564102,4496.923076,4268.717948,4465.641025,4185.128205,4442.051282,4209.230769,4219.487179,4486.666666,4187.692307,4636.410256,3944.615385,4038.461538
250,4369.230769,4516.410256,4492.307692,4269.230769,4465.641025,4186.153846,4442.051282,4206.666666,4222.564102,4489.743589,4187.179487,4632.820512,3943.076924,4038.461538
251,4371.282051,4508.205128,4488.717948,4266.153846,4461.538461,4183.076923,4434.871794,4202.564102,4221.025641,4483.076923,4180.000000,4631.794871,3948.205129,4035.384615
252,4373.333333,4511.794871,4493.333333,4262.564102,4468.717948,4180.000000,4428.205128,4201.538461,4220.512820,4481.538461,4177.948717,4634.358974,3945.128206,4033.846153
253,4370.769230,4514.358974,4498.461538,4264.102564,4476.410256,4181.538461,4427.179487,4204.102564,4221.025641,4488.205128,4185.641025,4638.461538,3941.538462,4034.871794
254,4375.384615,4513.333333,4503.589743,4263.589743,4475.897435,4184.102564,4433.333333,4207.692307,4224.102564,4491.282051,4193.333333,4645.641025,3951.794872,4041.025641
255,4386.153846,4521.025641,4510.769230,4266.666666,4479.487179,4187.179487,4442.564102,4218.974358,4241.025641,4496.923076,4198.461538,4655.384615,3965.641026,4052.307692
256,4388.205128,4530.769230,4511.794871,4276.410256,4483.076923,4189.743589,4447.179487,4226.153846,4247.692307,4502.564102,4201.538461,4656.923076,3965.641026,4057.435897
257,4379.487179,4532.307692,4501.025641,4276.923076,4482.051282,4186.153846,4443.589743,4215.897435,4230.769230,4495.384615,4197.435897,4649.230769,3954.358975,4049.230769
258,4375.897435,4530.769230,4491.794871,4270.769230,4486.153846,4182.051282,4442.564102,4211.282051,4227.692307,4489.743589,4197.948717,4645.128205,3953.846154,4042.564102
259,4388.205128,4534.358974,4501.538461,4272.820512,4495.384615,4190.256410,4445.641025,4220.000000,4240.512820,4500.000000,4202.051282,4651.794871,3966.666667,4050.256410
