,AF3,F7,F3,FC5,T7,P7,O1,O2,P8,T8,FC6,F4,F8,AF4
0,4440.512820,4537.435897,4543.076923,4270.256410,4526.153846,4198.461538,4456.410256,4226.153846,4249.230769,4498.974358,4233.333333,4666.666666,3996.410257,4090.256410
1,4438.461538,4537.435897,4543.589743,4277.435897,4523.076923,4198.974358,4456.410256,4223.589743,4240.512820,4497.948717,4237.948717,4660.000000,3991.282052,4088.717948
2,4444.102564,4542.564102,4552.307692,4273.846153,4527.692307,4201.025641,4458.974358,4231.282051,4243.076923,4506.666666,4234.871794,4660.000000,3998.974359,4093.846153
3,4448.717948,4544.615384,4555.897435,4275.384615,4536.923076,4202.051282,4458.461538,4234.358974,4247.692307,4500.000000,4231.794871,4668.205128,4005.641025,4102.564102
4,4449.743589,4538.461538,4552.307692,4286.153846,4536.410256,4208.717948,4456.923076,4230.769230,4250.769230,4493.333333,4239.487179,4671.282051,4002.564102,4106.153846
5,4453.333333,4541.538461,4554.871794,4298.461538,4535.384615,4215.897435,4461.025641,4234.358974,4253.846153,4504.102564,4248.717948,4672.307692,4003.076923,4109.230769
6,4446.153846,4541.538461,4552.820512,4295.897435,4536.923076,4209.743589,4457.948717,4231.794871,4245.128205,4504.615384,4238.461538,4665.128205,3998.461539,4103.076923
7,4433.846153,4527.692307,4538.974358,4280.000000,4526.666666,4198.461538,4445.128205,4216.410256,4236.410256,4489.230769,4216.410256,4649.743589,3983.589744,4090.256410
8,4438.461538,4528.205128,4538.461538,4283.076923,4521.538461,4198.461538,4441.538461,4212.820512,4243.076923,4481.538461,4216.923076,4648.717948,3987.179488,4094.871794
9,4448.717948,4540.512820,4549.743589,4291.794871,4524.615384,4202.051282,4447.179487,4225.641025,4246.153846,4486.153846,4235.384615,4661.025641,4004.615384,4108.205128
10,4442.564102,4537.435897,4547.179487,4278.974358,4523.589743,4199.487179,4444.615384,4229.743589,4240.000000,4496.923076,4236.923076,4660.512820,3999.487180,4106.666666
11,4438.461538,4533.846153,4544.102564,4278.974358,4523.076923,4199.487179,4440.000000,4223.076923,4245.128205,4508.717948,4230.256410,4656.923076,3985.641026,4103.589743
12,4445.641025,4540.000000,4551.282051,4293.846153,4523.589743,4200.512820,4442.564102,4226.666666,4251.794871,4509.743589,4236.410256,4665.641025,3989.743590,4108.717948
13,4442.564102,4534.358974,4545.641025,4287.179487,4521.025641,4197.948717,4443.076923,4228.717948,4240.512820,4495.897435,4232.820512,4669.743589,3996.410257,4107.179487
14,4434.871794,4525.641025,4534.871794,4280.512820,4522.564102,4198.461538,4441.538461,4222.051282,4228.205128,4478.461538,4220.000000,4663.589743,3994.358975,4102.564102
15,4438.461538,4535.897435,4541.538461,4295.897435,4525.641025,4201.025641,4444.615384,4225.128205,4235.897435,4478.974358,4224.615384,4665.641025,3992.307693,4104.615384
16,4445.128205,4543.076923,4547.692307,4303.076923,4522.564102,4200.512820,4446.666666,4233.333333,4247.692307,4489.743589,4237.948717,4671.282051,3992.307693,4108.717948
17,4443.076923,4538.974358,4542.051282,4291.794871,4523.589743,4201.538461,4445.128205,4229.230769,4246.153846,4496.923076,4233.846153,4667.692307,3993.846154,4108.717948
18,4436.923076,4535.384615,4539.487179,4283.076923,4520.512820,4197.948717,4443.076923,4228.205128,4243.076923,4505.128205,4221.025641,4663.076923,3996.923077,4103.589743
19,4433.333333,4530.769230,4534.871794,4282.564102,4513.846153,4191.282051,4443.076923,4233.333333,4241.538461,4505.128205,4216.410256,4661.538461,3995.384616,4096.410256
20,4425.128205,4519.487179,4528.205128,4281.538461,4513.846153,4190.769230,4444.615384,4228.717948,4233.333333,4488.205128,4213.333333,4657.435897,3984.615385,4088.717948
21,4419.487179,4518.461538,4530.769230,4277.435897,4513.333333,4192.307692,4445.641025,4228.205128,4229.230769,4483.076923,4217.948717,4656.923076,3978.461539,4088.717948
22,4425.641025,4524.615384,4538.461538,4275.384615,4515.384615,4193.846153,4443.589743,4233.846153,4238.461538,4500.000000,4230.769230,4665.641025,3989.230770,4100.000000
23,4432.820512,4525.128205,4537.948717,4278.974358,4517.948717,4197.435897,4447.692307,4235.384615,4245.641025,4505.641025,4233.846153,4674.358974,4002.051282,4107.179487
24,4432.307692,4523.076923,4535.384615,4282.051282,4515.897435,4200.000000,4455.897435,4234.358974,4244.102564,4494.358974,4233.846153,4674.871794,3999.487180,4104.615384
25,4431.794871,4521.538461,4538.461538,4278.461538,4516.410256,4200.000000,4452.307692,4235.384615,4248.205128,4496.923076,4232.820512,4671.794871,3989.230770,4103.589743
26,4431.282051,4522.051282,4538.461538,4268.717948,4516.923076,4194.358974,4443.076923,4235.384615,4250.256410,4506.153846,4222.051282,4669.743589,3988.717949,4100.512820
27,4426.666666,4522.564102,4535.384615,4266.666666,4509.743589,4191.282051,4443.589743,4231.282051,4240.512820,4497.948717,4220.000000,4670.769230,3989.743590,4097.435897
28,4426.153846,4520.000000,4533.846153,4277.948717,4505.641025,4191.282051,4444.615384,4229.230769,4232.820512,4490.769230,4234.871794,4669.230769,3988.717949,4099.487179
29,4429.230769,4522.564102,4534.358974,4282.051282,4510.769230,4192.307692,4441.538461,4231.282051,4237.948717,4495.384615,4230.256410,4666.153846,3987.179488,4098.974358
30,4428.205128,4528.205128,4536.410256,4280.000000,4510.769230,4190.769230,4443.589743,4234.358974,4243.076923,4493.846153,4214.871794,4668.205128,3982.051283,4093.333333
31,4425.641025,4522.051282,4534.358974,4276.923076,4508.205128,4188.717948,4445.128205,4228.717948,4239.487179,4490.256410,4215.384615,4667.179487,3973.846154,4089.743589
32,4426.666666,4518.461538,4532.820512,4269.230769,4508.205128,4188.205128,4442.051282,4226.666666,4235.897435,4491.282051,4221.025641,4663.589743,3975.897436,4095.384615
33,4431.282051,4528.205128,4537.435897,4268.205128,4509.230769,4190.769230,4442.564102,4229.230769,4237.435897,4488.717948,4225.128205,4667.179487,3988.717949,4101.538461
34,4431.282051,4529.743589,4537.435897,4274.358974,4509.230769,4191.794871,4443.589743,4221.025641,4236.410256,4491.794871,4224.615384,4667.692307,3985.128206,4097.435897
35,4426.153846,4520.000000,4528.717948,4274.871794,4503.589743,4185.641025,4441.025641,4216.923076,4232.307692,4496.410256,4213.333333,4660.512820,3972.820513,4087.179487
36,4429.230769,4521.025641,4533.333333,4277.948717,4505.128205,4184.102564,4442.051282,4229.743589,4231.282051,4487.692307,4207.692307,4662.564102,3977.948718,4088.205128
37,4437.435897,4527.692307,4541.025641,4284.102564,4511.282051,4191.282051,4446.153846,4232.307692,4235.897435,4485.128205,4218.461538,4671.282051,3982.564103,4095.384615
38,4433.846153,4524.102564,4531.794871,4275.897435,4510.769230,4197.948717,4445.641025,4215.897435,4232.820512,4489.230769,4216.923076,4664.615384,3971.794872,4091.282051
39,4426.153846,4521.538461,4526.666666,4270.256410,4509.743589,4197.948717,4442.051282,4210.256410,4224.615384,4483.076923,4202.051282,4655.384615,3971.282052,4085.128205
40,4428.717948,4524.615384,4530.256410,4277.948717,4508.717948,4191.282051,4443.076923,4216.923076,4225.641025,4480.512820,4202.051282,4656.923076,3979.487180,4086.153846
41,4425.128205,4513.333333,4525.641025,4271.282051,4504.615384,4183.076923,4442.051282,4214.871794,4225.128205,4481.538461,4205.641025,4654.871794,3972.820513,4082.051282
42,4418.461538,4507.692307,4524.102564,4258.974358,4502.051282,4184.615384,4439.487179,4214.871794,4226.153846,4481.538461,4205.641025,4651.794871,3972.820513,4077.435897
43,4422.564102,4518.974358,4529.743589,4265.641025,4505.641025,4190.769230,4442.051282,4225.641025,4237.435897,4484.615384,4213.846153,4653.846153,3978.461539,4078.974358
44,4425.128205,4515.897435,4526.153846,4277.435897,4508.205128,4191.794871,4442.564102,4228.205128,4238.461538,4481.538461,4214.358974,4653.333333,3964.615385,4078.974358
45,4424.615384,4506.153846,4523.589743,4281.025641,4507.179487,4187.692307,4442.051282,4218.974358,4226.666666,4476.923076,4206.153846,4653.846153,3957.435898,4078.974358
46,4429.230769,4514.358974,4527.692307,4281.538461,4505.641025,4185.641025,4443.076923,4215.897435,4224.102564,4482.564102,4214.358974,4657.435897,3971.794872,4084.102564
47,4426.153846,4519.487179,4523.589743,4271.282051,4505.128205,4186.153846,4436.923076,4212.307692,4222.564102,4478.461538,4218.461538,4651.282051,3973.333334,4079.487179
48,4413.846153,4515.897435,4518.461538,4261.025641,4506.153846,4185.128205,4426.153846,4201.538461,4213.846153,4466.153846,4208.205128,4642.564102,3958.974359,4069.230769
49,4411.282051,4517.435897,4521.025641,4264.615384,4502.564102,4182.564102,4423.076923,4197.435897,4214.358974,4466.666666,4208.205128,4646.666666,3955.897436,4072.307692
50,4419.487179,4516.410256,4521.538461,4264.102564,4499.487179,4184.102564,4425.128205,4205.128205,4216.410256,4473.333333,4208.205128,4647.692307,3961.538462,4076.410256
51,4427.179487,4516.410256,4525.128205,4264.102564,4506.153846,4189.230769,4428.205128,4211.794871,4211.794871,4476.923076,4211.794871,4647.692307,3968.717949,4076.410256
52,4431.282051,4525.128205,4532.820512,4278.974358,4510.769230,4191.282051,4432.820512,4216.410256,4216.923076,4484.102564,4230.256410,4654.871794,3974.358975,4081.025641
53,4427.179487,4526.666666,4530.256410,4284.615384,4507.179487,4190.256410,4433.846153,4217.435897,4226.153846,4482.564102,4229.230769,4654.358974,3971.794872,4078.974358
54,4423.076923,4519.487179,4526.153846,4277.435897,4505.641025,4188.205128,4435.897435,4214.358974,4222.564102,4473.333333,4210.256410,4646.666666,3965.128206,4073.333333
55,4426.153846,4516.410256,4535.384615,4286.153846,4507.692307,4188.205128,4443.076923,4217.435897,4217.948717,4471.282051,4220.000000,4649.743589,3967.179488,4080.512820
56,4429.743589,4519.487179,4542.564102,4296.410256,4507.179487,4191.794871,4447.692307,4224.615384,4226.153846,4474.358974,4235.897435,4661.025641,3974.358975,4087.692307
57,4429.230769,4524.615384,4541.025641,4287.179487,4506.666666,4192.820512,4446.666666,4224.102564,4230.769230,4477.435897,4222.564102,4662.564102,3978.974359,4081.025641
58,4425.641025,4523.076923,4532.307692,4280.512820,4506.666666,4186.153846,4442.564102,4216.923076,4223.589743,4479.487179,4214.358974,4656.923076,3974.358975,4073.333333
59,4425.128205,4516.923076,4528.717948,4283.589743,4505.641025,4184.102564,4442.564102,4216.923076,4225.641025,4486.153846,4228.717948,4656.923076,3968.205129,4075.384615
60,4427.692307,4519.487179,4532.820512,4280.000000,4507.179487,4191.282051,4446.666666,4221.025641,4237.435897,4493.846153,4229.743589,4657.435897,3969.230770,4077.435897
61,4427.692307,4521.025641,4530.769230,4274.358974,4506.666666,4188.205128,4446.153846,4218.461538,4233.333333,4487.692307,4213.846153,4652.307692,3970.769231,4074.358974
62,4424.102564,4514.358974,4527.692307,4277.948717,4503.076923,4182.051282,4440.512820,4215.384615,4220.512820,4476.410256,4212.307692,4651.282051,3973.846154,4072.307692
63,4423.076923,4513.333333,4533.333333,4281.538461,4505.641025,4186.666666,4442.051282,4218.461538,4225.128205,4474.358974,4219.487179,4657.435897,3976.410257,4072.820512
64,4425.128205,4518.461538,4534.871794,4278.974358,4508.717948,4189.230769,4446.666666,4217.948717,4233.333333,4481.538461,4216.923076,4657.435897,3969.230770,4072.307692
65,4427.692307,4516.410256,4530.769230,4277.948717,4506.666666,4188.205128,4443.589743,4215.897435,4228.205128,4484.615384,4215.897435,4652.820512,3964.615385,4074.871794
66,4426.666666,4511.282051,4531.282051,4278.461538,4507.692307,4184.615384,4438.974358,4216.410256,4225.641025,4481.025641,4218.974358,4653.846153,3969.743590,4076.923076
67,4417.435897,4507.179487,4526.153846,4271.282051,4502.564102,4175.384615,4431.794871,4212.820512,4221.025641,4469.743589,4213.846153,4651.794871,3965.641026,4070.256410
68,4408.717948,4508.205128,4518.974358,4263.589743,4493.846153,4172.307692,4426.153846,4208.717948,4211.794871,4461.025641,4209.743589,4644.615384,3958.974359,4066.153846
69,4412.307692,4512.820512,4525.128205,4270.769230,4498.974358,4182.564102,4435.384615,4213.333333,4216.410256,4471.794871,4210.256410,4646.666666,3966.666667,4070.256410
70,4418.461538,4513.846153,4527.692307,4282.051282,4506.666666,4187.179487,4440.512820,4218.461538,4228.205128,4481.538461,4212.307692,4650.256410,3967.692308,4074.358974
71,4413.846153,4510.769230,4522.564102,4280.000000,4503.076923,4180.000000,4431.282051,4214.871794,4227.179487,4473.333333,4214.358974,4648.717948,3957.435898,4072.307692
72,4409.230769,4509.230769,4524.615384,4273.333333,4497.948717,4178.974358,4427.692307,4206.153846,4219.487179,4468.205128,4209.230769,4647.692307,3958.974359,4069.230769
73,4416.410256,4511.794871,4532.307692,4277.948717,4501.538461,4184.102564,4435.384615,4204.615384,4220.000000,4480.512820,4207.179487,4647.179487,3970.256411,4073.333333
74,4425.128205,4515.897435,4534.871794,4276.410256,4506.666666,4184.615384,4440.000000,4213.333333,4223.589743,4485.128205,4216.410256,4648.717948,3972.820513,4077.435897
75,4424.102564,4519.487179,4533.333333,4263.076923,4507.692307,4185.128205,4440.000000,4218.974358,4224.102564,4480.000000,4215.897435,4647.692307,3973.846154,4072.820512
76,4423.589743,4521.538461,4536.923076,4265.128205,4511.282051,4188.205128,4440.512820,4215.897435,4222.564102,4482.564102,4211.282051,4646.153846,3977.435898,4071.282051
77,4428.205128,4524.615384,4542.051282,4281.025641,4514.358974,4190.769230,4442.051282,4217.435897,4230.769230,4490.769230,4222.051282,4650.256410,3976.923077,4079.487179
78,4429.743589,4522.051282,4537.948717,4284.102564,4510.256410,4188.717948,4446.153846,4224.102564,4242.051282,4494.871794,4224.615384,4650.769230,3980.512821,4080.512820
79,4427.179487,4521.538461,4534.871794,4275.384615,4506.153846,4187.692307,4445.128205,4222.564102,4236.410256,4487.179487,4213.333333,4642.564102,3985.641026,4076.923076
80,4426.153846,4534.871794,4533.333333,4268.205128,4507.179487,4186.153846,4433.333333,4209.743589,4223.589743,4473.333333,4215.384615,4637.435897,3975.384616,4077.948717
81,4427.179487,4541.538461,4528.205128,4270.256410,4507.179487,4184.615384,4426.153846,4203.076923,4217.948717,4474.358974,4214.871794,4638.461538,3965.641026,4075.897435
82,4426.153846,4534.358974,4530.769230,4276.923076,4505.641025,4185.128205,4427.692307,4209.743589,4216.410256,4482.051282,4202.051282,4639.487179,3969.743590,4074.871794
83,4422.564102,4529.230769,4536.410256,4277.948717,4509.230769,4188.717948,4430.256410,4214.358974,4217.435897,4477.948717,4198.461538,4641.025641,3969.230770,4075.897435
84,4427.179487,4532.820512,4535.897435,4276.410256,4514.871794,4192.820512,4432.820512,4210.769230,4226.153846,4476.410256,4204.102564,4642.564102,3967.179488,4077.435897
85,4441.025641,4539.487179,4541.025641,4284.615384,4513.846153,4194.871794,4440.000000,4214.871794,4237.948717,4489.743589,4218.461538,4653.846153,3976.410257,4084.102564
86,4446.153846,4541.538461,4553.333333,4290.769230,4510.256410,4190.769230,4446.666666,4226.153846,4237.435897,4494.358974,4237.948717,4667.692307,3984.615385,4094.358974
87,4435.384615,4536.923076,4547.692307,4282.564102,4510.256410,4186.666666,4441.538461,4223.589743,4230.769230,4485.641025,4234.358974,4663.076923,3984.102565,4090.769230
88,4426.666666,4533.846153,4534.871794,4277.948717,4509.230769,4186.153846,4431.282051,4216.410256,4231.282051,4484.102564,4216.923076,4650.769230,3986.666667,4082.564102
89,4427.179487,4536.410256,4538.974358,4281.025641,4508.717948,4188.205128,4432.307692,4223.076923,4236.923076,4491.794871,4219.487179,4653.333333,3986.666667,4086.666666
90,4430.256410,4541.538461,4548.205128,4284.615384,4515.897435,4193.846153,4444.102564,4231.282051,4243.076923,4500.512820,4227.692307,4663.076923,3986.153847,4092.307692
91,4432.307692,4543.076923,4550.256410,4283.076923,4525.641025,4201.025641,4449.230769,4235.897435,4247.179487,4504.615384,4226.666666,4665.641025,3990.769231,4095.897435
92,4430.256410,4539.487179,4549.230769,4279.487179,4520.512820,4200.000000,4446.666666,4244.102564,4247.692307,4499.487179,4230.769230,4661.025641,3988.205129,4098.461538
93,4427.179487,4538.461538,4547.692307,4282.051282,4510.769230,4192.820512,4448.205128,4244.102564,4243.589743,4496.923076,4230.256410,4658.974358,3979.487180,4094.358974
94,4425.128205,4537.948717,4541.025641,4282.564102,4514.871794,4192.820512,4445.128205,4232.307692,4234.871794,4490.769230,4214.358974,4655.897435,3973.846154,4086.666666
95,4420.512820,4535.384615,4537.948717,4276.410256,4517.435897,4193.846153,4438.461538,4228.717948,4229.743589,4474.358974,4207.692307,4649.743589,3970.256411,4084.102564
96,4419.487179,4536.410256,4541.538461,4282.051282,4515.384615,4194.358974,4440.000000,4234.358974,4238.974358,4475.384615,4217.435897,4652.307692,3969.743590,4086.666666
97,4427.692307,4543.076923,4550.256410,4295.897435,4516.923076,4197.948717,4445.128205,4236.923076,4248.717948,4497.435897,4217.948717,4661.025641,3977.435898,4089.230769
98,4429.743589,4542.564102,4549.230769,4288.717948,4515.897435,4193.846153,4444.102564,4230.256410,4241.538461,4495.384615,4206.666666,4655.897435,3977.948718,4090.769230
99,4426.153846,4536.923076,4540.512820,4274.358974,4512.820512,4190.256410,4441.538461,4224.102564,4232.307692,4475.384615,4203.589743,4647.179487,3972.307693,4088.717948
100,4427.692307,4538.461538,4541.025641,4278.461538,4517.948717,4198.461538,4442.564102,4228.717948,4234.871794,4484.102564,4211.794871,4654.358974,3978.461539,4088.205128
101,4430.769230,4543.076923,4549.743589,4287.179487,4524.102564,4203.589743,4442.564102,4233.333333,4241.538461,4500.000000,4220.000000,4660.512820,3988.717949,4091.282051
102,4435.897435,4546.153846,4553.846153,4294.358974,4521.538461,4197.435897,4442.051282,4232.307692,4244.615384,4491.794871,4221.025641,4661.025641,3989.743590,4095.384615
103,4445.641025,4550.769230,4554.358974,4301.025641,4522.051282,4200.000000,4443.589743,4234.358974,4248.205128,4485.641025,4223.076923,4664.615384,3989.230770,4103.589743
104,4448.205128,4556.410256,4556.410256,4297.435897,4525.128205,4205.641025,4444.615384,4236.923076,4251.794871,4500.000000,4226.153846,4666.153846,3992.307693,4107.179487
105,4441.025641,4552.307692,4555.897435,4291.282051,4527.179487,4203.076923,4446.666666,4233.846153,4245.641025,4505.128205,4220.512820,4661.025641,3995.384616,4101.025641
106,4433.333333,4543.589743,4549.743589,4297.948717,4528.205128,4205.128205,4445.128205,4233.333333,4237.948717,4494.358974,4214.358974,4658.461538,3995.897436,4098.974358
107,4429.230769,4536.923076,4542.564102,4296.923076,4521.025641,4203.076923,4436.923076,4233.846153,4241.538461,4492.820512,4216.410256,4658.974358,3986.666667,4101.538461
108,4430.256410,4531.282051,4540.000000,4283.589743,4512.820512,4190.769230,4434.358974,4225.641025,4241.538461,4494.871794,4215.384615,4654.358974,3976.923077,4095.897435
109,4431.282051,4530.256410,4538.974358,4287.692307,4513.333333,4188.717948,4443.589743,4218.461538,4227.692307,4483.589743,4205.641025,4648.717948,3976.923077,4090.256410
110,4422.051282,4527.179487,4528.717948,4294.358974,4513.333333,4195.897435,4443.589743,4214.871794,4216.410256,4464.615384,4190.256410,4638.974358,3968.205129,4087.692307
111,4412.307692,4517.435897,4521.538461,4284.615384,4505.641025,4188.205128,4429.743589,4210.256410,4214.358974,4458.461538,4181.025641,4635.897435,3954.358975,4086.666666
112,4418.974358,4516.410256,4530.769230,4286.153846,4502.051282,4179.487179,4426.153846,4211.282051,4219.487179,4470.256410,4187.179487,4647.179487,3963.589744,4091.282051
113,4427.179487,4521.025641,4538.461538,4295.897435,4505.641025,4183.076923,4429.230769,4216.410256,4229.230769,4478.974358,4192.820512,4652.820512,3976.410257,4092.820512
114,4424.102564,4522.564102,4533.846153,4288.717948,4508.205128,4185.641025,4427.179487,4216.923076,4232.307692,4477.435897,4189.743589,4647.692307,3970.769231,4086.666666
115,4424.615384,4528.205128,4534.358974,4283.589743,4515.897435,4191.794871,4433.846153,4217.948717,4232.307692,4483.589743,4193.846153,4651.282051,3973.333334,4091.794871
116,4433.846153,4533.333333,4540.000000,4291.794871,4524.102564,4204.615384,4446.153846,4223.076923,4239.487179,4495.384615,4196.923076,4658.974358,3983.589744,4101.025641
117,4431.794871,4528.717948,4537.948717,4295.384615,4523.076923,4203.589743,4445.641025,4223.589743,4240.000000,4493.333333,4190.769230,4651.794871,3977.435898,4093.333333
118,4430.256410,4532.307692,4541.025641,4304.102564,4523.076923,4198.974358,4442.564102,4227.179487,4236.410256,4487.179487,4198.974358,4653.846153,3976.410257,4092.820512
119,4442.051282,4539.487179,4551.282051,4314.358974,4526.153846,4202.564102,4446.153846,4233.333333,4242.564102,4491.282051,4217.948717,4667.179487,3990.769231,4107.692307
120,4446.666666,4536.923076,4551.282051,4310.769230,4523.589743,4201.538461,4446.153846,4232.307692,4248.717948,4498.974358,4217.948717,4670.769230,3996.410257,4110.256410
121,4444.102564,4539.487179,4549.743589,4307.692307,4520.512820,4199.487179,4444.102564,4230.769230,4248.717948,4500.000000,4212.307692,4670.256410,4000.000000,4105.128205
122,4449.743589,4543.589743,4552.820512,4312.820512,4522.051282,4200.000000,4446.153846,4232.820512,4250.256410,4493.846153,4218.974358,4671.794871,4006.153846,4108.205128
123,4451.282051,4536.410256,4549.743589,4310.256410,4520.512820,4199.487179,4445.128205,4230.256410,4249.743589,4489.230769,4217.435897,4669.230769,4003.076923,4110.256410
124,4449.743589,4540.512820,4547.692307,4303.589743,4520.512820,4198.974358,4444.102564,4229.743589,4245.641025,4498.974358,4210.769230,4667.692307,3998.974359,4107.179487
125,4454.871794,4553.333333,4556.923076,4308.717948,4524.102564,4202.051282,4446.153846,4236.923076,4251.794871,4510.256410,4220.000000,4675.897435,4003.589743,4110.769230
126,4452.307692,4545.641025,4556.923076,4311.282051,4524.615384,4205.128205,4446.153846,4239.487179,4261.025641,4503.076923,4221.538461,4677.948717,4006.666666,4112.820512
127,4441.025641,4532.820512,4543.589743,4297.948717,4522.051282,4200.000000,4443.076923,4233.333333,4251.794871,4486.666666,4202.564102,4666.666666,4001.538461,4100.512820
128,4438.461538,4536.923076,4537.435897,4290.256410,4516.923076,4189.743589,4442.564102,4227.692307,4236.410256,4483.076923,4193.846153,4661.538461,3997.948718,4092.307692
129,4436.923076,4536.410256,4541.025641,4295.384615,4510.256410,4185.128205,4444.615384,4226.153846,4233.846153,4492.307692,4197.435897,4663.589743,3992.820513,4094.358974
130,4427.179487,4519.487179,4540.512820,4295.384615,4505.641025,4184.615384,4443.076923,4223.589743,4235.897435,4491.282051,4197.435897,4658.974358,3976.923077,4088.717948
131,4425.641025,4516.410256,4536.923076,4292.307692,4507.692307,4183.589743,4441.025641,4225.128205,4233.333333,4479.487179,4197.948717,4658.974358,3965.641026,4080.512820
132,4432.307692,4526.666666,4541.025641,4289.230769,4509.230769,4185.128205,4444.615384,4232.820512,4233.846153,4475.897435,4194.358974,4667.179487,3973.333334,4084.102564
133,4425.641025,4517.435897,4538.461538,4276.923076,4507.179487,4182.564102,4442.564102,4231.794871,4232.307692,4474.358974,4182.564102,4663.589743,3978.461539,4079.487179
134,4412.307692,4510.256410,4526.153846,4276.923076,4505.641025,4176.923076,4434.871794,4220.512820,4223.076923,4458.461538,4183.076923,4653.333333,3965.128206,4067.692307
135,4413.333333,4521.025641,4520.000000,4286.153846,4504.615384,4178.461538,4434.358974,4211.794871,4213.333333,4448.205128,4185.128205,4650.769230,3954.871795,4068.717948
136,4422.051282,4529.230769,4524.615384,4280.000000,4504.615384,4183.076923,4439.487179,4211.282051,4219.487179,4460.512820,4180.512820,4654.871794,3963.076924,4072.820512
137,4429.230769,4537.435897,4533.333333,4281.025641,4510.769230,4188.717948,4443.076923,4221.538461,4238.461538,4482.564102,4184.102564,4664.615384,3981.025642,4076.923076
138,4439.487179,4550.769230,4540.512820,4294.871794,4520.000000,4197.948717,4444.615384,4232.820512,4248.717948,4497.435897,4196.410256,4676.410256,3992.820513,4089.230769
139,4440.000000,4547.179487,4541.025641,4292.820512,4526.153846,4201.538461,4445.641025,4235.384615,4250.769230,4498.974358,4206.153846,4679.487179,3993.846154,4096.410256
140,4431.282051,4534.358974,4540.512820,4281.538461,4526.153846,4199.487179,4445.641025,4235.897435,4253.846153,4497.435897,4208.717948,4676.410256,3989.743590,4091.794871
141,4428.205128,4535.384615,4543.076923,4283.076923,4524.102564,4199.487179,4446.666666,4239.487179,4253.333333,4493.333333,4205.641025,4678.461538,3987.692308,4087.692307
142,4429.743589,4539.487179,4541.025641,4290.769230,4523.589743,4200.512820,4446.153846,4236.923076,4251.282051,4486.153846,4193.333333,4677.435897,3986.666667,4090.769230
143,4433.846153,4544.615384,4538.974358,4295.897435,4524.102564,4198.974358,4444.615384,4230.769230,4247.692307,4485.128205,4182.051282,4673.846153,3985.641026,4088.205128
144,4442.051282,4554.358974,4541.538461,4295.384615,4525.128205,4200.512820,4446.153846,4231.282051,4237.948717,4484.615384,4187.692307,4677.948717,3987.692308,4082.051282
145,4445.128205,4553.846153,4541.538461,4290.256410,4525.641025,4201.538461,4446.153846,4231.794871,4231.794871,4479.487179,4200.000000,4683.076923,3991.282052,4087.179487
146,4437.948717,4544.102564,4539.487179,4290.256410,4517.948717,4195.897435,4443.076923,4225.128205,4233.333333,4480.000000,4199.487179,4674.358974,3985.128206,4094.871794
147,4432.307692,4537.948717,4537.948717,4285.641025,4509.230769,4185.128205,4441.025641,4218.974358,4236.410256,4484.615384,4186.153846,4663.589743,3979.487180,4088.205128
148,4433.333333,4535.897435,4536.410256,4280.512820,4512.307692,4182.564102,4441.025641,4221.538461,4242.564102,4489.230769,4180.512820,4669.743589,3987.692308,4084.102564
149,4438.974358,4535.897435,4538.974358,4283.589743,4513.846153,4187.179487,4440.512820,4223.589743,4244.615384,4491.282051,4188.717948,4677.435897,3994.358975,4091.794871
150,4443.076923,4543.076923,4539.487179,4282.051282,4513.333333,4186.666666,4436.410256,4222.051282,4233.846153,4481.025641,4190.769230,4670.769230,3990.769231,4094.358974
151,4436.410256,4546.666666,4533.846153,4274.871794,4514.871794,4184.615384,4434.358974,4219.487179,4226.666666,4468.717948,4184.102564,4659.487179,3983.589744,4085.641025
152,4430.769230,4540.000000,4530.769230,4278.461538,4514.871794,4186.153846,4438.974358,4219.487179,4231.282051,4474.871794,4185.128205,4660.512820,3973.846154,4081.538461
153,4434.358974,4537.435897,4535.897435,4286.666666,4515.384615,4187.179487,4442.051282,4223.076923,4233.846153,4485.641025,4187.179487,4668.205128,3969.230770,4086.666666
154,4435.384615,4538.974358,4540.000000,4282.564102,4516.410256,4186.666666,4436.410256,4224.102564,4230.769230,4482.051282,4176.923076,4667.179487,3972.820513,4087.179487
155,4428.717948,4532.307692,4530.769230,4276.923076,4509.230769,4183.589743,4430.769230,4217.948717,4228.205128,4473.333333,4172.820512,4660.512820,3974.871795,4081.538461
156,4426.666666,4531.794871,4526.666666,4275.384615,4503.589743,4182.564102,4431.282051,4215.897435,4230.256410,4472.820512,4183.076923,4661.538461,3971.794872,4079.487179
157,4431.282051,4540.512820,4531.282051,4270.769230,4509.743589,4185.128205,4431.794871,4221.025641,4232.820512,4475.384615,4186.666666,4666.666666,3975.384616,4083.076923
158,4427.179487,4540.512820,4529.743589,4269.743589,4508.717948,4183.589743,4427.692307,4221.538461,4230.769230,4470.769230,4181.025641,4666.666666,3980.000000,4085.128205
159,4426.666666,4538.461538,4530.256410,4276.410256,4503.589743,4181.538461,4428.717948,4221.538461,4232.820512,4471.794871,4182.051282,4665.128205,3977.435898,4087.692307
160,4437.948717,4543.076923,4536.410256,4283.076923,4508.717948,4184.615384,4436.923076,4226.153846,4239.487179,4484.615384,4188.205128,4666.153846,3978.461539,4092.820512
161,4436.410256,4540.000000,4534.358974,4282.051282,4509.743589,4185.128205,4435.897435,4222.564102,4236.410256,4484.615384,4186.666666,4666.153846,3982.564103,4090.256410
162,4424.615384,4531.794871,4529.230769,4275.897435,4505.641025,4182.051282,4426.153846,4213.333333,4228.205128,4473.846153,4185.128205,4661.538461,3979.487180,4083.076923
163,4424.615384,4538.974358,4537.435897,4278.461538,4512.307692,4184.615384,4433.846153,4218.461538,4235.897435,4478.461538,4187.692307,4662.564102,3982.051283,4087.179487
164,4430.769230,4548.717948,4541.538461,4286.153846,4516.410256,4187.179487,4445.128205,4225.641025,4243.076923,4486.153846,4182.564102,4667.179487,3984.615385,4090.256410
165,4427.179487,4541.538461,4531.282051,4285.128205,4509.230769,4184.615384,4436.923076,4216.923076,4238.974358,4480.512820,4172.820512,4662.051282,3977.435898,4081.538461
166,4424.102564,4534.358974,4530.256410,4282.564102,4511.794871,4185.128205,4435.384615,4216.923076,4239.487179,4476.923076,4175.897435,4655.897435,3974.871795,4081.025641
167,4427.692307,4536.923076,4534.358974,4283.589743,4516.410256,4186.666666,4445.641025,4230.769230,4239.487179,4480.512820,4186.153846,4658.974358,3974.871795,4085.128205
168,4431.794871,4548.205128,4536.410256,4284.102564,4515.897435,4190.256410,4446.153846,4232.820512,4242.564102,4485.641025,4194.358974,4665.128205,3973.333334,4085.641025
169,4443.589743,4565.641025,4543.589743,4291.282051,4527.179487,4200.000000,4450.769230,4233.846153,4257.948717,4497.435897,4201.538461,4673.333333,3997.435898,4098.461538
170,4449.743589,4568.717948,4551.282051,4302.564102,4534.871794,4206.666666,4461.538461,4241.025641,4264.615384,4506.153846,4205.641025,4680.512820,4019.487179,4108.717948
171,4433.333333,4551.794871,4543.589743,4295.384615,4524.102564,4203.076923,4456.923076,4234.358974,4249.743589,4495.897435,4195.897435,4671.794871,3994.358975,4091.282051
172,4417.948717,4545.128205,4533.333333,4287.179487,4520.000000,4195.384615,4444.615384,4226.666666,4242.051282,4480.512820,4184.615384,4659.487179,3971.282052,4077.435897
173,4430.256410,4559.487179,4537.948717,4300.000000,4525.641025,4196.410256,4444.102564,4231.282051,4249.230769,4483.589743,4193.846153,4666.153846,3990.256411,4090.256410
174,4444.615384,4565.641025,4547.179487,4304.102564,4524.102564,4198.974358,4447.692307,4233.846153,4251.794871,4492.307692,4206.153846,4678.461538,4005.128205,4100.512820
175,4436.923076,4557.435897,4549.743589,4296.923076,4522.564102,4193.846153,4448.717948,4233.846153,4249.743589,4486.666666,4204.102564,4677.948717,3993.846154,4096.923076
176,4427.179487,4550.256410,4545.128205,4295.897435,4523.076923,4185.641025,4445.128205,4233.333333,4248.205128,4481.538461,4195.384615,4668.205128,3985.128206,4087.692307
177,4425.641025,4550.256410,4537.948717,4289.230769,4524.615384,4179.487179,4442.564102,4225.128205,4249.230769,4491.282051,4192.307692,4665.128205,3987.692308,4079.487179
178,4422.564102,4549.743589,4535.897435,4281.025641,4529.743589,4177.435897,4443.589743,4221.538461,4245.641025,4494.871794,4186.666666,4665.128205,3989.743590,4079.487179
179,4424.102564,4551.794871,4541.538461,4291.282051,4535.897435,4178.461538,4446.666666,4230.256410,4246.666666,4493.333333,4179.487179,4665.128205,3990.769231,4088.717948
180,4429.230769,4556.923076,4546.153846,4300.512820,4542.051282,4182.564102,4449.743589,4235.384615,4259.487179,4497.948717,4188.717948,4670.256410,3994.358975,4093.846153
181,4427.692307,4553.333333,4543.589743,4291.282051,4544.615384,4180.512820,4447.692307,4233.333333,4263.589743,4501.538461,4204.102564,4672.820512,3993.333334,4090.256410
182,4427.692307,4551.794871,4545.128205,4292.307692,4542.051282,4174.358974,4442.051282,4233.846153,4262.564102,4503.589743,4207.179487,4671.794871,3996.410257,4090.256410
183,4430.769230,4557.948717,4546.666666,4297.948717,4544.615384,4173.846153,4442.051282,4233.846153,4261.538461,4499.487179,4201.025641,4670.256410,4009.230769,4093.333333
184,4427.179487,4552.307692,4542.051282,4283.589743,4550.256410,4172.307692,4444.615384,4228.205128,4250.769230,4486.666666,4197.948717,4668.205128,4008.717948,4091.282051
185,4425.128205,4546.666666,4541.025641,4268.205128,4548.717948,4170.769230,4445.128205,4229.230769,4249.230769,4487.692307,4199.487179,4666.153846,3996.410257,4091.794871
186,4429.230769,4559.487179,4544.615384,4274.871794,4547.179487,4171.794871,4446.153846,4235.897435,4264.615384,4502.051282,4206.666666,4666.153846,3992.820513,4092.820512
187,4431.282051,4569.743589,4545.128205,4290.256410,4551.794871,4174.871794,4444.615384,4234.871794,4264.615384,4506.666666,4211.794871,4665.641025,3997.435898,4089.230769
188,4429.743589,4565.128205,4547.179487,4294.871794,4556.410256,4173.333333,4442.564102,4230.769230,4256.410256,4503.076923,4202.564102,4663.589743,4004.615384,4088.205128
189,4428.717948,4555.897435,4545.641025,4291.282051,4550.769230,4169.230769,4443.076923,4231.794871,4254.871794,4494.358974,4184.102564,4660.000000,4004.615384,4085.128205
190,4421.025641,4549.743589,4537.435897,4285.641025,4543.589743,4168.717948,4438.461538,4224.102564,4250.256410,4482.051282,4175.897435,4652.820512,3993.333334,4071.794871
191,4409.743589,4549.230769,4534.871794,4275.897435,4545.128205,4169.230769,4427.179487,4213.846153,4244.615384,4474.871794,4181.538461,4648.717948,3984.102565,4064.102564
192,4415.384615,4552.820512,4537.435897,4274.358974,4552.820512,4167.179487,4428.205128,4221.025641,4247.179487,4481.538461,4186.153846,4653.846153,3986.666667,4069.743589
193,4428.717948,4560.000000,4542.564102,4289.743589,4554.358974,4170.256410,4441.025641,4232.820512,4254.871794,4496.923076,4188.717948,4662.051282,3994.871795,4077.435897
194,4432.820512,4566.666666,4553.846153,4304.102564,4556.410256,4179.487179,4449.230769,4234.871794,4263.076923,4506.153846,4196.410256,4667.692307,4005.641025,4087.692307
195,4430.256410,4562.051282,4553.846153,4302.051282,4558.461538,4178.461538,4445.641025,4231.282051,4261.538461,4506.153846,4206.666666,4670.769230,4011.282051,4090.769230
196,4423.589743,4552.820512,4541.025641,4286.666666,4547.179487,4166.666666,4440.000000,4224.615384,4250.769230,4497.435897,4203.589743,4664.615384,4006.153846,4074.871794
197,4413.333333,4548.717948,4534.358974,4272.820512,4536.923076,4158.974358,4438.974358,4215.897435,4245.128205,4480.512820,4189.743589,4653.846153,3999.487180,4062.564102
198,4410.769230,4546.153846,4535.384615,4270.769230,4541.538461,4162.564102,4437.948717,4215.897435,4246.666666,4474.358974,4182.564102,4652.820512,3995.384616,4066.153846
199,4417.948717,4549.743589,4539.487179,4277.948717,4549.230769,4167.692307,4436.923076,4223.076923,4255.384615,4486.666666,4192.820512,4663.076923,3997.948718,4072.307692
200,4424.615384,4554.871794,4542.564102,4278.461538,4544.102564,4160.512820,4434.358974,4223.589743,4257.435897,4497.948717,4202.564102,4662.564102,4003.589743,4073.846153
201,4428.205128,4555.897435,4544.615384,4274.358974,4539.487179,4154.871794,4428.717948,4219.487179,4253.333333,4491.282051,4198.461538,4658.461538,4006.153846,4079.487179
202,4430.256410,4560.512820,4546.666666,4274.871794,4542.564102,4160.000000,4430.769230,4217.435897,4254.358974,4484.102564,4198.461538,4665.641025,4003.076923,4085.641025
203,4429.230769,4563.589743,4545.128205,4279.487179,4544.615384,4163.076923,4438.461538,4218.974358,4253.846153,4492.820512,4198.974358,4667.179487,3996.923077,4081.538461
204,4426.153846,4551.794871,4539.487179,4282.051282,4549.743589,4161.025641,4438.461538,4217.948717,4248.717948,4493.846153,4184.102564,4660.000000,3998.461539,4074.358974
205,4424.615384,4538.974358,4535.897435,4275.897435,4547.692307,4158.974358,4429.230769,4213.333333,4241.538461,4479.487179,4173.333333,4655.897435,4002.051282,4073.846153
206,4426.666666,4541.538461,4539.487179,4276.410256,4543.589743,4159.487179,4432.307692,4215.384615,4240.000000,4472.820512,4182.564102,4657.948717,3997.435898,4078.461538
207,4429.230769,4551.282051,4542.051282,4284.102564,4546.666666,4162.564102,4443.589743,4221.538461,4251.282051,4481.538461,4190.769230,4658.974358,3992.820513,4078.974358
208,4428.717948,4547.692307,4540.000000,4273.846153,4547.179487,4161.025641,4440.512820,4215.384615,4250.769230,4481.025641,4177.948717,4653.846153,3991.794872,4071.794871
209,4426.666666,4536.410256,4536.923076,4260.512820,4545.128205,4156.410256,4429.230769,4206.153846,4235.384615,4471.282051,4168.205128,4646.666666,3986.153847,4065.641025
210,4429.743589,4539.487179,4539.487179,4268.717948,4553.333333,4168.205128,4435.897435,4210.256410,4238.974358,4472.307692,4169.743589,4646.666666,3982.564103,4073.846153
211,4431.282051,4542.564102,4537.435897,4273.333333,4554.358974,4174.871794,4441.025641,4214.358974,4243.589743,4476.923076,4164.615384,4645.641025,3981.538462,4077.948717
212,4424.102564,4534.358974,4528.717948,4269.743589,4538.974358,4162.564102,4429.743589,4208.717948,4229.230769,4467.179487,4162.051282,4640.512820,3968.717949,4065.641025
213,4424.615384,4536.923076,4533.846153,4275.897435,4541.025641,4163.589743,4432.307692,4210.769230,4234.358974,4457.948717,4174.871794,4650.769230,3965.641026,4066.153846
214,4433.846153,4544.102564,4542.051282,4280.000000,4553.846153,4172.307692,4443.076923,4218.461538,4252.820512,4473.333333,4173.333333,4662.051282,3981.025642,4081.025641
215,4430.256410,4534.871794,4532.307692,4275.384615,4547.179487,4162.051282,4431.282051,4211.794871,4245.128205,4486.153846,4155.384615,4652.820512,3983.589744,4079.487179
216,4418.974358,4524.102564,4524.102564,4276.923076,4537.435897,4150.256410,4417.948717,4201.538461,4230.769230,4472.820512,4153.333333,4642.051282,3971.794872,4070.256410
217,4416.410256,4522.564102,4525.128205,4279.487179,4537.435897,4157.948717,4423.076923,4198.974358,4228.717948,4456.923076,4158.461538,4641.025641,3966.666667,4068.717948
218,4418.461538,4520.000000,4523.076923,4268.717948,4540.000000,4168.205128,4426.666666,4199.487179,4228.205128,4456.410256,4156.923076,4640.512820,3970.769231,4071.282051
219,4422.564102,4524.102564,4522.564102,4267.692307,4546.153846,4167.179487,4428.205128,4206.153846,4235.897435,4469.743589,4160.000000,4646.153846,3975.897436,4082.051282
220,4426.666666,4530.769230,4530.256410,4285.128205,4549.743589,4165.641025,4432.307692,4214.871794,4244.102564,4472.820512,4157.435897,4652.307692,3975.384616,4086.666666
221,4427.179487,4529.743589,4531.282051,4295.897435,4548.205128,4169.230769,4433.333333,4215.897435,4242.051282,4464.102564,4155.897435,4648.717948,3969.743590,4078.974358
222,4425.641025,4531.794871,4528.205128,4289.230769,4549.743589,4170.769230,4431.794871,4214.871794,4241.538461,4466.153846,4165.128205,4645.128205,3973.333334,4077.948717
223,4426.666666,4540.000000,4534.871794,4290.769230,4551.794871,4169.743589,4431.282051,4220.512820,4249.230769,4478.974358,4172.820512,4649.743589,3989.743590,4085.641025
224,4429.230769,4539.487179,4540.000000,4297.948717,4550.256410,4170.256410,4431.794871,4224.102564,4251.282051,4485.128205,4171.794871,4654.358974,3994.871795,4089.230769
225,4428.205128,4534.358974,4532.820512,4292.307692,4547.179487,4170.256410,4427.179487,4217.435897,4244.615384,4487.179487,4168.205128,4652.307692,3986.666667,4089.743589
226,4427.692307,4537.948717,4532.307692,4289.743589,4544.615384,4168.205128,4426.153846,4215.384615,4248.717948,4492.820512,4177.435897,4655.384615,3987.692308,4094.358974
227,4434.358974,4541.025641,4543.076923,4296.410256,4547.692307,4169.230769,4435.384615,4223.076923,4258.974358,4494.358974,4194.358974,4665.128205,3997.435898,4094.358974
228,4442.564102,4541.025641,4543.589743,4296.410256,4554.871794,4173.846153,4440.000000,4225.128205,4256.923076,4493.333333,4195.897435,4667.179487,4003.589743,4093.333333
229,4445.128205,4541.538461,4537.435897,4298.461538,4556.410256,4174.871794,4433.846153,4223.076923,4253.846153,4490.769230,4184.615384,4663.076923,4003.589743,4100.000000
230,4443.589743,4540.512820,4540.512820,4303.589743,4549.230769,4169.230769,4429.743589,4225.128205,4260.512820,4493.333333,4183.076923,4666.153846,4001.025641,4103.589743
231,4436.923076,4540.512820,4540.512820,4301.538461,4543.076923,4167.692307,4430.256410,4224.102564,4256.410256,4497.948717,4187.692307,4667.692307,3993.333334,4096.410256
232,4428.205128,4537.948717,4530.256410,4294.358974,4540.000000,4168.717948,4427.179487,4215.384615,4241.538461,4484.615384,4183.076923,4661.025641,3991.794872,4088.717948
233,4424.102564,4527.179487,4522.564102,4293.333333,4535.897435,4161.538461,4424.615384,4214.871794,4238.974358,4471.282051,4172.820512,4657.948717,3997.948718,4088.205128
234,4422.564102,4520.512820,4523.076923,4293.846153,4529.230769,4152.307692,4425.128205,4217.435897,4244.102564,4478.974358,4163.589743,4656.410256,3990.256411,4083.076923
235,4421.538461,4530.769230,4526.666666,4287.692307,4530.256410,4156.410256,4425.641025,4214.871794,4243.589743,4487.179487,4163.076923,4654.358974,3973.846154,4079.487179
236,4425.641025,4540.000000,4532.820512,4285.128205,4540.000000,4166.666666,4427.179487,4215.897435,4247.692307,4481.025641,4170.769230,4660.000000,3978.461539,4087.179487
237,4433.333333,4538.461538,4538.974358,4293.333333,4541.538461,4168.717948,4428.717948,4220.000000,4250.256410,4481.025641,4182.051282,4666.666666,4001.538461,4097.948717
238,4430.769230,4530.769230,4537.435897,4295.897435,4538.974358,4167.692307,4428.205128,4216.410256,4244.102564,4485.641025,4185.128205,4664.615384,4004.615384,4096.410256
239,4428.717948,4527.692307,4534.358974,4293.333333,4541.025641,4168.717948,4428.717948,4214.871794,4246.153846,4485.641025,4180.000000,4663.076923,3987.692308,4091.794871
240,4436.410256,4533.333333,4536.923076,4297.948717,4538.974358,4166.666666,4428.205128,4223.076923,4257.948717,4488.205128,4185.641025,4668.717948,3985.128206,4097.948717
241,4438.461538,4538.461538,4537.435897,4299.487179,4536.410256,4165.128205,4431.282051,4226.153846,4254.871794,4491.794871,4186.666666,4667.692307,3997.948718,4100.512820
242,4430.256410,4538.974358,4536.923076,4293.333333,4536.923076,4166.153846,4438.974358,4220.000000,4246.153846,4492.820512,4177.435897,4661.538461,4005.641025,4092.820512
243,4426.153846,4535.384615,4537.948717,4293.846153,4539.487179,4168.717948,4440.000000,4216.923076,4246.153846,4487.692307,4175.384615,4661.538461,3997.435898,4086.153846
244,4428.717948,4532.820512,4537.948717,4299.487179,4540.000000,4170.769230,4435.384615,4216.410256,4237.948717,4475.384615,4172.820512,4665.641025,3988.205129,4086.153846
245,4427.692307,4535.897435,4538.974358,4297.435897,4538.974358,4170.256410,4434.871794,4215.384615,4233.846153,4475.384615,4170.256410,4668.717948,3988.205129,4088.717948
246,4428.717948,4539.487179,4541.025641,4293.333333,4540.512820,4169.230769,4438.974358,4217.948717,4248.205128,4491.282051,4172.820512,4670.256410,3989.230770,4090.256410
247,4431.282051,4538.974358,4540.512820,4297.948717,4540.512820,4171.282051,4441.025641,4219.487179,4253.846153,4493.846153,4170.256410,4669.743589,3988.717949,4093.846153
248,4431.282051,4540.000000,4541.538461,4309.743589,4541.025641,4172.307692,4440.512820,4217.948717,4244.615384,4486.153846,4171.794871,4673.333333,3995.384616,4097.948717
249,4430.256410,4541.025641,4544.102564,4310.256410,4539.487179,4170.769230,4431.794871,4213.846153,4241.538461,4486.666666,4185.641025,4675.384615,3997.435898,4095.897435
250,4423.589743,4535.384615,4536.923076,4295.897435,4528.717948,4165.641025,4421.025641,4203.589743,4233.333333,4474.358974,4174.358974,4665.128205,3986.153847,4087.179487
251,4418.974358,4534.871794,4532.820512,4290.256410,4521.025641,4157.435897,4422.051282,4201.025641,4228.205128,4458.974358,4150.769230,4659.487179,3981.025642,4085.128205
252,4418.461538,4530.769230,4532.307692,4291.794871,4530.769230,4159.487179,4427.692307,4210.769230,4242.564102,4467.692307,4156.410256,4662.051282,3988.205129,4083.589743
253,4412.820512,4517.948717,4524.615384,4290.769230,4535.897435,4164.102564,4426.153846,4213.333333,4242.051282,4477.435897,4170.256410,4657.948717,3986.666667,4078.974358
254,4410.256410,4526.153846,4527.692307,4291.282051,4530.769230,4163.076923,4423.589743,4210.769230,4231.282051,4476.923076,4169.743589,4657.948717,3977.948718,4085.128205
255,4421.025641,4544.102564,4542.051282,4295.384615,4533.846153,4165.128205,4430.256410,4215.384615,4236.410256,4482.051282,4170.769230,4667.692307,3983.589744,4095.897435
256,4427.692307,4542.051282,4542.564102,4301.025641,4539.487179,4169.743589,4431.282051,4217.948717,4238.974358,4481.025641,4169.743589,4668.205128,3996.923077,4095.384615
257,4420.000000,4533.333333,4534.871794,4302.564102,4538.461538,4169.743589,4426.666666,4214.871794,4234.871794,4473.333333,4162.564102,4662.051282,3994.871795,4090.256410
258,4417.435897,4538.461538,4538.461538,4298.461538,4538.974358,4170.769230,4435.384615,4217.435897,4244.615384,4485.641025,4160.512820,4662.564102,3985.641026,4092.307692
259,4420.512820,4544.102564,4541.538461,4295.897435,4537.948717,4169.743589,4442.564102,4222.051282,4250.769230,4495.897435,4175.897435,4664.102564,3987.179488,4094.358974
