,AF3,F7,F3,FC5,T7,P7,O1,O2,P8,T8,FC6,F4,F8,AF4
0,4075.897435,4213.333333,4366.666666,4012.820512,4527.179487,3953.846154,4164.615384,3963.076924,4017.435897,4209.230769,3763.076924,4316.410256,3723.589744,3772.820513
1,4082.051282,4222.051282,4368.717948,4023.589743,4532.307692,3963.589744,4171.282051,3966.666667,4029.743589,4214.358974,3770.256411,4323.076923,3729.230770,3776.923077
2,4082.051282,4226.153846,4367.179487,4022.564102,4529.230769,3966.666667,4175.384615,3971.282052,4041.025641,4225.128205,3782.051283,4321.538461,3734.871795,3782.051283
3,4077.948717,4221.025641,4363.076923,4016.923076,4528.717948,3963.076924,4173.846153,3969.743590,4037.435897,4225.128205,3779.487180,4314.358974,3729.743590,3777.948718
4,4071.282051,4213.846153,4361.025641,4015.897435,4527.692307,3960.512821,4168.717948,3956.923077,4023.589743,4210.256410,3772.820513,4307.179487,3722.564103,3769.743590
5,4064.615384,4210.769230,4357.435897,4013.333333,4522.564102,3955.384616,4164.102564,3943.076924,4013.846153,4197.435897,3766.153847,4303.076923,3717.948718,3765.641026
6,4062.564102,4208.717948,4353.333333,4009.230769,4516.923076,3947.692308,4160.512820,3938.974359,4006.666666,4192.307692,3761.025642,4301.538461,3712.820513,3761.538462
7,4065.641025,4210.256410,4356.410256,4009.230769,4512.820512,3945.641026,4159.487179,3943.589744,4003.589743,4192.820512,3762.051283,4301.538461,3709.743590,3761.538462
8,4072.307692,4214.871794,4362.564102,4013.333333,4515.897435,3948.717949,4157.435897,3948.205129,4010.256410,4200.512820,3772.307693,4307.692307,3718.461539,3769.743590
9,4080.512820,4221.538461,4368.205128,4022.564102,4524.615384,3951.794872,4154.871794,3948.717949,4020.512820,4210.769230,3789.743590,4321.538461,3734.358975,3780.512821
10,4089.743589,4226.153846,4373.333333,4024.615384,4523.589743,3954.358975,4158.974358,3953.846154,4028.205128,4218.461538,3799.487180,4330.769230,3745.641026,3789.743590
11,4093.333333,4225.641025,4377.948717,4017.948717,4519.487179,3958.461539,4165.128205,3962.051283,4032.307692,4222.051282,3795.384616,4330.256410,3746.153847,3794.871795
12,4086.153846,4225.641025,4374.871794,4017.435897,4523.589743,3957.435898,4169.230769,3961.025642,4027.692307,4216.923076,3789.743590,4325.128205,3735.384616,3789.230770
13,4078.974358,4225.128205,4366.666666,4023.589743,4523.589743,3954.358975,4169.230769,3954.871795,4016.923076,4208.205128,3781.538462,4318.974358,3723.589744,3778.974359
14,4075.897435,4220.512820,4367.179487,4020.000000,4520.512820,3957.435898,4166.153846,3952.820513,4015.897435,4205.641025,3773.333334,4317.435897,3716.410257,3771.794872
15,4072.820512,4213.333333,4370.769230,4012.820512,4523.076923,3960.000000,4166.153846,3954.871795,4021.538461,4206.666666,3776.923077,4319.487179,3713.333334,3770.769231
16,4068.717948,4208.717948,4368.717948,4014.871794,4520.512820,3957.435898,4166.153846,3956.410257,4020.512820,4205.641025,3785.641026,4320.000000,3714.358975,3771.794872
17,4068.717948,4208.205128,4366.153846,4016.923076,4513.846153,3955.384616,4165.641025,3957.435898,4016.923076,4205.128205,3786.666667,4318.974358,3716.923077,3770.256411
18,4071.282051,4211.282051,4366.666666,4016.410256,4517.435897,3955.384616,4164.102564,3956.410257,4022.564102,4209.743589,3786.153847,4320.512820,3718.461539,3770.769231
19,4073.846153,4213.846153,4369.230769,4013.846153,4521.025641,3953.846154,4162.564102,3957.435898,4028.717948,4214.871794,3786.666667,4324.615384,3720.000000,3775.384616
20,4077.948717,4216.923076,4370.769230,4015.384615,4517.435897,3955.384616,4165.128205,3963.076924,4027.692307,4214.871794,3788.717949,4332.307692,3724.102565,3780.512821
21,4078.974358,4220.000000,4367.179487,4018.974358,4518.974358,3957.948718,4169.743589,3960.000000,4022.051282,4208.205128,3791.794872,4332.820512,3725.641026,3780.512821
22,4077.948717,4217.435897,4364.102564,4015.897435,4523.076923,3957.948718,4170.769230,3950.256411,4016.410256,4205.641025,3792.307693,4327.692307,3720.512821,3776.410257
23,4078.461538,4216.410256,4371.282051,4016.410256,4523.076923,3956.923077,4166.153846,3950.769231,4016.410256,4211.794871,3791.282052,4328.717948,3717.435898,3777.435898
24,4081.025641,4222.564102,4376.410256,4024.102564,4521.538461,3954.871795,4166.153846,3953.846154,4020.512820,4216.410256,3795.384616,4330.256410,3721.538462,3785.641026
25,4086.666666,4233.333333,4375.897435,4031.794871,4525.128205,3955.897436,4169.743589,3954.358975,4022.051282,4214.358974,3797.948718,4330.256410,3731.794872,3791.794872
26,4091.282051,4237.435897,4378.974358,4033.333333,4529.743589,3958.974359,4166.666666,3958.461539,4020.000000,4214.358974,3796.410257,4335.897435,3741.538462,3792.820513
27,4089.743589,4231.794871,4380.000000,4030.256410,4527.692307,3961.025642,4163.589743,3962.051283,4025.128205,4222.051282,3803.076924,4340.000000,3740.512821,3791.794872
28,4087.692307,4227.179487,4377.948717,4026.153846,4528.205128,3962.564103,4172.307692,3965.641026,4033.846153,4227.692307,3808.205129,4334.358974,3732.820513,3791.282052
29,4085.641025,4226.153846,4376.410256,4021.538461,4532.820512,3963.589744,4179.487179,3970.256411,4035.897435,4219.487179,3796.410257,4327.692307,3726.153847,3788.717949
30,4082.051282,4221.538461,4373.846153,4018.974358,4528.205128,3964.102565,4175.384615,3969.743590,4033.846153,4209.230769,3792.820513,4330.256410,3724.102565,3785.128206
31,4081.025641,4220.000000,4375.384615,4020.512820,4518.974358,3963.589744,4172.820512,3967.692308,4030.256410,4212.307692,3806.666667,4334.871794,3727.179488,3787.692308
32,4085.641025,4222.051282,4381.538461,4023.589743,4521.538461,3960.512821,4175.384615,3972.307693,4028.717948,4216.923076,3810.769231,4336.410256,3730.256411,3792.307693
33,4085.641025,4222.051282,4382.051282,4021.538461,4524.102564,3957.435898,4173.846153,3974.871795,4031.794871,4212.820512,3805.128206,4334.871794,3728.717949,3790.256411
34,4079.487179,4219.487179,4374.871794,4017.435897,4521.538461,3956.410257,4168.717948,3970.256411,4030.769230,4206.666666,3800.000000,4329.743589,3722.051283,3784.102565
35,4075.897435,4217.435897,4369.230769,4018.974358,4523.589743,3958.461539,4170.256410,3965.128206,4024.102564,4203.076923,3789.743590,4321.538461,3714.871795,3778.461539
36,4076.923076,4217.948717,4369.743589,4021.538461,4524.102564,3961.025642,4173.846153,3961.025642,4017.435897,4204.102564,3784.615385,4317.435897,3712.307693,3774.358975
37,4076.923076,4220.512820,4370.769230,4021.025641,4522.564102,3958.974359,4173.846153,3960.000000,4017.435897,4206.153846,3791.794872,4317.948717,3712.307693,3773.333334
38,4074.871794,4219.487179,4367.179487,4019.487179,4522.051282,3955.897436,4172.307692,3960.000000,4021.538461,4201.538461,3790.769231,4316.410256,3710.769231,3772.307693
39,4073.333333,4216.923076,4362.051282,4016.923076,4522.051282,3957.948718,4168.717948,3959.487180,4020.000000,4197.435897,3785.641026,4315.384615,3711.282052,3772.820513
40,4073.333333,4214.871794,4360.000000,4015.384615,4522.051282,3956.923077,4163.076923,3959.487180,4015.384615,4205.128205,3790.769231,4318.974358,3715.384616,3776.410257
41,4076.923076,4216.410256,4361.025641,4017.435897,4521.538461,3950.256411,4161.538461,3959.487180,4021.538461,4210.769230,3798.974359,4322.051282,3721.025642,3777.948718
42,4081.538461,4217.948717,4365.128205,4019.487179,4517.435897,3948.205129,4164.102564,3963.076924,4028.717948,4207.692307,3800.000000,4325.128205,3723.076924,3777.948718
43,4081.538461,4217.948717,4369.743589,4020.000000,4515.384615,3950.769231,4165.128205,3967.692308,4027.692307,4209.743589,3800.512821,4331.282051,3723.589744,3784.102565
44,4080.512820,4216.923076,4369.743589,4019.487179,4518.461538,3953.846154,4170.256410,3969.743590,4027.692307,4213.333333,3806.666667,4331.282051,3723.076924,3789.230770
45,4083.076923,4213.846153,4367.692307,4015.384615,4522.564102,3958.461539,4178.461538,3969.743590,4029.743589,4210.769230,3807.179488,4327.692307,3720.512821,3786.153847
46,4080.000000,4210.256410,4365.641025,4013.333333,4523.589743,3960.512821,4175.897435,3974.871795,4032.820512,4211.282051,3797.948718,4326.666666,3715.897436,3780.512821
47,4070.769230,4207.179487,4361.025641,4014.358974,4516.923076,3955.384616,4166.153846,3972.307693,4031.794871,4210.769230,3787.692308,4322.051282,3708.205129,3775.384616
48,4066.666666,4207.692307,4356.923076,4010.769230,4512.307692,3950.769231,4163.076923,3957.435898,4021.025641,4202.051282,3786.666667,4315.384615,3705.128206,3770.769231
49,4070.769230,4209.743589,4360.000000,4007.692307,4517.948717,3952.307693,4167.179487,3951.794872,4011.282051,4197.435897,3791.282052,4315.384615,3709.230770,3771.282052
50,4074.358974,4214.358974,4361.025641,4011.794871,4523.076923,3953.333334,4165.641025,3958.461539,4011.794871,4200.000000,3791.282052,4319.487179,3712.307693,3774.358975
51,4070.256410,4212.820512,4356.410256,4013.846153,4522.564102,3950.256411,4161.538461,3957.948718,4012.820512,4197.948717,3789.230770,4317.435897,3706.153847,3774.358975
52,4065.128205,4207.179487,4355.897435,4010.769230,4518.461538,3949.230770,4160.000000,3948.205129,4009.230769,4192.307692,3791.282052,4311.794871,3698.974359,3769.230770
53,4065.641025,4207.692307,4356.410256,4005.641025,4513.846153,3949.743590,4158.974358,3946.153847,4008.717948,4192.307692,3792.820513,4311.794871,3700.512821,3764.615385
54,4068.205128,4211.282051,4355.384615,4003.589743,4515.897435,3950.769231,4161.025641,3952.820513,4016.923076,4201.025641,3794.871795,4316.923076,3709.230770,3767.692308
55,4072.307692,4215.897435,4361.025641,4009.743589,4520.000000,3953.846154,4165.641025,3962.051283,4029.743589,4214.871794,3802.051283,4321.025641,3720.000000,3777.435898
56,4074.871794,4217.435897,4363.589743,4014.871794,4519.487179,3952.307693,4166.153846,3965.128206,4030.256410,4218.974358,3802.564103,4320.000000,3723.076924,3779.487180
57,4065.641025,4207.692307,4353.333333,4007.692307,4514.871794,3944.615385,4161.025641,3953.333334,4017.435897,4205.641025,3792.307693,4312.307692,3710.769231,3767.179488
58,4052.820512,4196.923076,4343.076923,3998.461539,4510.769230,3938.974359,4155.897435,3939.487180,4007.179487,4194.871794,3784.615385,4301.538461,3696.923077,3755.897436
59,4051.794871,4196.923076,4341.538461,3997.435898,4512.307692,3941.025642,4154.358974,3933.846154,4002.051282,4192.820512,3776.410257,4297.435897,3693.846154,3753.846154
60,4056.923076,4201.025641,4343.076923,4000.000000,4517.435897,3946.153847,4155.897435,3936.410257,3998.461539,4188.205128,3776.410257,4300.000000,3695.897436,3755.897436
61,4057.948717,4203.076923,4345.641025,4004.615384,4518.974358,3948.717949,4161.538461,3944.102565,4000.512820,4184.102564,3789.230770,4301.538461,3697.948718,3758.974359
62,4061.538461,4206.153846,4348.717948,4008.717948,4518.974358,3949.743590,4165.641025,3950.256411,4009.230769,4191.282051,3793.333334,4301.025641,3701.025642,3763.589744
63,4064.615384,4208.205128,4348.717948,4006.666666,4517.948717,3950.256411,4162.564102,3948.205129,4014.358974,4197.435897,3789.230770,4301.025641,3702.051283,3765.641026
64,4055.384615,4201.538461,4340.000000,3996.923077,4509.743589,3947.179488,4156.410256,3940.000000,4009.743589,4192.820512,3788.205129,4295.897435,3693.846154,3758.974359
65,4049.743589,4194.358974,4336.410256,3994.871795,4506.153846,3943.589744,4154.871794,3940.000000,4006.153846,4188.717948,3782.051283,4291.794871,3689.230770,3755.384616
66,4063.589743,4205.128205,4352.307692,4005.128205,4513.333333,3949.230770,4161.025641,3949.743590,4012.307692,4196.923076,3787.692308,4307.692307,3703.076924,3768.205129
67,4073.846153,4215.897435,4363.076923,4005.128205,4518.974358,3952.307693,4162.564102,3952.307693,4014.358974,4201.538461,3804.615385,4322.051282,3714.358975,3777.948718
68,4067.692307,4210.769230,4355.384615,4000.512820,4520.000000,3945.641026,4157.435897,3945.641026,4010.256410,4194.358974,3801.538462,4316.410256,3704.615385,3773.333334
69,4068.717948,4210.769230,4356.923076,4013.846153,4523.589743,3949.230770,4161.538461,3950.256411,4016.923076,4196.923076,3794.871795,4314.871794,3701.025642,3773.846154
70,4082.051282,4224.102564,4368.205128,4028.205128,4529.743589,3960.000000,4174.358974,3966.153847,4029.230769,4210.769230,3811.794872,4326.666666,3715.897436,3784.102565
71,4082.564102,4224.615384,4364.102564,4020.000000,4526.153846,3959.487180,4173.846153,3970.256411,4030.256410,4215.897435,3824.102565,4326.666666,3720.512821,3785.128206
72,4068.717948,4210.256410,4351.794871,4007.179487,4518.461538,3951.794872,4162.564102,3958.974359,4022.564102,4208.205128,3812.307693,4313.846153,3709.230770,3775.897436
73,4062.051282,4205.641025,4352.307692,4007.179487,4520.512820,3952.820513,4164.102564,3952.307693,4022.051282,4205.128205,3805.128206,4310.769230,3707.179488,3772.307693
74,4066.153846,4209.743589,4355.384615,4010.256410,4523.076923,3957.435898,4171.282051,3956.923077,4027.179487,4205.641025,3809.743590,4314.358974,3710.769231,3772.307693
75,4063.589743,4207.692307,4354.358974,4005.128205,4522.051282,3953.846154,4165.641025,3956.410257,4024.102564,4197.948717,3803.076924,4309.743589,3702.051283,3764.102565
76,4059.487179,4205.128205,4354.871794,4001.025641,4524.102564,3949.743590,4162.564102,3950.256411,4018.974358,4193.846153,3794.358975,4303.589743,3693.333334,3759.487180
77,4062.051282,4209.743589,4357.435897,4005.128205,4522.564102,3952.307693,4167.179487,3948.717949,4015.384615,4197.435897,3797.435898,4307.179487,3692.820513,3764.102565
78,4065.641025,4208.717948,4357.948717,4005.128205,4519.487179,3956.410257,4168.717948,3949.743590,4013.846153,4195.897435,3802.051283,4308.717948,3693.333334,3769.230770
79,4064.102564,4202.051282,4353.333333,4000.000000,4524.102564,3954.871795,4165.128205,3946.666667,4015.384615,4192.820512,3798.461539,4301.538461,3693.846154,3767.179488
80,4057.948717,4198.461538,4348.717948,3999.487180,4521.025641,3948.717949,4160.512820,3944.615385,4015.384615,4192.820512,3794.871795,4298.461538,3693.846154,3760.512821
81,4053.333333,4198.974358,4347.692307,3998.461539,4510.256410,3942.051283,4157.435897,3945.128206,4013.333333,4191.282051,3788.717949,4300.512820,3693.333334,3755.384616
82,4055.897435,4197.948717,4349.230769,3996.410257,4513.333333,3942.564103,4157.948717,3944.615385,4013.333333,4188.717948,3780.000000,4299.487179,3692.820513,3755.897436
83,4063.589743,4201.025641,4353.846153,3999.487180,4519.487179,3949.743590,4164.102564,3946.153847,4018.461538,4193.333333,3789.230770,4303.076923,3694.358975,3763.589744
84,4066.153846,4209.230769,4358.974358,4003.076923,4515.897435,3951.282052,4168.205128,3951.794872,4024.102564,4199.487179,3805.128206,4310.256410,3697.435898,3770.769231
85,4060.512820,4207.692307,4358.974358,3998.461539,4512.820512,3949.230770,4166.666666,3953.846154,4020.512820,4196.923076,3794.871795,4307.179487,3696.410257,3768.205129
86,4054.358974,4196.410256,4353.846153,3993.846154,4511.794871,3952.820513,4169.743589,3949.743590,4012.307692,4187.179487,3772.820513,4301.025641,3685.128206,3757.435898
87,4052.307692,4190.256410,4354.871794,3996.410257,4506.666666,3953.846154,4172.820512,3948.205129,4012.307692,4181.025641,3774.871795,4301.538461,3671.794872,3752.820513
88,4054.358974,4193.846153,4358.974358,4001.538461,4506.666666,3951.794872,4168.717948,3949.230770,4016.410256,4184.615384,3787.692308,4305.641025,3674.871795,3755.897436
89,4058.974358,4200.000000,4358.974358,4002.564102,4510.769230,3952.307693,4163.076923,3948.205129,4013.846153,4188.717948,3789.743590,4308.205128,3687.179488,3760.000000
90,4064.102564,4204.615384,4361.025641,4003.076923,4509.743589,3950.256411,4164.615384,3946.666667,4011.282051,4187.692307,3789.230770,4308.205128,3687.179488,3762.564103
91,4067.692307,4208.717948,4365.128205,4007.179487,4509.743589,3950.256411,4168.205128,3946.666667,4017.435897,4189.230769,3794.358975,4307.692307,3684.615385,3767.179488
92,4071.282051,4209.743589,4365.641025,4011.794871,4508.205128,3955.384616,4169.230769,3950.769231,4025.128205,4198.974358,3796.923077,4311.282051,3695.897436,3772.307693
93,4069.743589,4206.153846,4362.051282,4007.179487,4506.153846,3955.384616,4165.128205,3948.205129,4022.564102,4202.564102,3792.307693,4313.333333,3698.974359,3770.769231
94,4060.512820,4200.512820,4350.769230,3994.358975,4507.179487,3949.230770,4157.435897,3935.384616,4013.333333,4195.384615,3780.512821,4304.615384,3689.743590,3763.589744
95,4057.435897,4203.589743,4346.666666,3994.871795,4505.128205,3947.179488,4156.923076,3932.820513,4011.282051,4195.384615,3770.769231,4301.025641,3691.794872,3763.076924
96,4071.282051,4214.358974,4357.948717,4011.794871,4502.564102,3955.384616,4166.153846,3947.692308,4022.051282,4207.179487,3779.487180,4313.846153,3704.615385,3774.871795
97,4085.641025,4220.512820,4368.205128,4020.000000,4510.769230,3963.076924,4176.410256,3959.487180,4035.384615,4217.948717,3793.333334,4326.153846,3716.410257,3786.666667
98,4086.153846,4223.589743,4369.230769,4016.410256,4518.974358,3964.102565,4180.000000,3963.076924,4042.051282,4223.589743,3797.948718,4328.205128,3722.564103,3790.256411
99,4078.974358,4224.615384,4368.717948,4013.846153,4512.820512,3964.615385,4176.410256,3965.641026,4038.461538,4225.641025,3795.384616,4327.179487,3718.461539,3788.717949
100,4076.923076,4223.589743,4367.179487,4013.333333,4508.205128,3965.128206,4175.897435,3962.564103,4034.358974,4218.461538,3789.230770,4323.589743,3711.282052,3784.102565
101,4077.435897,4220.512820,4364.102564,4012.820512,4508.205128,3962.051283,4176.923076,3955.384616,4033.846153,4209.743589,3785.641026,4321.025641,3708.205129,3781.538462
102,4076.923076,4217.948717,4364.102564,4015.384615,4508.205128,3963.076924,4175.897435,3955.384616,4031.794871,4208.717948,3788.205129,4326.153846,3704.102565,3781.538462
103,4074.871794,4216.410256,4365.128205,4016.410256,4510.256410,3964.102565,4177.435897,3958.461539,4029.743589,4206.666666,3789.230770,4326.666666,3702.051283,3779.487180
104,4074.358974,4221.538461,4364.615384,4014.871794,4511.794871,3959.487180,4176.923076,3956.410257,4033.333333,4206.666666,3790.256411,4324.615384,3706.153847,3779.487180
105,4078.974358,4226.153846,4364.102564,4015.897435,4507.692307,3957.948718,4174.358974,3956.410257,4036.923076,4214.871794,3796.410257,4329.230769,3711.794872,3783.589744
106,4081.538461,4221.538461,4365.641025,4016.410256,4504.102564,3960.000000,4174.358974,3962.564103,4036.923076,4216.410256,3793.333334,4330.769230,3717.948718,3784.615385
107,4081.538461,4219.487179,4370.256410,4017.435897,4510.256410,3960.000000,4178.974358,3967.179488,4041.025641,4212.820512,3790.769231,4330.256410,3721.538462,3787.179488
108,4086.666666,4223.076923,4373.333333,4019.487179,4514.358974,3961.538462,4180.512820,3966.666667,4043.589743,4216.410256,3801.025642,4338.461538,3718.974359,3792.307693
109,4089.230769,4224.615384,4372.820512,4018.461538,4508.717948,3965.128206,4177.435897,3958.461539,4034.871794,4214.871794,3804.102565,4340.512820,3717.948718,3790.256411
110,4089.230769,4222.564102,4371.282051,4023.589743,4508.205128,3965.128206,4175.384615,3953.846154,4030.769230,4207.179487,3795.897436,4331.282051,3722.051283,3785.128206
111,4093.333333,4226.153846,4373.333333,4029.743589,4514.871794,3963.589744,4178.461538,3957.948718,4037.435897,4211.794871,3794.871795,4330.256410,3725.641026,3786.153847
112,4091.282051,4227.692307,4372.307692,4022.564102,4514.358974,3965.641026,4178.461538,3956.410257,4038.461538,4216.923076,3798.461539,4333.846153,3725.128206,3785.641026
113,4083.076923,4219.487179,4364.615384,4013.846153,4505.641025,3964.102565,4168.717948,3948.205129,4029.230769,4208.717948,3793.846154,4325.128205,3719.487180,3778.461539
114,4087.179487,4215.384615,4366.153846,4022.051282,4501.025641,3961.538462,4163.589743,3950.256411,4030.769230,4206.153846,3792.307693,4322.051282,3719.487180,3775.897436
115,4095.897435,4223.076923,4373.846153,4027.692307,4502.564102,3962.564103,4166.153846,3961.025642,4043.076923,4216.923076,3794.871795,4331.794871,3729.230770,3782.051283
116,4089.230769,4223.076923,4370.256410,4018.461538,4504.102564,3963.076924,4163.589743,3958.974359,4038.974358,4212.820512,3786.666667,4330.256410,3725.128206,3779.487180
117,4078.974358,4215.384615,4360.512820,4014.358974,4503.076923,3960.000000,4158.461538,3950.769231,4026.153846,4198.461538,3778.974359,4315.897435,3709.743590,3769.230770
118,4084.615384,4216.923076,4362.564102,4022.564102,4502.051282,3960.512821,4162.051282,3954.358975,4032.307692,4204.102564,3788.205129,4321.538461,3715.384616,3771.794872
119,4097.435897,4224.615384,4372.820512,4025.641025,4507.179487,3965.641026,4171.282051,3965.641026,4048.205128,4223.076923,3801.538462,4339.487179,3734.871795,3785.641026
120,4099.487179,4228.717948,4373.333333,4019.487179,4510.769230,3966.666667,4172.820512,3967.179488,4047.179487,4220.512820,3803.589744,4337.948717,3739.487180,3790.769231
121,4091.282051,4225.641025,4366.153846,4015.384615,4501.025641,3958.974359,4163.076923,3957.435898,4036.923076,4207.692307,3798.461539,4326.153846,3732.820513,3782.564103
122,4085.128205,4215.384615,4362.564102,4013.846153,4492.820512,3952.820513,4155.384615,3950.769231,4035.384615,4208.717948,3791.282052,4324.102564,3730.769231,3774.358975
123,4082.051282,4208.205128,4360.000000,4009.743589,4500.000000,3957.948718,4161.025641,3951.282052,4035.897435,4208.205128,3790.769231,4323.076923,3724.102565,3772.307693
124,4081.025641,4208.205128,4356.923076,4011.794871,4505.128205,3962.564103,4167.692307,3951.794872,4029.743589,4201.538461,3800.000000,4321.538461,3718.461539,3772.307693
125,4085.128205,4210.256410,4360.000000,4014.871794,4499.487179,3957.948718,4162.051282,3951.282052,4030.769230,4206.153846,3803.076924,4328.205128,3723.076924,3775.384616
126,4086.153846,4209.230769,4365.641025,4008.205128,4494.871794,3951.794872,4155.897435,3955.384616,4040.512820,4210.769230,3795.384616,4330.256410,3724.615385,3775.897436
127,4086.153846,4212.820512,4366.153846,4010.256410,4497.948717,3952.820513,4157.948717,3958.974359,4041.025641,4206.666666,3792.307693,4328.717948,3719.487180,3774.358975
128,4094.358974,4221.538461,4364.615384,4023.076923,4503.589743,3958.461539,4161.025641,3959.487180,4038.461538,4210.256410,3798.461539,4335.384615,3726.666667,3779.487180
129,4097.435897,4224.102564,4366.153846,4023.076923,4506.153846,3962.051283,4164.615384,3963.076924,4045.128205,4223.076923,3804.615385,4338.461538,3742.051283,3787.179488
130,4093.333333,4223.076923,4367.179487,4013.846153,4507.692307,3967.692308,4171.794871,3970.256411,4053.333333,4229.230769,3807.179488,4334.871794,3747.692308,3789.230770
131,4094.871794,4224.615384,4365.641025,4014.871794,4510.256410,3970.256411,4177.435897,3969.743590,4052.820512,4228.205128,3812.307693,4337.948717,3740.512821,3790.256411
132,4098.461538,4228.205128,4368.205128,4022.564102,4509.743589,3967.179488,4172.307692,3965.641026,4051.794871,4227.692307,3817.948718,4341.538461,3738.461539,3791.794872
133,4096.923076,4228.717948,4370.256410,4025.128205,4503.589743,3963.076924,4162.564102,3960.512821,4050.769230,4227.692307,3813.846154,4337.435897,3742.051283,3788.205129
134,4092.820512,4224.615384,4365.128205,4018.461538,4500.512820,3957.948718,4158.461538,3956.923077,4046.153846,4218.974358,3805.128206,4332.307692,3735.897436,3782.051283
135,4092.820512,4224.615384,4366.153846,4016.923076,4507.179487,3957.948718,4163.589743,3962.051283,4044.615384,4213.333333,3809.743590,4334.358974,3730.256411,3783.589744
136,4094.358974,4228.717948,4370.769230,4021.025641,4507.692307,3961.025642,4163.589743,3962.564103,4047.179487,4217.435897,3812.307693,4334.358974,3729.743590,3785.128206
137,4087.692307,4224.615384,4362.051282,4014.871794,4500.000000,3957.435898,4155.384615,3955.897436,4044.102564,4211.794871,3801.538462,4325.641025,3718.974359,3777.435898
138,4077.948717,4211.794871,4352.820512,4005.641025,4497.948717,3952.820513,4156.410256,3953.846154,4038.461538,4199.487179,3793.333334,4321.025641,3711.282052,3769.230770
139,4078.974358,4207.692307,4357.948717,4007.692307,4500.512820,3953.846154,4164.102564,3959.487180,4041.025641,4201.538461,3793.846154,4324.102564,3722.051283,3772.307693
140,4084.615384,4214.358974,4362.051282,4014.871794,4494.871794,3952.820513,4163.076923,3962.564103,4046.666666,4208.205128,3795.384616,4326.153846,3727.179488,3779.487180
141,4084.102564,4217.948717,4364.615384,4017.948717,4489.230769,3950.769231,4160.000000,3961.538462,4044.102564,4208.205128,3803.589744,4327.179487,3719.487180,3782.564103
142,4087.179487,4217.435897,4375.384615,4018.461538,4491.794871,3954.871795,4166.153846,3965.128206,4044.615384,4210.769230,3808.717949,4333.846153,3724.102565,3785.128206
143,4091.794871,4217.435897,4380.000000,4014.358974,4496.410256,3957.435898,4169.230769,3966.666667,4047.692307,4212.820512,3797.948718,4334.871794,3728.717949,3785.128206
144,4082.051282,4211.282051,4369.743589,4008.717948,4498.461538,3956.410257,4162.564102,3957.435898,4040.512820,4206.153846,3789.743590,4325.641025,3713.846154,3775.384616
145,4069.230769,4204.102564,4358.974358,4008.205128,4497.435897,3955.897436,4161.538461,3949.230770,4033.333333,4197.435897,3792.820513,4316.923076,3702.564103,3763.076924
146,4066.666666,4203.589743,4357.948717,4007.179487,4494.871794,3955.384616,4168.717948,3953.333334,4034.871794,4193.846153,3789.743590,4313.846153,3702.051283,3758.974359
147,4068.205128,4204.102564,4360.512820,4002.564102,4494.358974,3955.897436,4168.717948,3953.846154,4033.333333,4194.358974,3782.564103,4312.820512,3698.461539,3763.076924
148,4068.205128,4203.076923,4359.487179,4001.538461,4496.923076,3957.435898,4163.589743,3950.769231,4031.282051,4195.897435,3784.615385,4313.846153,3701.538462,3766.666667
149,4074.871794,4206.666666,4362.564102,4007.692307,4500.000000,3956.410257,4163.589743,3956.410257,4036.923076,4201.025641,3789.743590,4320.512820,3713.333334,3771.282052
150,4081.025641,4205.641025,4369.743589,4012.307692,4498.461538,3954.871795,4164.615384,3957.435898,4036.923076,4205.128205,3794.358975,4324.615384,3715.897436,3776.410257
151,4075.384615,4200.000000,4370.769230,4008.205128,4490.769230,3953.333334,4164.102564,3950.769231,4032.307692,4200.000000,3798.461539,4323.589743,3710.769231,3773.846154
152,4068.205128,4197.435897,4363.076923,4001.538461,4487.692307,3950.256411,4165.128205,3947.179488,4031.282051,4192.307692,3794.871795,4317.435897,3707.692308,3764.615385
153,4063.589743,4197.948717,4356.923076,4000.000000,4493.333333,3951.282052,4165.128205,3948.205129,4031.282051,4196.923076,3793.846154,4314.358974,3705.641026,3762.051283
154,4065.128205,4202.564102,4361.538461,4001.025641,4497.435897,3960.000000,4164.615384,3951.282052,4038.974358,4208.717948,3800.512821,4318.974358,3711.282052,3768.717949
155,4071.794871,4206.153846,4367.179487,4006.153846,4499.487179,3962.051283,4165.641025,3952.820513,4044.102564,4209.230769,3801.538462,4324.102564,3713.846154,3772.820513
156,4071.282051,4201.538461,4365.128205,4008.717948,4498.461538,3952.307693,4157.948717,3949.230770,4035.384615,4196.923076,3796.923077,4320.512820,3705.641026,3765.641026
157,4064.615384,4200.000000,4363.076923,4009.230769,4494.871794,3943.076924,4146.153846,3943.076924,4026.153846,4188.205128,3793.333334,4312.307692,3702.051283,3760.512821
158,4065.641025,4207.179487,4357.948717,4010.256410,4490.256410,3943.076924,4147.692307,3937.948718,4024.615384,4189.743589,3790.769231,4309.743589,3704.615385,3764.102565
159,4067.692307,4204.615384,4350.769230,4006.153846,4489.743589,3944.102565,4153.333333,3933.333334,4018.974358,4191.282051,3785.128206,4306.666666,3697.948718,3764.102565
160,4063.076923,4193.846153,4350.769230,4000.000000,4491.282051,3945.641026,4153.333333,3935.897436,4016.410256,4186.666666,3784.615385,4300.512820,3689.743590,3756.923077
161,4062.051282,4192.820512,4353.333333,3999.487180,4492.307692,3952.307693,4158.461538,3944.615385,4028.205128,4190.256410,3788.717949,4303.076923,3692.307693,3756.410257
162,4067.179487,4199.487179,4354.871794,4002.564102,4492.820512,3957.435898,4166.666666,3950.256411,4040.000000,4201.538461,3793.333334,4311.282051,3699.487180,3762.051283
163,4068.717948,4204.615384,4357.948717,4006.153846,4496.410256,3954.871795,4165.641025,3951.282052,4038.974358,4201.025641,3793.333334,4312.307692,3703.589744,3765.128206
164,4066.666666,4206.153846,4358.461538,4012.307692,4496.410256,3951.282052,4161.538461,3946.666667,4029.743589,4190.256410,3782.564103,4305.128205,3700.000000,3762.051283
165,4067.692307,4210.769230,4357.948717,4011.794871,4493.333333,3956.410257,4163.076923,3944.615385,4029.230769,4190.769230,3783.076924,4307.692307,3694.358975,3760.512821
166,4071.794871,4215.897435,4362.564102,4012.307692,4500.000000,3961.538462,4164.102564,3950.769231,4034.358974,4201.025641,3796.923077,4313.846153,3699.487180,3766.666667
167,4072.820512,4210.769230,4365.641025,4016.410256,4503.589743,3958.461539,4163.076923,3951.282052,4029.743589,4200.512820,3796.923077,4312.307692,3707.179488,3771.794872
168,4072.307692,4207.179487,4365.128205,4012.820512,4496.410256,3959.487180,4167.179487,3950.769231,4030.256410,4197.435897,3794.358975,4315.384615,3711.794872,3770.256411
169,4077.435897,4214.358974,4369.743589,4010.769230,4497.948717,3966.666667,4174.871794,3957.948718,4041.025641,4206.666666,3807.179488,4324.615384,3716.410257,3775.384616
170,4084.102564,4218.461538,4375.384615,4014.871794,4503.076923,3964.102565,4178.974358,3962.564103,4042.051282,4213.846153,3814.871795,4329.230769,3713.333334,3783.589744
171,4085.128205,4211.794871,4374.358974,4018.461538,4500.512820,3955.897436,4173.333333,3962.564103,4040.512820,4213.846153,3811.282052,4330.769230,3709.743590,3783.076924
172,4084.102564,4208.205128,4370.769230,4016.923076,4494.358974,3955.897436,4167.179487,3965.641026,4045.641025,4214.358974,3813.846154,4332.307692,3715.384616,3782.051283
173,4081.538461,4209.743589,4371.282051,4013.846153,4495.897435,3957.948718,4171.282051,3968.205129,4051.282051,4217.435897,3813.846154,4328.205128,3718.461539,3782.564103
174,4073.333333,4209.230769,4372.307692,4011.282051,4500.512820,3956.923077,4173.333333,3966.153847,4052.307692,4219.487179,3807.692308,4323.076923,3713.333334,3780.000000
175,4065.641025,4205.641025,4368.717948,4009.743589,4501.538461,3957.435898,4167.692307,3964.615385,4049.743589,4216.410256,3807.179488,4318.974358,3711.282052,3772.820513
176,4069.230769,4208.205128,4367.692307,4011.282051,4496.923076,3961.025642,4170.256410,3965.641026,4048.717948,4212.820512,3806.666667,4317.435897,3710.769231,3772.820513
177,4078.461538,4215.897435,4372.307692,4013.846153,4499.487179,3964.615385,4180.512820,3966.153847,4049.743589,4216.923076,3806.666667,4322.051282,3709.743590,3781.025642
178,4082.564102,4219.487179,4375.897435,4018.461538,4510.769230,3968.205129,4180.000000,3966.666667,4052.820512,4221.538461,3814.358975,4328.717948,3715.897436,3783.589744
179,4085.128205,4221.025641,4373.333333,4020.512820,4511.794871,3970.256411,4176.410256,3967.692308,4054.358974,4220.512820,3824.102565,4328.717948,3724.615385,3783.076924
180,4083.589743,4222.051282,4369.743589,4014.358974,4503.076923,3966.666667,4176.410256,3965.128206,4051.794871,4218.461538,3820.512821,4325.128205,3725.641026,3783.076924
181,4083.589743,4221.538461,4372.820512,4011.794871,4500.000000,3965.641026,4176.923076,3964.102565,4052.307692,4224.615384,3818.974359,4331.282051,3723.076924,3785.128206
182,4092.307692,4226.153846,4378.461538,4020.000000,4503.589743,3965.128206,4178.974358,3968.717949,4056.410256,4231.794871,3834.358975,4339.487179,3728.205129,3791.794872
183,4093.846153,4226.153846,4372.820512,4024.102564,4503.589743,3960.000000,4176.410256,3968.205129,4051.794871,4224.615384,3835.384616,4334.358974,3728.205129,3792.820513
184,4082.051282,4219.487179,4363.589743,4018.461538,4497.435897,3958.974359,4174.358974,3962.051283,4046.666666,4214.358974,3818.461539,4326.153846,3718.461539,3784.102565
185,4077.435897,4218.461538,4364.102564,4020.000000,4502.564102,3963.589744,4175.897435,3961.538462,4053.846153,4218.461538,3817.435898,4326.153846,3712.820513,3779.487180
186,4085.128205,4223.589743,4368.205128,4029.743589,4510.769230,3966.666667,4177.435897,3967.179488,4058.974358,4226.153846,3828.205129,4328.717948,3715.384616,3784.102565
187,4086.153846,4222.564102,4372.307692,4027.179487,4507.179487,3967.179488,4177.435897,3968.205129,4054.358974,4223.076923,3827.179488,4330.256410,3717.435898,3785.128206
188,4082.564102,4218.974358,4372.820512,4013.846153,4505.641025,3968.205129,4178.461538,3964.615385,4052.820512,4220.000000,3820.512821,4330.256410,3718.974359,3783.589744
189,4084.102564,4224.102564,4372.307692,4015.897435,4507.179487,3966.666667,4178.461538,3965.128206,4058.974358,4223.589743,3823.076924,4328.205128,3721.025642,3788.205129
190,4086.153846,4224.615384,4371.794871,4027.692307,4506.153846,3965.128206,4176.923076,3967.179488,4061.025641,4222.051282,3825.128206,4327.179487,3716.923077,3789.743590
191,4081.025641,4215.897435,4365.128205,4022.564102,4506.666666,3963.589744,4173.333333,3960.512821,4051.282051,4212.307692,3815.897436,4323.589743,3712.307693,3784.102565
192,4075.897435,4211.794871,4360.000000,4015.384615,4506.153846,3962.564103,4171.794871,3954.358975,4042.051282,4208.205128,3810.769231,4320.000000,3715.897436,3783.076924
193,4085.641025,4217.435897,4367.692307,4020.000000,4505.641025,3968.717949,4178.461538,3961.025642,4047.179487,4214.358974,3823.589744,4327.692307,3723.076924,3792.820513
194,4095.384615,4225.641025,4374.871794,4025.128205,4508.717948,3971.794872,4184.102564,3967.692308,4052.307692,4218.461538,3830.769231,4335.897435,3723.076924,3796.923077
195,4091.282051,4229.230769,4373.846153,4027.179487,4511.794871,3965.641026,4178.974358,3963.076924,4048.717948,4214.871794,3823.589744,4332.307692,3714.871795,3791.794872
196,4087.692307,4231.282051,4374.358974,4032.307692,4510.769230,3964.102565,4175.384615,3960.000000,4046.666666,4213.333333,3821.025642,4328.205128,3711.282052,3788.717949
197,4092.307692,4228.717948,4372.307692,4032.820512,4509.230769,3967.692308,4178.461538,3961.025642,4044.615384,4211.282051,3820.512821,4327.692307,3713.333334,3788.205129
198,4089.230769,4223.589743,4369.230769,4026.153846,4505.128205,3963.076924,4176.923076,3959.487180,4042.051282,4207.692307,3820.000000,4325.128205,3715.384616,3786.666667
199,4085.128205,4223.076923,4370.769230,4024.102564,4506.666666,3961.538462,4174.358974,3960.000000,4045.128205,4211.794871,3824.102565,4325.641025,3715.384616,3788.717949
200,4089.230769,4226.666666,4372.307692,4025.641025,4510.769230,3966.666667,4178.461538,3969.230770,4051.282051,4219.487179,3824.615385,4330.769230,3718.974359,3791.794872
201,4091.794871,4228.717948,4371.282051,4027.179487,4508.205128,3967.179488,4183.076923,3975.384616,4054.358974,4223.589743,3824.102565,4331.282051,3725.128206,3793.846154
202,4091.282051,4226.153846,4376.410256,4029.230769,4512.307692,3966.666667,4180.512820,3971.282052,4056.410256,4221.538461,3826.153847,4331.282051,3726.153847,3794.871795
203,4095.897435,4225.641025,4382.051282,4028.717948,4518.461538,3969.230770,4180.000000,3967.692308,4060.000000,4223.589743,3824.615385,4336.923076,3726.153847,3797.435898
204,4098.461538,4230.256410,4381.538461,4025.641025,4514.358974,3970.769231,4186.666666,3969.230770,4060.512820,4229.743589,3828.205129,4342.051282,3729.230770,3802.051283
205,4097.435897,4235.384615,4382.564102,4028.205128,4514.358974,3974.358975,4188.205128,3969.230770,4055.384615,4226.666666,3838.461539,4344.102564,3730.769231,3805.641026
206,4098.461538,4235.897435,4388.717948,4034.871794,4518.461538,3976.923077,4188.205128,3970.769231,4052.307692,4222.051282,3841.025642,4345.641025,3729.230770,3806.153847
207,4101.025641,4232.307692,4390.256410,4032.307692,4516.410256,3974.358975,4188.717948,3974.358975,4056.410256,4225.128205,3836.410257,4346.153846,3730.769231,3805.128206
208,4100.000000,4230.256410,4385.641025,4028.717948,4510.769230,3970.769231,4186.153846,3976.923077,4060.000000,4226.153846,3833.846154,4345.128205,3733.333334,3804.102565
209,4098.974358,4231.794871,4384.615384,4033.846153,4510.769230,3969.230770,4186.666666,3978.974359,4061.538461,4223.076923,3833.846154,4344.102564,3732.307693,3805.641026
210,4099.487179,4228.717948,4384.102564,4035.897435,4513.333333,3967.179488,4186.666666,3974.871795,4058.974358,4224.102564,3835.384616,4341.538461,3728.205129,3805.641026
211,4099.487179,4223.076923,4381.538461,4031.282051,4514.358974,3969.230770,4181.025641,3970.769231,4054.358974,4221.538461,3834.871795,4338.461538,3725.128206,3803.589744
212,4098.461538,4226.666666,4380.512820,4028.205128,4514.871794,3973.333334,4179.487179,3975.384616,4056.410256,4216.923076,3829.743590,4337.435897,3724.102565,3804.102565
213,4102.564102,4236.923076,4382.051282,4031.794871,4516.923076,3974.358975,4186.153846,3979.487180,4062.051282,4222.051282,3829.743590,4339.487179,3726.153847,3807.692308
214,4110.256410,4243.076923,4387.179487,4043.076923,4521.538461,3976.923077,4190.256410,3981.025642,4064.615384,4230.256410,3836.410257,4346.153846,3734.358975,3812.820513
215,4109.743589,4242.051282,4387.179487,4044.102564,4522.051282,3977.948718,4191.794871,3984.615385,4063.589743,4231.282051,3833.846154,4346.666666,3740.000000,3812.820513
216,4100.512820,4236.923076,4379.487179,4029.230769,4520.512820,3972.307693,4187.179487,3981.025642,4059.487179,4223.076923,3821.025642,4336.923076,3731.794872,3805.641026
217,4092.307692,4230.769230,4374.358974,4027.692307,4517.948717,3968.717949,4177.948717,3970.769231,4054.871794,4216.923076,3815.384616,4328.717948,3716.923077,3795.897436
218,4088.205128,4227.179487,4373.846153,4035.897435,4516.923076,3969.230770,4172.820512,3962.564103,4047.692307,4217.435897,3816.923077,4324.102564,3712.820513,3790.769231
219,4091.794871,4234.358974,4371.282051,4033.333333,4523.076923,3969.743590,4172.307692,3962.564103,4046.153846,4220.512820,3815.897436,4322.564102,3723.076924,3796.923077
220,4100.000000,4244.102564,4374.358974,4030.256410,4524.615384,3969.230770,4174.871794,3971.282052,4056.923076,4227.179487,3816.410257,4332.820512,3733.333334,3805.128206
221,4100.512820,4243.076923,4380.000000,4038.974358,4520.000000,3967.692308,4177.435897,3978.974359,4066.153846,4232.820512,3822.564103,4342.051282,3730.769231,3807.179488
222,4100.512820,4238.461538,4378.974358,4044.102564,4521.025641,3970.769231,4181.025641,3980.512821,4067.179487,4234.871794,3829.230770,4340.512820,3727.692308,3808.205129
223,4108.717948,4240.512820,4381.025641,4041.538461,4527.692307,3978.461539,4185.641025,3978.974359,4065.641025,4233.846153,3826.666667,4341.538461,3733.846154,3814.871795
224,4113.333333,4245.128205,4386.666666,4040.512820,4529.230769,3982.051283,4191.282051,3980.000000,4066.153846,4230.769230,3825.128206,4347.179487,3739.487180,3819.487180
225,4111.794871,4244.102564,4384.102564,4043.076923,4523.076923,3980.000000,4189.230769,3980.512821,4065.641025,4231.282051,3830.256411,4349.230769,3740.000000,3818.461539
226,4108.717948,4240.512820,4377.435897,4037.948717,4520.000000,3973.333334,4181.538461,3975.384616,4063.589743,4231.282051,3826.153847,4344.615384,3737.435898,3812.820513
227,4103.589743,4238.974358,4373.846153,4031.282051,4523.076923,3972.307693,4182.051282,3972.820513,4061.538461,4229.743589,3814.358975,4339.487179,3735.384616,3806.153847
228,4101.025641,4238.461538,4374.358974,4034.358974,4523.076923,3974.871795,4184.102564,3977.948718,4062.564102,4229.230769,3813.333334,4340.512820,3738.461539,3806.666667
229,4105.641025,4237.435897,4375.897435,4041.025641,4521.025641,3971.282052,4179.487179,3979.487180,4063.076923,4228.205128,3820.000000,4340.000000,3738.974359,3808.205129
230,4103.589743,4236.410256,4372.820512,4039.487179,4520.512820,3964.615385,4175.897435,3972.307693,4060.512820,4224.102564,3818.461539,4334.871794,3734.871795,3802.051283
231,4095.384615,4235.897435,4370.256410,4035.384615,4520.512820,3969.743590,4177.948717,3968.717949,4061.025641,4222.564102,3808.205129,4332.307692,3733.846154,3794.358975
232,4097.948717,4236.410256,4373.333333,4037.435897,4521.025641,3977.435898,4184.615384,3972.820513,4063.589743,4224.102564,3809.230770,4333.333333,3737.435898,3796.923077
233,4105.128205,4238.461538,4377.435897,4036.923076,4522.564102,3980.512821,4190.256410,3977.948718,4062.051282,4225.128205,3821.538462,4334.358974,3740.512821,3803.589744
234,4102.051282,4238.461538,4373.846153,4034.358974,4524.615384,3984.102565,4186.153846,3978.974359,4061.025641,4228.205128,3820.512821,4335.384615,3739.487180,3800.512821
235,4102.051282,4238.974358,4376.410256,4039.487179,4523.589743,3983.076924,4180.000000,3980.000000,4064.615384,4230.256410,3813.846154,4340.000000,3741.538462,3798.974359
236,4110.769230,4241.538461,4387.179487,4044.615384,4523.589743,3978.461539,4185.641025,3980.000000,4065.641025,4227.179487,3820.512821,4344.102564,3748.717949,3807.179488
237,4110.256410,4242.564102,4386.153846,4039.487179,4523.589743,3977.435898,4186.153846,3974.871795,4059.487179,4226.153846,3826.666667,4344.615384,3748.205129,3806.153847
238,4100.512820,4237.435897,4376.923076,4033.333333,4521.538461,3977.948718,4176.410256,3967.692308,4052.820512,4223.589743,3818.974359,4340.512820,3736.410257,3794.871795
239,4097.435897,4230.256410,4374.358974,4032.820512,4521.025641,3975.897436,4175.384615,3962.564103,4048.205128,4216.923076,3810.256411,4335.897435,3727.179488,3790.769231
240,4100.512820,4234.871794,4378.461538,4035.897435,4523.589743,3972.820513,4179.487179,3960.512821,4048.205128,4216.410256,3805.641026,4336.410256,3730.769231,3793.333334
241,4100.000000,4237.948717,4380.000000,4037.435897,4520.512820,3969.230770,4173.333333,3963.589744,4055.384615,4223.589743,3807.179488,4339.487179,3736.410257,3793.846154
242,4097.948717,4228.205128,4376.923076,4032.307692,4512.820512,3966.153847,4168.717948,3967.692308,4062.564102,4226.666666,3812.820513,4340.000000,3735.897436,3795.384616
243,4101.025641,4225.641025,4375.897435,4031.794871,4514.871794,3966.153847,4176.410256,3970.256411,4063.076923,4224.102564,3810.256411,4340.512820,3732.820513,3798.461539
244,4106.153846,4233.333333,4380.512820,4039.487179,4523.076923,3969.743590,4180.512820,3973.846154,4061.538461,4225.128205,3807.692308,4345.128205,3738.461539,3801.025642
245,4105.641025,4235.897435,4383.589743,4036.923076,4524.615384,3976.410257,4180.000000,3973.846154,4063.589743,4228.717948,3813.333334,4346.666666,3745.641026,3801.025642
246,4101.025641,4233.846153,4380.512820,4030.769230,4521.025641,3977.435898,4180.000000,3967.179488,4060.512820,4226.666666,3811.794872,4342.564102,3737.948718,3795.897436
247,4101.538461,4233.333333,4380.512820,4037.948717,4520.000000,3975.897436,4180.000000,3969.743590,4058.974358,4224.615384,3806.666667,4342.564102,3730.769231,3793.333334
248,4105.128205,4231.794871,4378.974358,4042.051282,4522.564102,3977.948718,4179.487179,3977.948718,4065.641025,4229.230769,3811.794872,4347.179487,3738.461539,3796.923077
249,4102.051282,4227.692307,4374.358974,4031.282051,4520.512820,3976.923077,4179.487179,3974.358975,4064.102564,4228.205128,3811.794872,4345.128205,3740.512821,3794.871795
250,4096.410256,4226.666666,4373.846153,4030.256410,4518.974358,3972.820513,4177.435897,3966.666667,4057.948717,4217.435897,3804.615385,4337.948717,3732.820513,3789.743590
251,4091.282051,4229.743589,4371.794871,4033.846153,4520.512820,3970.769231,4174.358974,3966.153847,4060.512820,4213.333333,3805.128206,4332.307692,3727.692308,3786.153847
252,4088.205128,4231.282051,4367.179487,4026.666666,4517.948717,3970.256411,4173.333333,3964.615385,4060.000000,4218.974358,3807.179488,4330.256410,3728.717949,3785.128206
253,4091.794871,4230.256410,4369.230769,4025.641025,4515.384615,3969.743590,4172.307692,3964.102565,4056.410256,4223.076923,3805.641026,4329.743589,3732.820513,3786.666667
254,4095.897435,4232.820512,4377.435897,4035.897435,4522.051282,3971.282052,4172.820512,3968.205129,4061.538461,4225.128205,3812.820513,4329.230769,3737.435898,3791.282052
255,4095.384615,4238.974358,4379.487179,4035.384615,4528.205128,3972.307693,4175.897435,3968.205129,4064.615384,4228.205128,3822.564103,4332.307692,3737.435898,3795.384616
256,4094.871794,4238.461538,4374.871794,4027.179487,4525.128205,3970.769231,4172.307692,3967.692308,4058.974358,4227.692307,3822.564103,4337.435897,3735.384616,3794.358975
257,4096.923076,4235.384615,4373.333333,4029.743589,4522.564102,3970.769231,4170.769230,3970.256411,4055.897435,4222.564102,3816.923077,4334.871794,3736.410257,3790.256411
258,4097.948717,4232.307692,4374.358974,4032.820512,4524.102564,3968.205129,4171.794871,3966.666667,4054.358974,4219.487179,3812.307693,4331.282051,3736.410257,3788.717949
259,4095.897435,4228.205128,4374.871794,4027.179487,4517.948717,3963.076924,4169.743589,3960.512821,4052.820512,4218.461538,3806.153847,4331.794871,3732.307693,3790.256411
260,4092.307692,4225.641025,4374.358974,4024.102564,4509.230769,3962.051283,4170.256410,3958.974359,4049.743589,4213.333333,3807.179488,4331.282051,3727.692308,3788.717949
261,4090.256410,4221.538461,4372.307692,4023.076923,4511.794871,3963.589744,4170.256410,3953.846154,4043.076923,4207.692307,3817.435898,4330.256410,3725.641026,3784.615385
262,4093.846153,4225.641025,4374.871794,4027.179487,4521.538461,3965.641026,4169.230769,3954.358975,4043.589743,4212.820512,3816.923077,4335.384615,3729.743590,3788.205129
263,4094.358974,4231.282051,4376.410256,4029.230769,4525.128205,3968.205129,4170.256410,3960.512821,4045.128205,4218.461538,3810.256411,4338.974358,3729.743590,3792.307693
