,AF3,F7,F3,FC5,T7,P7,O1,O2,P8,T8,FC6,F4,F8,AF4
0,4391.282051,4538.974358,4517.435897,4244.615384,4493.333333,4190.256410,4416.410256,4197.948717,4215.384615,4512.307692,4198.974358,4650.769230,3986.666667,4049.230769
1,4389.743589,4536.410256,4513.333333,4246.153846,4501.025641,4198.461538,4421.025641,4198.974358,4215.897435,4501.025641,4199.487179,4650.769230,3985.641026,4049.230769
2,4383.589743,4530.769230,4510.769230,4250.256410,4507.179487,4200.512820,4421.025641,4201.025641,4216.410256,4497.435897,4202.564102,4651.794871,3988.717949,4050.769230
3,4384.102564,4534.871794,4510.769230,4246.666666,4503.589743,4191.282051,4415.384615,4200.512820,4217.948717,4505.641025,4203.589743,4650.256410,3985.641026,4050.769230
4,4387.179487,4532.307692,4508.205128,4238.974358,4495.384615,4186.666666,4412.820512,4198.974358,4216.410256,4501.025641,4201.538461,4650.256410,3977.435898,4043.076923
5,4376.410256,4520.512820,4502.051282,4235.897435,4488.205128,4185.641025,4411.282051,4191.794871,4206.153846,4491.282051,4190.769230,4645.641025,3975.897436,4033.846153
6,4370.256410,4518.974358,4501.538461,4235.897435,4487.179487,4184.102564,4410.256410,4190.769230,4204.102564,4488.205128,4181.538461,4642.051282,3974.871795,4032.307692
7,4379.487179,4525.641025,4504.615384,4242.051282,4491.282051,4190.769230,4416.923076,4197.948717,4213.333333,4488.717948,4189.743589,4646.153846,3972.307693,4035.897435
8,4386.666666,4526.666666,4507.179487,4248.205128,4491.794871,4201.025641,4423.589743,4201.538461,4214.358974,4492.820512,4203.076923,4650.256410,3974.358975,4039.487179
9,4383.076923,4525.128205,4506.666666,4242.051282,4491.794871,4198.461538,4417.948717,4196.410256,4205.128205,4491.794871,4198.461538,4648.205128,3977.948718,4037.435897
10,4377.435897,4522.564102,4504.102564,4232.820512,4491.282051,4187.692307,4410.769230,4189.230769,4201.025641,4485.128205,4184.615384,4646.666666,3974.358975,4031.794871
11,4372.820512,4514.358974,4504.615384,4232.307692,4488.205128,4183.589743,4411.794871,4185.641025,4200.000000,4483.589743,4184.102564,4644.102564,3972.820513,4033.846153
12,4370.769230,4506.666666,4506.153846,4234.358974,4488.717948,4186.153846,4411.794871,4186.666666,4197.435897,4481.538461,4186.666666,4638.974358,3970.256411,4032.820512
13,4371.794871,4512.820512,4503.589743,4232.307692,4490.769230,4186.153846,4407.179487,4188.205128,4199.487179,4477.948717,4179.487179,4636.410256,3957.948718,4026.153846
14,4370.769230,4518.461538,4497.435897,4224.102564,4484.615384,4183.076923,4404.615384,4185.128205,4197.948717,4473.333333,4168.717948,4636.410256,3954.358975,4025.128205
15,4366.666666,4511.282051,4498.461538,4220.512820,4477.435897,4180.512820,4402.564102,4181.538461,4186.153846,4463.589743,4164.615384,4633.846153,3960.512821,4023.589743
16,4366.153846,4512.307692,4506.666666,4227.692307,4485.128205,4183.589743,4404.102564,4185.128205,4184.615384,4467.692307,4172.820512,4635.384615,3957.948718,4025.128205
17,4371.282051,4522.564102,4509.230769,4234.871794,4494.358974,4186.666666,4409.743589,4188.717948,4197.948717,4482.564102,4187.179487,4644.102564,3954.358975,4033.846153
18,4380.000000,4523.589743,4506.153846,4231.794871,4491.282051,4186.666666,4410.769230,4185.641025,4201.025641,4477.435897,4190.256410,4648.717948,3965.128206,4038.461538
19,4388.717948,4523.589743,4509.743589,4232.307692,4488.717948,4191.794871,4411.794871,4189.230769,4198.461538,4474.358974,4185.128205,4650.769230,3976.923077,4041.025641
20,4388.205128,4527.179487,4517.435897,4237.435897,4492.820512,4199.487179,4415.897435,4196.923076,4202.051282,4489.230769,4185.641025,4653.333333,3976.410257,4042.051282
21,4385.128205,4521.538461,4514.358974,4235.384615,4495.897435,4198.974358,4420.000000,4194.871794,4202.051282,4490.769230,4186.153846,4650.256410,3970.769231,4036.923076
22,4390.256410,4527.692307,4512.307692,4235.384615,4501.025641,4198.461538,4423.589743,4194.871794,4204.102564,4485.641025,4185.128205,4648.717948,3974.871795,4038.974358
23,4394.871794,4540.000000,4516.923076,4241.538461,4507.179487,4202.564102,4425.128205,4204.102564,4216.410256,4492.820512,4195.384615,4651.794871,3985.641026,4048.717948
24,4387.179487,4530.769230,4516.923076,4248.205128,4507.692307,4201.538461,4420.000000,4201.538461,4215.897435,4493.846153,4203.076923,4649.743589,3983.589744,4041.538461
25,4376.410256,4520.000000,4513.333333,4244.102564,4505.128205,4200.000000,4417.948717,4186.666666,4202.051282,4488.717948,4196.410256,4643.589743,3969.743590,4024.102564
26,4373.333333,4522.564102,4510.256410,4235.384615,4504.615384,4202.564102,4424.615384,4185.641025,4202.051282,4492.820512,4190.769230,4643.589743,3969.230770,4023.589743
27,4377.948717,4524.615384,4510.256410,4237.948717,4507.179487,4204.615384,4428.205128,4195.897435,4213.333333,4494.358974,4199.487179,4646.153846,3983.589744,4033.333333
28,4386.153846,4528.717948,4514.871794,4247.692307,4509.230769,4205.641025,4427.179487,4200.000000,4216.410256,4488.717948,4206.666666,4648.717948,3990.769231,4040.512820
29,4387.692307,4536.410256,4516.410256,4250.769230,4508.717948,4205.128205,4425.641025,4195.897435,4213.846153,4494.358974,4200.000000,4651.282051,3986.153847,4040.000000
30,4386.153846,4534.871794,4515.897435,4248.717948,4509.230769,4204.102564,4426.153846,4196.410256,4214.871794,4507.692307,4200.000000,4654.358974,3986.666667,4036.923076
31,4388.205128,4535.384615,4516.410256,4249.230769,4510.769230,4204.102564,4426.666666,4201.538461,4217.948717,4512.820512,4213.846153,4659.487179,3996.410257,4040.000000
32,4385.128205,4536.410256,4514.871794,4249.230769,4509.743589,4203.076923,4422.564102,4201.025641,4217.435897,4501.538461,4217.435897,4658.461538,3996.923077,4045.128205
33,4381.538461,4533.333333,4510.769230,4248.717948,4508.717948,4201.538461,4420.000000,4197.435897,4215.384615,4494.358974,4209.230769,4654.358974,3987.692308,4044.615384
34,4387.179487,4537.948717,4513.846153,4249.230769,4508.205128,4202.564102,4424.102564,4199.487179,4214.871794,4501.538461,4211.282051,4658.461538,3986.153847,4042.564102
35,4390.256410,4538.461538,4515.897435,4248.717948,4506.666666,4204.102564,4427.692307,4203.076923,4217.948717,4506.153846,4218.461538,4663.589743,3991.282052,4044.102564
36,4385.641025,4532.820512,4512.820512,4249.230769,4508.717948,4204.102564,4427.179487,4204.102564,4220.512820,4504.102564,4216.923076,4661.538461,3991.794872,4043.076923
37,4380.512820,4531.794871,4509.743589,4248.717948,4509.743589,4204.102564,4427.692307,4204.102564,4218.461538,4505.641025,4211.794871,4655.384615,3986.666667,4040.000000
38,4376.923076,4527.179487,4504.615384,4246.666666,4504.615384,4203.589743,4427.179487,4203.589743,4216.410256,4505.128205,4206.153846,4650.256410,3983.589744,4038.461538
39,4375.897435,4521.025641,4504.615384,4247.179487,4502.051282,4201.538461,4426.153846,4200.512820,4216.923076,4496.923076,4199.487179,4648.205128,3986.153847,4036.923076
40,4378.974358,4522.564102,4505.641025,4248.717948,4505.128205,4200.512820,4424.615384,4198.461538,4212.820512,4489.230769,4200.000000,4648.717948,3986.666667,4033.333333
41,4381.025641,4528.717948,4506.666666,4249.230769,4508.205128,4202.564102,4419.487179,4197.435897,4207.692307,4492.307692,4208.205128,4648.205128,3983.076924,4033.333333
42,4382.051282,4531.282051,4509.743589,4249.743589,4509.230769,4204.102564,4414.358974,4193.846153,4207.692307,4501.538461,4209.230769,4649.743589,3984.615385,4039.487179
43,4385.641025,4532.820512,4508.205128,4251.794871,4508.205128,4198.974358,4413.333333,4187.179487,4204.615384,4500.000000,4197.948717,4656.410256,3990.256411,4043.589743
44,4386.153846,4533.846153,4508.205128,4249.743589,4507.692307,4196.410256,4412.307692,4187.692307,4201.538461,4488.717948,4198.461538,4657.435897,3988.717949,4040.512820
45,4383.589743,4536.410256,4509.743589,4247.179487,4507.692307,4200.000000,4411.794871,4192.820512,4205.641025,4495.897435,4213.846153,4655.897435,3986.153847,4038.974358
46,4386.153846,4540.000000,4508.717948,4253.846153,4507.692307,4202.051282,4415.897435,4197.435897,4214.358974,4509.743589,4218.974358,4658.974358,3992.307693,4043.076923
47,4388.205128,4537.948717,4506.666666,4260.512820,4508.717948,4201.538461,4420.512820,4201.025641,4215.897435,4502.051282,4216.410256,4661.538461,3992.307693,4042.564102
48,4380.000000,4528.205128,4508.205128,4254.871794,4506.153846,4200.000000,4422.051282,4194.871794,4208.205128,4489.743589,4211.794871,4655.384615,3978.974359,4031.794871
49,4367.692307,4518.461538,4502.051282,4244.102564,4493.333333,4197.435897,4418.461538,4187.179487,4197.948717,4488.205128,4199.487179,4644.615384,3968.717949,4022.564102
50,4366.153846,4516.923076,4495.897435,4241.538461,4484.615384,4196.923076,4420.000000,4193.333333,4196.923076,4487.179487,4193.333333,4642.564102,3970.769231,4023.076923
51,4370.769230,4514.871794,4501.025641,4243.076923,4495.897435,4202.564102,4434.871794,4204.615384,4210.769230,4493.846153,4201.538461,4647.692307,3976.923077,4026.153846
52,4365.641025,4507.179487,4498.974358,4238.974358,4504.615384,4205.641025,4441.538461,4204.615384,4216.923076,4502.051282,4197.435897,4644.102564,3969.743590,4017.948717
53,4353.846153,4504.102564,4489.230769,4231.794871,4494.871794,4200.512820,4429.743589,4196.923076,4208.205128,4488.717948,4184.102564,4633.846153,3954.871795,4006.153846
54,4351.794871,4503.589743,4488.205128,4229.230769,4489.230769,4196.410256,4423.076923,4193.846153,4201.538461,4472.820512,4187.179487,4629.743589,3952.820513,4004.615384
55,4357.948717,4504.615384,4495.897435,4231.282051,4494.358974,4197.435897,4427.179487,4192.307692,4201.025641,4477.948717,4191.794871,4630.769230,3958.461539,4011.794871
56,4362.564102,4508.205128,4503.076923,4234.871794,4494.871794,4199.487179,4427.179487,4195.384615,4206.666666,4491.794871,4188.717948,4635.384615,3962.051283,4017.948717
57,4363.076923,4506.666666,4506.666666,4239.487179,4491.794871,4200.000000,4426.666666,4198.461538,4212.820512,4498.974358,4193.333333,4642.051282,3964.615385,4016.410256
58,4366.666666,4509.743589,4507.692307,4243.076923,4497.948717,4200.512820,4427.179487,4199.487179,4210.769230,4496.923076,4204.102564,4645.641025,3968.717949,4017.948717
59,4371.794871,4523.589743,4508.717948,4247.179487,4506.666666,4201.025641,4427.179487,4194.871794,4202.051282,4492.820512,4205.128205,4645.641025,3975.897436,4024.615384
60,4369.743589,4526.666666,4510.769230,4250.769230,4504.102564,4202.051282,4427.692307,4189.230769,4202.051282,4489.230769,4197.948717,4643.076923,3973.846154,4023.076923
61,4360.512820,4514.358974,4506.666666,4243.076923,4492.820512,4198.461538,4419.487179,4186.666666,4204.102564,4482.051282,4188.717948,4637.948717,3952.307693,4011.794871
62,4352.820512,4505.641025,4500.000000,4231.282051,4486.666666,4186.666666,4407.692307,4180.512820,4199.487179,4476.923076,4184.102564,4632.307692,3941.538462,4004.615384
63,4356.410256,4507.692307,4501.538461,4231.282051,4489.743589,4183.589743,4408.205128,4178.974358,4198.461538,4486.666666,4188.717948,4631.794871,3955.897436,4011.282051
64,4360.512820,4511.794871,4504.102564,4241.025641,4493.846153,4193.846153,4414.358974,4186.153846,4203.589743,4498.974358,4189.743589,4634.358974,3966.153847,4016.410256
65,4352.307692,4507.179487,4497.435897,4243.076923,4491.794871,4192.820512,4412.307692,4183.076923,4202.051282,4490.769230,4186.153846,4630.769230,3957.948718,4010.769230
66,4344.102564,4498.974358,4495.384615,4234.871794,4488.205128,4183.076923,4406.153846,4170.769230,4190.769230,4472.307692,4184.102564,4622.564102,3948.717949,4001.538461
67,4346.153846,4501.025641,4501.025641,4229.230769,4491.282051,4187.179487,4403.076923,4166.666666,4181.538461,4467.179487,4181.025641,4624.102564,3948.717949,4003.076923
68,4349.230769,4507.692307,4502.564102,4232.307692,4496.410256,4193.333333,4408.717948,4171.282051,4184.615384,4476.923076,4181.538461,4631.794871,3957.435898,4010.256410
69,4354.358974,4508.717948,4504.102564,4240.512820,4495.384615,4188.717948,4414.871794,4173.333333,4192.307692,4488.205128,4186.666666,4635.897435,3961.025642,4013.846153
70,4361.025641,4506.666666,4508.205128,4241.025641,4490.256410,4184.615384,4409.230769,4170.769230,4191.794871,4489.230769,4187.179487,4635.384615,3952.307693,4013.333333
71,4358.974358,4503.076923,4505.641025,4237.948717,4488.205128,4185.128205,4403.589743,4167.179487,4185.128205,4478.461538,4187.179487,4633.333333,3948.205129,4010.769230
72,4358.461538,4506.153846,4505.641025,4242.051282,4489.743589,4187.179487,4408.205128,4168.717948,4188.717948,4471.282051,4194.871794,4639.487179,3955.384616,4016.410256
73,4367.692307,4513.333333,4511.282051,4250.769230,4493.846153,4189.230769,4414.358974,4174.871794,4201.538461,4488.205128,4198.461538,4646.153846,3962.564103,4028.205128
74,4363.076923,4500.512820,4508.205128,4248.717948,4492.820512,4187.179487,4410.769230,4173.333333,4201.025641,4495.897435,4188.717948,4638.461538,3959.487180,4025.641025
75,4351.794871,4486.666666,4505.128205,4242.564102,4486.666666,4183.589743,4406.666666,4168.205128,4189.230769,4476.923076,4181.538461,4629.230769,3948.205129,4010.256410
76,4357.435897,4504.615384,4506.666666,4245.641025,4485.641025,4185.641025,4409.230769,4169.743589,4184.615384,4470.256410,4184.615384,4633.846153,3941.538462,4008.205128
77,4361.025641,4525.128205,4505.128205,4246.666666,4492.307692,4187.179487,4411.282051,4171.794871,4189.743589,4475.897435,4185.128205,4635.384615,3943.076924,4012.820512
78,4356.923076,4518.974358,4504.615384,4246.666666,4495.897435,4188.205128,4411.794871,4171.282051,4196.410256,4475.897435,4182.564102,4630.256410,3950.256411,4011.794871
79,4358.461538,4508.205128,4507.692307,4248.717948,4492.820512,4189.230769,4410.256410,4173.333333,4200.512820,4474.871794,4187.692307,4633.333333,3949.743590,4014.358974
80,4359.487179,4506.153846,4505.128205,4249.230769,4490.256410,4187.179487,4407.692307,4173.333333,4195.384615,4477.435897,4184.615384,4635.384615,3941.538462,4013.333333
81,4354.358974,4505.641025,4502.564102,4246.153846,4490.769230,4184.102564,4405.128205,4169.743589,4185.641025,4476.923076,4172.307692,4629.230769,3935.384616,4007.179487
82,4355.384615,4508.205128,4501.538461,4246.153846,4489.743589,4183.076923,4403.076923,4168.717948,4188.717948,4473.333333,4177.435897,4627.692307,3938.461539,4009.230769
83,4361.538461,4510.769230,4501.025641,4248.717948,4488.205128,4184.615384,4400.000000,4171.282051,4198.461538,4473.846153,4185.641025,4633.333333,3946.666667,4014.871794
84,4360.000000,4510.256410,4501.025641,4247.692307,4490.256410,4185.641025,4397.435897,4171.282051,4193.333333,4475.897435,4178.461538,4630.256410,3947.692308,4010.256410
85,4353.846153,4506.153846,4496.923076,4244.102564,4489.743589,4183.589743,4396.923076,4167.179487,4183.076923,4474.871794,4174.871794,4618.974358,3940.512821,4004.102564
86,4356.410256,4507.692307,4498.974358,4243.076923,4487.179487,4184.615384,4396.923076,4167.692307,4187.179487,4476.923076,4179.487179,4618.461538,3934.358975,4005.641025
87,4358.461538,4505.641025,4502.051282,4246.153846,4488.205128,4186.666666,4397.948717,4169.230769,4190.256410,4485.128205,4176.410256,4623.076923,3938.974359,4005.128205
88,4349.230769,4491.282051,4496.923076,4240.512820,4487.692307,4184.615384,4397.948717,4166.666666,4182.051282,4475.897435,4167.692307,4616.410256,3940.000000,3997.948718
89,4345.641025,4488.717948,4495.384615,4230.769230,4487.692307,4183.589743,4402.051282,4166.153846,4182.051282,4456.410256,4168.717948,4614.358974,3933.846154,3997.948718
90,4358.461538,4507.179487,4506.153846,4237.435897,4491.282051,4186.666666,4409.230769,4170.256410,4190.256410,4461.538461,4180.000000,4624.102564,3933.846154,4009.230769
91,4364.102564,4509.743589,4509.743589,4248.717948,4491.282051,4187.692307,4408.205128,4169.743589,4191.282051,4477.435897,4186.153846,4628.205128,3940.512821,4014.358974
92,4357.948717,4497.435897,4505.128205,4249.743589,4491.282051,4186.666666,4403.076923,4169.230769,4186.153846,4478.974358,4184.102564,4626.153846,3942.051283,4006.153846
93,4355.897435,4502.051282,4508.717948,4249.230769,4491.794871,4184.615384,4402.051282,4169.230769,4184.102564,4473.333333,4183.076923,4625.641025,3938.461539,4002.051282
94,4355.384615,4504.615384,4507.692307,4242.564102,4482.051282,4174.871794,4397.948717,4161.025641,4184.102564,4467.179487,4174.871794,4621.538461,3934.871795,4005.128205
95,4351.282051,4498.461538,4498.461538,4229.230769,4477.435897,4168.717948,4391.794871,4152.307692,4181.538461,4457.948717,4167.179487,4616.923076,3930.256411,4004.102564
96,4352.307692,4497.948717,4500.000000,4229.743589,4486.666666,4169.743589,4393.846153,4152.820512,4182.051282,4457.435897,4176.923076,4616.410256,3934.358975,4004.102564
97,4357.435897,4497.435897,4506.666666,4239.487179,4490.769230,4174.358974,4397.948717,4161.025641,4186.666666,4469.743589,4178.974358,4622.051282,3946.153847,4009.230769
98,4358.461538,4496.410256,4502.051282,4236.923076,4483.076923,4176.923076,4396.410256,4168.205128,4188.717948,4476.923076,4172.820512,4624.102564,3941.025642,4008.717948
99,4353.846153,4505.128205,4495.897435,4229.230769,4480.000000,4172.307692,4393.333333,4167.692307,4185.641025,4474.871794,4178.974358,4619.487179,3924.102565,4002.051282
100,4356.923076,4508.205128,4504.102564,4236.410256,4487.179487,4173.846153,4396.410256,4167.179487,4184.615384,4474.871794,4187.692307,4624.102564,3932.307693,4009.230769
101,4365.128205,4501.025641,4514.358974,4253.333333,4493.333333,4183.076923,4400.000000,4169.743589,4188.205128,4470.769230,4184.102564,4634.871794,3952.307693,4024.102564
102,4363.076923,4504.615384,4508.717948,4249.743589,4492.307692,4184.615384,4397.435897,4162.051282,4184.615384,4456.923076,4175.897435,4628.205128,3942.564103,4018.974358
103,4354.358974,4504.615384,4497.948717,4232.820512,4490.256410,4180.000000,4393.846153,4152.307692,4179.487179,4455.897435,4169.743589,4615.897435,3926.153847,4002.564102
104,4351.794871,4493.846153,4498.974358,4232.307692,4491.794871,4181.025641,4395.897435,4160.512820,4183.076923,4472.307692,4170.256410,4617.948717,3938.974359,4003.076923
105,4352.307692,4494.358974,4502.564102,4235.384615,4490.256410,4182.051282,4397.435897,4169.230769,4186.153846,4477.435897,4177.948717,4619.487179,3949.230770,4013.333333
106,4352.820512,4502.564102,4500.512820,4231.282051,4488.717948,4178.461538,4395.897435,4167.692307,4184.615384,4472.307692,4182.564102,4617.435897,3939.487180,4016.923076
107,4357.435897,4508.717948,4502.051282,4237.435897,4492.820512,4173.846153,4396.410256,4167.692307,4185.128205,4474.358974,4187.692307,4623.076923,3941.538462,4020.512820
108,4359.487179,4506.153846,4506.666666,4244.102564,4486.666666,4169.743589,4397.948717,4170.769230,4184.615384,4475.384615,4187.179487,4629.743589,3953.846154,4021.025641
109,4356.410256,4493.846153,4507.179487,4237.948717,4473.846153,4171.794871,4396.923076,4171.794871,4183.589743,4471.794871,4183.589743,4630.256410,3954.358975,4014.358974
110,4355.897435,4493.333333,4503.589743,4233.846153,4478.974358,4173.846153,4392.820512,4169.743589,4186.153846,4473.333333,4185.641025,4630.256410,3945.128206,4015.384615
111,4357.948717,4501.538461,4500.000000,4232.820512,4490.769230,4169.230769,4388.205128,4167.692307,4185.641025,4474.871794,4186.153846,4628.205128,3938.974359,4024.102564
112,4360.512820,4498.974358,4501.538461,4232.820512,4490.256410,4174.871794,4391.794871,4168.717948,4183.589743,4474.871794,4184.102564,4629.230769,3945.641026,4025.128205
113,4362.564102,4492.307692,4508.205128,4243.076923,4488.717948,4184.615384,4396.923076,4170.769230,4186.666666,4482.564102,4186.666666,4633.333333,3953.846154,4021.538461
114,4360.000000,4491.794871,4507.179487,4246.666666,4489.743589,4177.948717,4395.384615,4169.743589,4187.179487,4477.948717,4187.692307,4632.307692,3948.205129,4019.487179
115,4357.948717,4490.769230,4503.589743,4234.358974,4487.179487,4171.794871,4393.333333,4168.717948,4184.615384,4462.564102,4185.128205,4629.230769,3937.435898,4015.897435
116,4360.000000,4493.333333,4506.666666,4229.743589,4486.666666,4181.025641,4397.435897,4172.307692,4187.692307,4468.717948,4185.128205,4630.769230,3940.000000,4017.948717
117,4357.948717,4495.897435,4503.589743,4234.871794,4484.102564,4180.000000,4398.461538,4172.307692,4187.692307,4480.512820,4179.487179,4627.179487,3942.051283,4020.512820
118,4349.743589,4488.717948,4491.282051,4233.333333,4473.846153,4167.179487,4391.282051,4167.692307,4182.564102,4475.897435,4166.153846,4614.358974,3933.846154,4009.743589
119,4347.692307,4487.179487,4490.769230,4230.256410,4474.358974,4168.205128,4387.692307,4165.641025,4181.025641,4471.282051,4164.102564,4612.307692,3932.820513,3999.487180
120,4357.435897,4491.794871,4504.102564,4233.333333,4488.205128,4174.358974,4391.794871,4169.743589,4184.102564,4473.333333,4179.487179,4622.564102,3940.000000,4011.282051
121,4364.102564,4492.820512,4507.692307,4234.358974,4494.871794,4172.820512,4394.871794,4170.256410,4187.179487,4473.333333,4189.743589,4626.666666,3943.589744,4022.564102
122,4357.435897,4491.794871,4500.512820,4229.230769,4484.615384,4170.769230,4390.769230,4160.512820,4180.512820,4473.846153,4177.948717,4621.025641,3943.076924,4013.333333
123,4347.179487,4490.256410,4495.897435,4228.717948,4475.897435,4168.205128,4385.641025,4155.897435,4171.794871,4471.794871,4170.256410,4614.871794,3942.051283,4006.153846
124,4348.717948,4490.769230,4497.948717,4231.282051,4484.615384,4165.641025,4385.641025,4164.615384,4176.923076,4471.794871,4177.948717,4614.871794,3940.000000,4009.743589
125,4358.461538,4497.948717,4501.538461,4230.256410,4494.358974,4175.384615,4392.820512,4170.769230,4185.641025,4474.871794,4182.564102,4620.512820,3944.102565,4011.794871
126,4361.538461,4501.538461,4505.641025,4230.256410,4492.307692,4184.615384,4396.410256,4168.717948,4184.615384,4474.358974,4181.025641,4624.102564,3955.897436,4011.282051
127,4355.897435,4493.846153,4507.179487,4231.282051,4487.179487,4175.384615,4392.307692,4167.692307,4178.974358,4474.871794,4181.025641,4621.538461,3955.384616,4013.333333
128,4353.846153,4489.230769,4504.615384,4227.692307,4487.692307,4170.256410,4390.769230,4168.205128,4178.461538,4476.923076,4178.974358,4619.487179,3946.666667,4013.846153
129,4361.025641,4494.358974,4508.205128,4227.692307,4490.769230,4180.000000,4394.871794,4166.666666,4181.025641,4473.333333,4182.051282,4624.102564,3945.641026,4010.256410
130,4364.615384,4496.410256,4512.820512,4231.282051,4486.153846,4177.435897,4395.384615,4165.641025,4183.589743,4471.282051,4185.641025,4628.717948,3947.179488,4008.205128
131,4364.102564,4492.307692,4513.333333,4231.282051,4481.538461,4170.256410,4394.358974,4167.692307,4183.076923,4473.846153,4180.512820,4630.256410,3948.717949,4013.846153
132,4366.153846,4491.794871,4516.410256,4231.282051,4485.128205,4179.487179,4397.435897,4170.769230,4183.589743,4474.871794,4183.589743,4632.820512,3956.410257,4018.461538
133,4367.692307,4495.897435,4519.487179,4235.384615,4490.769230,4187.179487,4402.051282,4172.307692,4186.153846,4474.358974,4193.846153,4635.897435,3963.076924,4014.871794
134,4368.205128,4502.564102,4518.974358,4233.333333,4497.435897,4185.641025,4405.128205,4176.410256,4188.205128,4475.897435,4189.743589,4638.974358,3962.564103,4013.846153
135,4371.794871,4508.717948,4518.974358,4231.282051,4507.692307,4188.205128,4408.205128,4183.589743,4196.923076,4484.102564,4186.666666,4644.102564,3962.564103,4020.000000
136,4375.384615,4508.717948,4521.025641,4241.025641,4505.641025,4189.230769,4410.256410,4187.179487,4204.615384,4494.871794,4197.948717,4649.230769,3969.230770,4025.641025
137,4371.282051,4507.692307,4518.974358,4247.179487,4492.307692,4185.641025,4405.641025,4182.564102,4198.461538,4491.282051,4203.589743,4649.230769,3976.410257,4023.589743
138,4360.512820,4505.641025,4511.282051,4234.871794,4488.717948,4182.564102,4395.897435,4172.820512,4187.179487,4471.794871,4192.307692,4639.487179,3969.743590,4012.307692
139,4356.410256,4504.102564,4504.615384,4225.641025,4490.769230,4180.000000,4392.820512,4165.641025,4180.512820,4465.641025,4178.974358,4628.205128,3953.333334,3998.461539
140,4365.128205,4507.692307,4509.230769,4239.487179,4489.743589,4183.076923,4399.487179,4168.717948,4184.615384,4483.076923,4178.461538,4632.307692,3956.410257,4001.538461
141,4374.358974,4509.743589,4517.435897,4252.820512,4496.923076,4187.692307,4403.589743,4173.333333,4194.871794,4496.923076,4195.384615,4642.051282,3973.333334,4015.897435
142,4373.846153,4508.205128,4512.820512,4246.153846,4502.564102,4188.717948,4400.512820,4170.769230,4193.846153,4489.743589,4205.641025,4638.974358,3973.846154,4017.435897
143,4369.743589,4509.743589,4505.641025,4235.897435,4493.846153,4182.051282,4394.358974,4167.692307,4185.128205,4476.410256,4193.846153,4631.794871,3960.512821,4007.179487
144,4364.615384,4510.256410,4507.179487,4232.820512,4486.666666,4172.820512,4391.282051,4166.153846,4182.051282,4468.205128,4181.538461,4631.794871,3950.769231,4001.025641
145,4364.615384,4508.717948,4506.666666,4234.358974,4490.256410,4174.871794,4392.820512,4169.230769,4182.051282,4472.307692,4182.564102,4632.307692,3955.897436,4003.076923
146,4369.743589,4509.743589,4507.692307,4240.000000,4491.282051,4184.102564,4397.435897,4172.307692,4189.230769,4489.230769,4192.307692,4634.358974,3969.743590,4008.717948
147,4373.333333,4510.256410,4511.282051,4247.179487,4491.282051,4185.641025,4402.564102,4171.794871,4196.923076,4490.769230,4197.948717,4637.435897,3972.820513,4014.358974
148,4370.769230,4506.666666,4509.230769,4248.205128,4494.358974,4184.102564,4404.615384,4173.333333,4193.333333,4479.487179,4192.307692,4635.384615,3962.051283,4015.897435
149,4364.102564,4509.743589,4503.589743,4242.051282,4492.307692,4185.641025,4401.538461,4172.820512,4187.179487,4480.000000,4187.179487,4630.769230,3955.384616,4011.282051
150,4364.102564,4513.333333,4508.205128,4241.538461,4493.333333,4186.666666,4402.564102,4171.282051,4188.205128,4481.538461,4192.307692,4630.769230,3958.974359,4007.179487
151,4370.769230,4509.230769,4514.871794,4247.179487,4496.923076,4185.641025,4405.128205,4173.846153,4190.769230,4473.846153,4197.948717,4636.923076,3958.974359,4008.717948
152,4372.820512,4509.230769,4515.384615,4248.717948,4493.846153,4185.128205,4406.666666,4180.512820,4195.384615,4480.512820,4193.846153,4642.564102,3958.974359,4017.435897
153,4372.307692,4512.820512,4515.897435,4247.692307,4491.794871,4186.666666,4407.692307,4184.615384,4201.538461,4493.846153,4190.769230,4643.076923,3966.153847,4022.051282
154,4373.333333,4507.692307,4514.871794,4248.205128,4491.282051,4186.666666,4407.692307,4185.128205,4198.974358,4491.282051,4195.897435,4643.076923,3975.384616,4020.512820
155,4375.897435,4504.102564,4516.923076,4248.205128,4495.384615,4185.128205,4408.717948,4186.153846,4198.974358,4488.717948,4200.512820,4646.153846,3973.333334,4017.435897
156,4378.974358,4514.358974,4518.974358,4249.743589,4505.128205,4190.769230,4413.846153,4189.230769,4205.128205,4496.410256,4198.974358,4648.717948,3963.076924,4017.948717
157,4381.025641,4521.538461,4515.384615,4254.871794,4509.230769,4200.512820,4416.923076,4192.307692,4205.641025,4494.871794,4199.487179,4646.666666,3965.128206,4021.025641
158,4380.512820,4521.538461,4516.410256,4254.871794,4505.641025,4197.435897,4415.384615,4192.307692,4203.076923,4487.179487,4205.641025,4644.102564,3976.410257,4024.615384
159,4381.025641,4524.615384,4521.025641,4251.282051,4506.666666,4189.230769,4415.897435,4190.256410,4203.589743,4491.282051,4205.128205,4645.128205,3976.923077,4025.128205
160,4380.512820,4517.948717,4514.871794,4251.282051,4503.589743,4185.641025,4413.846153,4186.666666,4203.076923,4498.461538,4201.025641,4643.589743,3962.564103,4019.487179
161,4372.820512,4504.615384,4504.102564,4249.230769,4490.769230,4183.076923,4404.102564,4184.102564,4200.000000,4492.820512,4201.025641,4635.384615,3956.923077,4012.307692
162,4366.153846,4502.564102,4504.615384,4247.179487,4487.179487,4182.564102,4397.435897,4179.487179,4193.846153,4483.589743,4194.871794,4629.743589,3966.153847,4013.333333
163,4369.743589,4511.794871,4510.769230,4249.743589,4495.897435,4185.641025,4401.538461,4173.846153,4190.769230,4486.666666,4187.179487,4631.282051,3969.230770,4018.461538
164,4374.871794,4515.384615,4512.307692,4249.743589,4498.974358,4185.128205,4405.128205,4178.974358,4193.333333,4489.230769,4192.307692,4634.358974,3959.487180,4020.512820
165,4370.256410,4509.230769,4511.794871,4247.692307,4491.282051,4181.538461,4397.948717,4181.025641,4189.743589,4476.923076,4197.948717,4633.846153,3951.282052,4014.871794
166,4368.205128,4501.538461,4512.307692,4249.743589,4491.282051,4182.564102,4399.487179,4175.897435,4186.153846,4470.769230,4193.333333,4632.820512,3961.025642,4012.307692
167,4375.384615,4504.102564,4512.820512,4251.794871,4503.076923,4186.666666,4409.230769,4180.000000,4195.897435,4483.076923,4192.307692,4632.820512,3973.333334,4015.897435
168,4375.384615,4515.897435,4513.333333,4249.743589,4503.589743,4186.666666,4411.282051,4189.230769,4204.102564,4493.333333,4198.461538,4633.846153,3967.692308,4020.512820
169,4371.282051,4524.615384,4514.871794,4249.230769,4499.487179,4186.666666,4409.230769,4188.717948,4201.538461,4492.307692,4202.564102,4637.948717,3958.974359,4022.564102
170,4374.358974,4518.974358,4517.948717,4250.769230,4503.076923,4187.692307,4413.333333,4188.717948,4201.538461,4492.820512,4204.102564,4642.564102,3960.000000,4024.102564
171,4375.384615,4509.230769,4516.410256,4251.794871,4496.923076,4186.153846,4412.307692,4189.230769,4202.564102,4489.743589,4198.974358,4637.948717,3963.589744,4024.615384
172,4371.794871,4514.358974,4510.769230,4249.743589,4487.179487,4184.102564,4404.102564,4182.564102,4197.435897,4485.641025,4197.948717,4633.846153,3965.641026,4019.487179
173,4373.846153,4521.538461,4511.282051,4248.717948,4498.461538,4186.666666,4405.641025,4184.102564,4200.512820,4493.333333,4204.102564,4639.487179,3969.743590,4018.974358
174,4375.384615,4513.333333,4512.820512,4254.358974,4512.307692,4188.205128,4411.794871,4187.692307,4203.076923,4497.435897,4193.333333,4638.461538,3964.615385,4023.076923
175,4370.769230,4505.128205,4511.282051,4259.487179,4503.076923,4185.128205,4409.230769,4177.948717,4192.307692,4483.589743,4180.000000,4631.282051,3956.923077,4018.461538
176,4367.692307,4507.692307,4509.743589,4253.333333,4495.384615,4182.564102,4401.538461,4171.794871,4182.564102,4480.512820,4187.179487,4631.794871,3957.435898,4010.769230
177,4366.153846,4510.256410,4510.769230,4245.641025,4505.128205,4184.615384,4403.589743,4180.000000,4189.743589,4487.692307,4189.230769,4632.307692,3953.846154,4011.794871
178,4366.666666,4510.769230,4507.692307,4245.641025,4506.153846,4186.153846,4407.179487,4185.128205,4198.461538,4480.512820,4180.000000,4630.256410,3952.307693,4014.871794
179,4367.179487,4510.769230,4507.692307,4248.205128,4494.871794,4183.076923,4402.564102,4183.076923,4192.820512,4481.538461,4189.230769,4632.307692,3956.923077,4015.897435
180,4365.128205,4508.205128,4512.307692,4248.717948,4498.461538,4181.025641,4401.025641,4181.025641,4186.153846,4489.230769,4200.000000,4632.307692,3956.923077,4016.410256
181,4366.666666,4510.256410,4508.717948,4249.743589,4508.717948,4183.076923,4404.102564,4179.487179,4186.666666,4482.051282,4191.794871,4630.769230,3957.948718,4012.820512
182,4367.692307,4513.333333,4504.102564,4246.666666,4497.435897,4182.564102,4403.589743,4178.974358,4186.666666,4477.948717,4183.589743,4631.282051,3960.512821,4009.743589
183,4366.153846,4509.743589,4508.205128,4243.589743,4484.102564,4180.000000,4403.076923,4182.051282,4185.128205,4488.205128,4185.128205,4631.794871,3955.897436,4015.897435
184,4366.666666,4502.564102,4511.794871,4247.179487,4494.358974,4181.538461,4409.743589,4184.102564,4189.743589,4491.282051,4192.820512,4631.794871,3956.410257,4021.025641
185,4370.769230,4509.230769,4510.769230,4250.769230,4509.230769,4186.153846,4415.897435,4186.666666,4201.025641,4487.692307,4198.461538,4634.871794,3967.692308,4019.487179
186,4373.333333,4520.000000,4513.333333,4248.205128,4505.128205,4186.666666,4412.820512,4189.743589,4200.512820,4489.743589,4197.435897,4639.487179,3968.717949,4018.461538
187,4371.282051,4512.820512,4514.871794,4244.102564,4491.282051,4182.051282,4409.743589,4187.179487,4191.794871,4489.230769,4196.923076,4641.538461,3961.025642,4018.974358
188,4369.743589,4501.538461,4514.358974,4246.153846,4492.820512,4181.538461,4411.794871,4183.589743,4192.820512,4487.692307,4201.538461,4638.974358,3963.589744,4024.102564
189,4374.871794,4505.641025,4518.974358,4258.974358,4507.179487,4186.153846,4416.923076,4188.205128,4202.051282,4490.256410,4192.820512,4636.923076,3967.692308,4027.692307
190,4376.923076,4507.692307,4519.487179,4262.051282,4509.743589,4186.153846,4416.410256,4188.205128,4200.512820,4490.256410,4177.435897,4635.384615,3960.512821,4021.538461
191,4372.820512,4509.230769,4515.384615,4250.256410,4503.076923,4183.076923,4413.333333,4182.564102,4188.205128,4480.512820,4188.717948,4632.820512,3954.871795,4015.384615
192,4374.871794,4517.948717,4515.897435,4250.256410,4504.102564,4183.076923,4414.358974,4183.076923,4184.615384,4477.435897,4206.666666,4637.435897,3955.897436,4014.871794
193,4378.461538,4512.307692,4515.384615,4261.538461,4503.589743,4182.564102,4413.333333,4180.000000,4185.128205,4483.589743,4194.358974,4640.512820,3954.871795,4015.384615
194,4379.487179,4509.230769,4514.358974,4264.615384,4498.974358,4182.051282,4409.743589,4174.871794,4183.589743,4480.512820,4178.461538,4633.846153,3957.435898,4022.564102
195,4386.153846,4522.051282,4522.564102,4263.076923,4505.641025,4186.666666,4413.333333,4181.538461,4187.692307,4480.000000,4189.230769,4638.974358,3960.512821,4032.307692
196,4389.230769,4527.179487,4526.153846,4263.076923,4512.307692,4188.717948,4415.897435,4187.179487,4191.282051,4484.102564,4195.384615,4648.717948,3954.358975,4029.230769
197,4382.564102,4521.025641,4517.435897,4262.051282,4508.205128,4186.666666,4412.307692,4182.564102,4187.179487,4482.564102,4190.769230,4643.076923,3954.358975,4028.717948
198,4381.025641,4514.871794,4511.282051,4262.564102,4505.128205,4184.102564,4412.307692,4184.102564,4186.153846,4483.589743,4195.897435,4636.923076,3967.179488,4032.820512
199,4382.564102,4506.153846,4508.717948,4256.410256,4507.692307,4176.410256,4411.282051,4184.102564,4189.743589,4487.179487,4196.410256,4638.461538,3968.717949,4030.256410
200,4374.871794,4503.589743,4504.615384,4244.102564,4502.051282,4168.717948,4402.564102,4174.358974,4185.128205,4479.487179,4188.205128,4633.846153,3956.410257,4026.153846
201,4365.641025,4509.230769,4504.102564,4242.564102,4495.384615,4167.179487,4395.897435,4172.307692,4183.076923,4473.846153,4182.564102,4628.717948,3947.692308,4021.538461
202,4365.128205,4505.128205,4504.102564,4245.641025,4494.358974,4167.179487,4394.871794,4174.358974,4186.153846,4476.410256,4178.461538,4628.717948,3943.076924,4013.846153
203,4365.128205,4501.538461,4501.025641,4241.538461,4491.794871,4165.128205,4395.897435,4170.256410,4183.589743,4471.282051,4175.384615,4623.589743,3940.512821,4013.846153
204,4364.615384,4505.641025,4501.025641,4242.051282,4493.846153,4166.666666,4399.487179,4168.717948,4181.538461,4476.410256,4177.948717,4617.948717,3943.076924,4021.025641
205,4371.282051,4510.256410,4505.641025,4247.692307,4502.564102,4170.769230,4401.025641,4171.282051,4184.102564,4491.794871,4182.051282,4622.051282,3945.128206,4022.051282
206,4370.256410,4509.230769,4502.564102,4245.128205,4506.666666,4171.794871,4397.948717,4171.282051,4184.615384,4490.256410,4183.589743,4622.564102,3945.641026,4017.435897
207,4362.564102,4504.102564,4499.487179,4245.128205,4505.128205,4170.769230,4400.000000,4168.717948,4181.025641,4475.384615,4184.615384,4618.974358,3952.307693,4013.846153
208,4366.666666,4505.128205,4506.666666,4246.153846,4502.051282,4169.230769,4401.538461,4171.282051,4183.589743,4471.794871,4181.025641,4620.000000,3955.384616,4019.487179
209,4369.743589,4500.512820,4507.692307,4234.871794,4495.384615,4168.205128,4395.897435,4171.282051,4184.615384,4475.897435,4176.410256,4621.025641,3944.102565,4023.076923
210,4361.538461,4489.743589,4501.025641,4233.333333,4489.743589,4166.666666,4392.307692,4165.641025,4174.358974,4473.333333,4175.897435,4614.358974,3934.871795,4010.769230
211,4362.564102,4495.897435,4505.641025,4243.589743,4490.256410,4166.153846,4396.410256,4164.102564,4168.717948,4472.307692,4176.410256,4613.846153,3944.102565,4006.153846
212,4370.769230,4510.256410,4514.358974,4243.076923,4493.846153,4169.230769,4400.000000,4171.282051,4179.487179,4477.435897,4178.461538,4620.512820,3952.820513,4017.948717
213,4367.692307,4503.076923,4510.769230,4237.435897,4493.846153,4167.179487,4395.384615,4173.333333,4185.641025,4475.897435,4182.051282,4617.948717,3945.128206,4020.000000
214,4364.102564,4492.820512,4504.615384,4238.461538,4486.666666,4162.564102,4390.769230,4166.666666,4178.461538,4471.794871,4184.615384,4613.846153,3934.358975,4011.282051
215,4369.230769,4502.051282,4506.666666,4242.051282,4489.743589,4164.615384,4394.358974,4171.282051,4177.948717,4478.974358,4184.615384,4621.025641,3941.025642,4014.358974
216,4373.333333,4511.282051,4511.282051,4248.717948,4502.564102,4170.769230,4399.487179,4182.051282,4185.128205,4489.230769,4187.179487,4632.820512,3957.948718,4026.153846
217,4373.333333,4505.128205,4510.769230,4247.692307,4498.974358,4172.820512,4400.000000,4178.461538,4189.743589,4484.102564,4187.692307,4635.384615,3958.974359,4029.230769
218,4365.641025,4492.307692,4500.512820,4233.333333,4486.666666,4168.205128,4395.384615,4168.717948,4181.025641,4472.307692,4175.897435,4623.589743,3942.051283,4021.025641
219,4356.410256,4486.153846,4494.358974,4226.153846,4485.128205,4164.102564,4388.205128,4165.641025,4169.230769,4470.256410,4168.205128,4614.358974,3935.897436,4015.897435
220,4361.538461,4491.282051,4503.589743,4231.794871,4489.230769,4166.153846,4391.282051,4172.820512,4175.384615,4476.923076,4178.461538,4624.615384,3946.666667,4025.128205
221,4373.333333,4494.358974,4512.307692,4233.846153,4492.307692,4170.256410,4399.487179,4180.512820,4187.692307,4478.461538,4186.666666,4635.897435,3949.230770,4030.769230
222,4371.282051,4487.692307,4507.692307,4233.333333,4488.717948,4167.692307,4397.435897,4175.384615,4184.102564,4470.769230,4181.538461,4628.205128,3938.461539,4022.564102
223,4366.666666,4488.717948,4505.128205,4233.333333,4481.538461,4164.102564,4393.846153,4167.179487,4177.948717,4468.717948,4180.512820,4618.974358,3933.846154,4020.512820
224,4370.769230,4498.461538,4509.230769,4234.871794,4485.641025,4166.666666,4396.923076,4168.717948,4182.051282,4476.923076,4182.051282,4620.000000,3944.102565,4029.230769
225,4369.230769,4497.435897,4503.589743,4233.846153,4493.333333,4169.743589,4396.923076,4171.794871,4183.589743,4478.974358,4172.307692,4617.435897,3945.641026,4024.102564
226,4362.564102,4489.230769,4496.410256,4231.282051,4492.307692,4169.743589,4394.871794,4169.743589,4181.025641,4471.794871,4168.205128,4613.333333,3936.923077,4013.333333
227,4364.615384,4491.282051,4502.051282,4234.358974,4488.717948,4169.230769,4396.410256,4170.256410,4181.025641,4475.384615,4180.000000,4618.461538,3949.743590,4022.051282
228,4374.358974,4499.487179,4509.230769,4238.974358,4493.846153,4170.769230,4396.923076,4175.897435,4188.717948,4487.692307,4192.820512,4628.717948,3971.794872,4037.948717
229,4378.461538,4502.564102,4511.282051,4238.461538,4500.512820,4170.769230,4396.410256,4182.564102,4196.410256,4489.230769,4191.794871,4630.769230,3975.384616,4040.512820
230,4377.435897,4506.153846,4513.333333,4242.051282,4501.538461,4174.871794,4400.512820,4187.179487,4195.897435,4494.358974,4185.641025,4630.256410,3972.307693,4040.512820
231,4379.487179,4509.230769,4512.820512,4245.641025,4502.051282,4186.153846,4410.256410,4186.666666,4196.410256,4506.666666,4193.333333,4632.820512,3975.384616,4043.076923
232,4383.589743,4510.256410,4510.769230,4238.974358,4507.692307,4190.256410,4413.846153,4186.666666,4201.025641,4501.538461,4200.000000,4634.871794,3975.897436,4041.025641
233,4382.051282,4511.794871,4514.871794,4237.948717,4509.743589,4186.666666,4408.205128,4190.256410,4202.051282,4493.333333,4193.846153,4633.333333,3974.358975,4038.461538
234,4378.461538,4507.179487,4518.974358,4248.205128,4504.102564,4184.615384,4407.692307,4197.435897,4201.025641,4500.000000,4190.769230,4636.923076,3976.923077,4041.025641
235,4386.153846,4506.153846,4518.974358,4252.307692,4504.615384,4187.179487,4412.820512,4201.025641,4204.102564,4502.564102,4200.000000,4645.128205,3980.000000,4048.205128
236,4392.307692,4517.948717,4522.564102,4249.743589,4508.205128,4191.282051,4414.871794,4198.461538,4206.666666,4502.051282,4211.794871,4649.230769,3982.051283,4051.794871
237,4389.743589,4526.153846,4524.102564,4250.256410,4507.179487,4192.820512,4414.358974,4197.948717,4206.666666,4509.743589,4214.358974,4648.205128,3983.589744,4047.179487
238,4390.256410,4522.564102,4522.051282,4250.256410,4513.333333,4194.871794,4413.333333,4199.487179,4204.615384,4508.717948,4205.641025,4648.205128,3985.128206,4046.666666
239,4395.897435,4523.076923,4523.076923,4249.743589,4521.538461,4197.948717,4416.410256,4199.487179,4203.076923,4503.076923,4201.025641,4649.743589,3986.153847,4054.358974
240,4392.820512,4520.512820,4521.538461,4249.743589,4514.871794,4193.846153,4416.923076,4198.461538,4203.589743,4505.641025,4206.153846,4647.692307,3986.153847,4057.435897
241,4385.641025,4509.743589,4519.487179,4247.179487,4503.589743,4185.128205,4412.307692,4196.923076,4202.564102,4507.179487,4204.615384,4644.615384,3987.692308,4050.256410
242,4382.564102,4511.282051,4522.564102,4246.153846,4505.641025,4185.128205,4416.923076,4197.435897,4202.564102,4501.025641,4200.000000,4645.128205,3987.179488,4042.051282
243,4384.615384,4521.538461,4522.564102,4238.974358,4508.717948,4188.205128,4423.076923,4200.000000,4202.564102,4492.307692,4202.564102,4645.128205,3980.512821,4041.025641
244,4391.282051,4523.589743,4522.051282,4229.743589,4506.666666,4188.205128,4419.487179,4197.948717,4203.076923,4496.923076,4203.076923,4645.641025,3974.358975,4047.179487
245,4391.794871,4524.102564,4522.564102,4227.179487,4507.179487,4187.692307,4414.358974,4190.256410,4203.076923,4508.205128,4201.025641,4645.641025,3974.871795,4046.666666
246,4383.589743,4520.000000,4516.923076,4229.230769,4506.666666,4187.179487,4416.923076,4188.717948,4201.538461,4506.153846,4202.051282,4643.589743,3983.076924,4039.487179
247,4383.589743,4508.717948,4514.871794,4229.230769,4506.666666,4191.282051,4422.051282,4193.846153,4201.025641,4503.076923,4201.025641,4643.076923,3987.692308,4042.564102
248,4391.794871,4518.974358,4522.051282,4229.230769,4510.769230,4199.487179,4424.615384,4198.974358,4203.076923,4509.230769,4198.461538,4644.615384,3976.410257,4049.230769
249,4395.384615,4536.923076,4525.128205,4231.794871,4512.820512,4200.000000,4429.230769,4201.538461,4206.153846,4507.179487,4200.512820,4647.692307,3973.846154,4050.256410
250,4390.256410,4530.769230,4520.512820,4230.769230,4509.230769,4190.256410,4426.153846,4194.871794,4202.051282,4493.846153,4198.461538,4645.128205,3983.076924,4048.717948
251,4388.205128,4521.025641,4520.512820,4228.205128,4506.153846,4185.128205,4415.897435,4184.615384,4196.410256,4492.307692,4197.435897,4643.589743,3979.487180,4045.641025
252,4392.820512,4524.102564,4524.615384,4229.743589,4506.153846,4190.256410,4415.897435,4184.615384,4197.948717,4503.076923,4208.205128,4646.153846,3972.820513,4048.205128
253,4396.410256,4521.025641,4524.102564,4233.846153,4510.256410,4190.769230,4424.615384,4194.871794,4202.051282,4508.205128,4215.897435,4652.820512,3983.076924,4052.820512
254,4394.358974,4518.974358,4521.025641,4233.846153,4515.384615,4191.282051,4428.205128,4201.025641,4205.641025,4503.589743,4213.846153,4657.435897,3992.820513,4052.307692
255,4393.846153,4525.128205,4523.076923,4233.333333,4514.358974,4194.358974,4426.666666,4200.512820,4207.692307,4502.564102,4210.769230,4655.897435,3986.153847,4051.282051
