,AF3,F7,F3,FC5,T7,P7,O1,O2,P8,T8,FC6,F4,F8,AF4
0,4390.769230,4513.333333,4520.512820,4267.692307,4490.256410,4178.974358,4423.076923,4192.307692,4224.615384,4502.051282,4205.641025,4632.307692,3991.794872,4035.384615
1,4382.051282,4507.179487,4518.461538,4263.076923,4490.256410,4180.000000,4422.051282,4191.282051,4220.512820,4494.871794,4195.384615,4625.128205,3982.564103,4030.256410
2,4384.102564,4514.358974,4524.615384,4262.051282,4494.871794,4181.025641,4421.538461,4200.000000,4224.615384,4494.358974,4203.076923,4633.333333,3985.128206,4037.948717
3,4400.000000,4531.282051,4533.846153,4269.743589,4507.692307,4184.102564,4425.641025,4211.282051,4235.897435,4500.000000,4218.461538,4647.692307,3993.333334,4053.333333
4,4409.230769,4538.461538,4537.435897,4276.410256,4521.025641,4184.102564,4429.230769,4212.820512,4244.615384,4511.282051,4220.512820,4653.846153,3995.897436,4058.974358
5,4402.564102,4533.333333,4535.384615,4269.743589,4518.974358,4183.076923,4429.230769,4208.205128,4245.128205,4511.794871,4213.333333,4648.205128,3995.384616,4052.820512
6,4395.384615,4529.743589,4532.820512,4261.025641,4502.051282,4180.000000,4428.717948,4207.692307,4239.487179,4504.615384,4212.820512,4643.589743,3996.410257,4048.717948
7,4398.974358,4529.743589,4528.717948,4262.564102,4493.333333,4177.435897,4431.282051,4207.179487,4235.897435,4506.153846,4217.435897,4647.692307,3990.769231,4045.128205
8,4404.615384,4532.820512,4528.717948,4265.128205,4501.025641,4179.487179,4434.358974,4204.615384,4236.923076,4506.666666,4220.512820,4652.307692,3981.538462,4044.102564
9,4401.025641,4531.794871,4536.923076,4264.102564,4507.692307,4180.000000,4431.282051,4205.128205,4237.435897,4498.974358,4216.410256,4651.794871,3981.538462,4047.179487
10,4394.358974,4527.179487,4535.897435,4264.102564,4508.205128,4178.974358,4425.641025,4202.051282,4231.282051,4489.743589,4203.076923,4646.153846,3988.205129,4043.076923
11,4394.358974,4526.666666,4527.692307,4264.102564,4512.307692,4182.051282,4430.769230,4200.512820,4228.205128,4494.871794,4202.051282,4641.538461,3986.153847,4036.923076
12,4395.384615,4528.205128,4524.615384,4263.076923,4506.153846,4186.153846,4433.846153,4206.153846,4234.871794,4508.205128,4214.358974,4641.538461,3973.333334,4036.410256
13,4392.307692,4528.717948,4523.589743,4263.076923,4500.000000,4182.564102,4427.692307,4207.692307,4237.948717,4509.230769,4213.333333,4642.564102,3971.794872,4036.923076
14,4398.461538,4534.358974,4528.717948,4263.076923,4511.282051,4183.076923,4434.358974,4212.820512,4244.615384,4505.128205,4209.743589,4650.769230,3993.333334,4044.615384
15,4407.179487,4538.461538,4538.974358,4265.128205,4514.871794,4187.692307,4446.153846,4220.000000,4251.794871,4507.692307,4224.615384,4659.487179,4010.769230,4058.461538
16,4406.153846,4533.333333,4541.025641,4269.230769,4510.769230,4185.641025,4445.128205,4217.435897,4248.205128,4515.384615,4234.871794,4663.589743,4006.153846,4059.487179
17,4408.205128,4534.871794,4539.487179,4268.205128,4515.897435,4185.128205,4441.025641,4213.846153,4245.641025,4516.410256,4230.769230,4666.153846,3995.897436,4054.358974
18,4412.820512,4534.871794,4542.564102,4267.692307,4508.717948,4185.128205,4440.000000,4213.846153,4248.717948,4508.205128,4230.256410,4667.179487,3994.358975,4056.410256
19,4411.282051,4533.333333,4544.615384,4272.820512,4498.461538,4182.051282,4435.897435,4211.282051,4244.615384,4505.128205,4229.743589,4663.589743,3995.384616,4058.461538
20,4413.846153,4540.000000,4541.538461,4276.923076,4507.692307,4183.076923,4437.948717,4210.769230,4236.410256,4508.717948,4222.564102,4662.051282,3992.307693,4056.923076
21,4421.025641,4541.025641,4541.025641,4278.974358,4512.307692,4185.641025,4442.051282,4214.871794,4240.512820,4508.205128,4224.102564,4667.692307,3992.820513,4056.923076
22,4421.025641,4537.948717,4542.051282,4274.358974,4506.666666,4185.641025,4441.025641,4214.358974,4243.076923,4506.153846,4230.769230,4669.743589,4000.000000,4057.948717
23,4414.871794,4539.487179,4541.538461,4270.769230,4507.179487,4186.666666,4441.538461,4212.820512,4239.487179,4512.820512,4222.564102,4661.025641,3997.948718,4057.948717
24,4408.205128,4537.435897,4538.461538,4273.333333,4506.153846,4185.128205,4438.461538,4212.307692,4235.897435,4508.717948,4209.230769,4651.794871,3981.538462,4048.205128
25,4408.717948,4533.333333,4537.948717,4272.820512,4506.153846,4184.102564,4434.871794,4207.692307,4233.846153,4494.871794,4213.846153,4652.820512,3978.974359,4039.487179
26,4421.025641,4534.871794,4538.974358,4271.282051,4514.358974,4193.846153,4438.974358,4207.692307,4237.435897,4503.076923,4227.179487,4658.461538,4001.025641,4049.230769
27,4425.641025,4541.025641,4541.538461,4279.487179,4527.692307,4203.589743,4447.692307,4218.974358,4250.256410,4523.589743,4233.846153,4663.076923,4016.923076,4064.615384
28,4419.487179,4542.564102,4543.076923,4283.589743,4525.641025,4194.871794,4447.692307,4222.051282,4252.820512,4520.512820,4233.333333,4662.564102,4008.205128,4064.615384
29,4418.974358,4538.974358,4540.512820,4276.410256,4504.615384,4181.025641,4439.487179,4211.794871,4241.025641,4502.564102,4228.717948,4655.897435,3994.871795,4055.384615
30,4424.102564,4537.948717,4543.589743,4278.974358,4500.512820,4181.538461,4437.435897,4211.794871,4241.025641,4503.589743,4227.692307,4659.487179,4000.000000,4057.435897
31,4427.179487,4542.564102,4555.384615,4283.076923,4513.333333,4186.666666,4442.564102,4219.487179,4249.230769,4518.461538,4231.282051,4672.307692,4011.282051,4067.692307
32,4424.615384,4544.615384,4554.358974,4276.410256,4513.846153,4186.666666,4446.153846,4216.410256,4250.256410,4520.000000,4233.846153,4670.256410,4012.307692,4068.717948
33,4415.897435,4541.025641,4542.051282,4273.846153,4503.076923,4185.641025,4443.076923,4211.282051,4249.230769,4512.307692,4233.333333,4658.461538,4005.128205,4058.974358
34,4413.846153,4537.948717,4536.410256,4276.410256,4502.051282,4184.615384,4440.000000,4209.743589,4247.179487,4513.333333,4230.256410,4654.358974,4002.564102,4053.333333
35,4420.512820,4538.461538,4540.000000,4276.923076,4513.333333,4186.666666,4442.051282,4212.307692,4245.641025,4523.076923,4229.230769,4658.974358,4013.333333,4057.948717
36,4424.102564,4546.153846,4547.179487,4282.564102,4525.128205,4190.256410,4445.128205,4216.410256,4252.820512,4532.820512,4237.948717,4663.076923,4024.102564,4067.179487
37,4426.666666,4549.230769,4553.333333,4291.282051,4524.102564,4189.230769,4445.641025,4217.435897,4258.974358,4532.820512,4242.051282,4664.615384,4024.102564,4069.230769
38,4426.153846,4542.564102,4553.333333,4286.666666,4512.307692,4186.153846,4444.102564,4215.384615,4252.820512,4523.076923,4235.897435,4665.128205,4017.948717,4063.589743
39,4422.051282,4547.692307,4552.820512,4277.948717,4507.692307,4185.128205,4443.589743,4222.564102,4252.820512,4523.589743,4240.512820,4669.230769,4015.384615,4065.641025
40,4424.615384,4555.384615,4553.333333,4276.410256,4508.205128,4184.102564,4445.128205,4230.769230,4259.487179,4534.871794,4253.333333,4675.897435,4021.538461,4073.333333
41,4427.692307,4543.076923,4552.820512,4276.923076,4507.179487,4190.769230,4445.641025,4222.564102,4254.358974,4532.307692,4252.307692,4675.384615,4028.205128,4070.769230
42,4423.076923,4534.358974,4551.794871,4277.948717,4508.717948,4196.923076,4444.102564,4214.358974,4245.128205,4516.410256,4242.051282,4667.179487,4021.538461,4062.564102
43,4417.948717,4541.538461,4545.128205,4274.358974,4505.128205,4190.769230,4444.102564,4215.384615,4243.589743,4512.307692,4236.410256,4657.435897,4005.128205,4056.410256
44,4414.871794,4540.512820,4535.897435,4269.230769,4507.179487,4190.769230,4444.615384,4215.384615,4242.051282,4516.923076,4232.307692,4655.384615,4004.615384,4048.717948
45,4420.512820,4538.461538,4542.051282,4276.410256,4521.025641,4200.000000,4444.615384,4217.435897,4244.615384,4521.538461,4231.282051,4662.564102,4018.461538,4053.333333
46,4429.230769,4544.102564,4553.846153,4283.076923,4527.179487,4194.358974,4446.666666,4222.051282,4251.282051,4526.153846,4235.384615,4665.641025,4016.923076,4065.641025
47,4423.589743,4541.538461,4552.307692,4276.410256,4509.230769,4181.538461,4442.051282,4215.384615,4241.538461,4520.512820,4231.794871,4660.000000,4000.512820,4059.487179
48,4414.358974,4535.384615,4549.230769,4273.333333,4498.461538,4182.564102,4433.333333,4207.179487,4228.205128,4509.743589,4221.025641,4654.871794,3994.871795,4046.666666
49,4416.923076,4536.923076,4554.871794,4278.461538,4516.410256,4189.230769,4437.948717,4216.923076,4235.384615,4515.384615,4225.641025,4660.512820,4002.051282,4051.794871
50,4416.410256,4535.384615,4554.871794,4278.974358,4515.384615,4187.179487,4443.589743,4220.512820,4243.076923,4520.512820,4234.871794,4665.128205,4000.000000,4056.923076
51,4413.333333,4532.307692,4551.282051,4276.410256,4492.820512,4184.615384,4439.487179,4208.205128,4231.282051,4508.717948,4225.641025,4656.923076,3995.897436,4051.794871
52,4415.897435,4537.435897,4551.282051,4276.410256,4491.282051,4188.205128,4437.948717,4203.076923,4224.615384,4501.538461,4217.435897,4649.743589,3997.948718,4051.282051
53,4413.333333,4534.358974,4546.666666,4279.487179,4512.307692,4192.307692,4443.076923,4208.717948,4232.307692,4506.666666,4221.538461,4651.282051,3995.384616,4049.743589
54,4404.102564,4525.128205,4538.974358,4277.435897,4523.589743,4192.820512,4444.615384,4213.333333,4236.410256,4507.692307,4221.025641,4648.717948,3992.820513,4039.487179
55,4394.358974,4520.000000,4530.256410,4266.153846,4502.564102,4188.205128,4442.564102,4208.717948,4229.230769,4500.512820,4209.230769,4636.923076,3987.179488,4028.205128
56,4387.692307,4512.820512,4521.538461,4260.000000,4485.641025,4183.076923,4440.512820,4206.666666,4221.025641,4495.384615,4203.589743,4631.282051,3980.512821,4023.076923
57,4391.282051,4510.769230,4525.128205,4262.051282,4502.051282,4187.692307,4445.641025,4214.871794,4231.794871,4506.153846,4217.435897,4640.000000,3988.205129,4029.743589
58,4400.000000,4518.461538,4538.974358,4263.589743,4519.487179,4200.000000,4460.512820,4225.128205,4250.769230,4525.128205,4233.846153,4654.871794,4005.641025,4044.102564
59,4407.692307,4525.128205,4541.538461,4265.128205,4508.717948,4203.589743,4461.025641,4227.692307,4251.282051,4527.179487,4234.358974,4659.487179,4009.743589,4051.794871
60,4410.769230,4526.153846,4537.435897,4269.743589,4502.564102,4195.897435,4448.205128,4222.051282,4241.538461,4513.846153,4228.205128,4652.820512,4006.153846,4048.717948
61,4406.666666,4529.743589,4539.487179,4271.794871,4511.794871,4190.769230,4443.076923,4217.948717,4237.948717,4507.179487,4224.102564,4645.641025,4002.564102,4041.538461
62,4402.051282,4535.384615,4533.846153,4272.820512,4505.641025,4186.153846,4437.948717,4210.769230,4232.307692,4507.179487,4213.846153,4636.410256,3989.743590,4032.307692
63,4404.102564,4534.358974,4526.153846,4277.948717,4496.410256,4180.512820,4429.230769,4201.025641,4227.179487,4504.615384,4209.743589,4630.769230,3985.128206,4030.769230
64,4408.205128,4531.794871,4532.820512,4282.051282,4510.769230,4187.692307,4437.435897,4207.179487,4235.897435,4507.692307,4221.025641,4642.564102,4002.051282,4043.076923
65,4411.282051,4531.282051,4548.205128,4279.487179,4524.615384,4200.000000,4456.410256,4224.102564,4248.205128,4513.846153,4231.282051,4657.948717,4015.897435,4056.410256
66,4416.410256,4531.282051,4554.871794,4275.897435,4512.307692,4195.384615,4462.564102,4227.179487,4251.282051,4517.435897,4233.846153,4663.589743,4012.307692,4062.051282
67,4418.974358,4523.076923,4552.820512,4276.410256,4500.000000,4185.128205,4454.871794,4221.538461,4248.205128,4520.512820,4236.923076,4665.641025,4015.897435,4063.589743
68,4416.923076,4521.025641,4553.846153,4278.461538,4506.153846,4186.153846,4446.666666,4223.076923,4247.179487,4523.076923,4240.512820,4667.692307,4026.666666,4064.615384
69,4415.384615,4534.358974,4551.794871,4278.461538,4509.230769,4186.666666,4443.589743,4222.051282,4245.641025,4520.512820,4236.410256,4660.000000,4019.487179,4060.000000
70,4414.358974,4542.564102,4544.102564,4280.512820,4508.717948,4183.589743,4440.000000,4213.846153,4237.435897,4510.256410,4225.641025,4649.230769,4003.589743,4049.230769
71,4412.307692,4535.384615,4538.461538,4281.538461,4506.153846,4184.615384,4434.871794,4205.641025,4230.769230,4502.051282,4216.410256,4644.615384,3996.410257,4041.025641
72,4400.512820,4521.538461,4536.410256,4267.179487,4487.692307,4182.051282,4433.846153,4203.076923,4229.230769,4500.000000,4213.333333,4639.487179,3990.256411,4036.923076
73,4392.307692,4515.384615,4536.410256,4256.410256,4483.589743,4181.025641,4440.000000,4209.743589,4231.282051,4505.641025,4221.538461,4640.512820,3991.794872,4038.461538
74,4406.666666,4527.692307,4540.512820,4269.743589,4515.897435,4188.205128,4445.128205,4221.025641,4241.538461,4525.641025,4232.820512,4649.230769,4009.743589,4050.256410
75,4418.461538,4538.461538,4542.564102,4284.102564,4526.153846,4188.205128,4444.102564,4225.641025,4250.769230,4536.410256,4232.307692,4651.282051,4023.076923,4060.512820
76,4407.179487,4529.743589,4538.461538,4280.512820,4494.358974,4183.076923,4442.051282,4222.564102,4244.102564,4517.948717,4231.282051,4641.538461,4016.410256,4053.846153
77,4400.512820,4526.666666,4537.435897,4276.923076,4495.384615,4187.692307,4444.102564,4216.410256,4233.846153,4497.948717,4234.871794,4638.461538,4003.589743,4045.128205
78,4409.743589,4533.846153,4541.025641,4279.487179,4519.487179,4192.307692,4445.641025,4214.871794,4232.820512,4504.102564,4227.692307,4644.102564,4000.512820,4047.179487
79,4410.256410,4528.717948,4539.487179,4278.974358,4503.589743,4185.641025,4441.538461,4215.897435,4232.820512,4514.871794,4213.333333,4642.051282,4005.641025,4048.205128
80,4408.205128,4530.256410,4543.076923,4281.538461,4488.205128,4183.589743,4441.538461,4216.410256,4237.948717,4516.923076,4217.435897,4641.538461,4011.282051,4049.743589
81,4413.846153,4546.153846,4550.769230,4286.153846,4508.205128,4188.717948,4444.615384,4214.358974,4241.025641,4515.384615,4226.666666,4644.102564,4005.641025,4051.794871
82,4413.333333,4545.641025,4547.692307,4287.179487,4519.487179,4191.794871,4442.051282,4207.692307,4231.794871,4508.717948,4218.974358,4637.948717,3991.282052,4043.589743
83,4408.205128,4534.871794,4539.487179,4290.769230,4515.897435,4194.358974,4441.025641,4209.230769,4227.179487,4504.615384,4210.769230,4632.307692,3990.769231,4037.435897
84,4410.256410,4535.384615,4537.435897,4289.230769,4513.333333,4191.282051,4442.564102,4217.435897,4233.846153,4507.179487,4215.384615,4638.974358,4005.128205,4044.102564
85,4415.384615,4536.923076,4543.076923,4282.564102,4508.205128,4187.179487,4442.564102,4217.435897,4237.435897,4515.384615,4222.051282,4644.102564,4013.333333,4050.256410
86,4417.948717,4533.846153,4550.256410,4282.564102,4501.025641,4187.692307,4443.076923,4219.487179,4238.461538,4522.051282,4228.205128,4646.666666,4011.282051,4052.820512
87,4421.025641,4533.846153,4552.820512,4282.564102,4494.871794,4188.205128,4445.641025,4223.589743,4242.564102,4518.974358,4233.846153,4655.384615,4006.666666,4056.923076
88,4420.512820,4535.384615,4552.307692,4277.948717,4501.538461,4189.743589,4443.076923,4218.461538,4237.948717,4510.769230,4232.307692,4655.897435,4008.205128,4057.948717
89,4416.410256,4537.948717,4552.307692,4280.000000,4525.641025,4192.307692,4443.589743,4215.897435,4233.333333,4508.205128,4225.641025,4650.769230,4014.358974,4056.923076
90,4413.333333,4538.461538,4547.179487,4284.102564,4531.282051,4191.282051,4446.666666,4216.410256,4231.794871,4508.205128,4218.461538,4648.205128,4008.717948,4052.820512
91,4408.717948,4530.769230,4538.974358,4277.948717,4501.538461,4183.076923,4436.923076,4205.128205,4221.025641,4502.051282,4207.179487,4638.974358,3989.230770,4043.076923
92,4406.153846,4523.589743,4537.948717,4274.871794,4484.102564,4176.923076,4428.717948,4202.051282,4219.487179,4496.410256,4205.641025,4636.410256,3985.128206,4041.025641
93,4409.743589,4527.692307,4543.076923,4280.512820,4504.102564,4180.512820,4438.974358,4213.333333,4232.820512,4507.179487,4219.487179,4648.717948,4005.641025,4053.333333
94,4418.461538,4537.435897,4549.743589,4288.205128,4527.179487,4187.179487,4447.692307,4220.000000,4240.512820,4524.102564,4228.205128,4658.974358,4025.128205,4064.615384
95,4426.153846,4543.589743,4553.846153,4294.871794,4529.230769,4187.692307,4444.615384,4223.589743,4242.564102,4532.820512,4229.743589,4658.461538,4026.153846,4067.179487
96,4424.102564,4543.076923,4551.282051,4291.282051,4515.384615,4182.051282,4442.564102,4225.128205,4248.717948,4531.282051,4231.282051,4655.897435,4016.410256,4063.076923
97,4416.923076,4539.487179,4544.615384,4283.589743,4506.666666,4180.512820,4444.102564,4221.025641,4247.692307,4528.717948,4231.794871,4651.282051,4014.358974,4059.487179
98,4416.923076,4544.102564,4540.512820,4286.666666,4522.051282,4181.025641,4443.076923,4224.102564,4249.743589,4529.230769,4235.384615,4652.820512,4022.051282,4062.564102
99,4423.589743,4554.358974,4541.025641,4295.384615,4540.512820,4184.615384,4443.589743,4233.333333,4257.948717,4531.282051,4243.589743,4660.512820,4028.717948,4066.153846
100,4426.666666,4557.435897,4541.025641,4296.923076,4529.230769,4184.102564,4445.128205,4230.256410,4254.358974,4528.717948,4238.974358,4656.410256,4025.641025,4065.128205
101,4420.512820,4551.282051,4538.461538,4292.307692,4513.846153,4173.333333,4440.000000,4220.000000,4245.641025,4521.025641,4224.102564,4646.153846,4015.384615,4060.000000
102,4411.794871,4543.076923,4537.948717,4287.179487,4525.128205,4170.769230,4435.897435,4216.410256,4241.025641,4511.794871,4218.974358,4643.076923,4007.179487,4052.820512
103,4406.666666,4535.384615,4535.384615,4277.435897,4531.282051,4173.846153,4432.820512,4212.307692,4230.256410,4503.076923,4212.820512,4638.974358,3997.948718,4044.102564
104,4406.666666,4534.871794,4533.333333,4270.769230,4523.076923,4171.282051,4433.333333,4212.307692,4225.641025,4504.102564,4208.717948,4634.358974,3990.256411,4039.487179
105,4408.717948,4540.512820,4537.948717,4274.871794,4528.717948,4177.435897,4438.974358,4217.435897,4237.948717,4511.794871,4219.487179,4638.974358,3995.897436,4046.666666
106,4410.256410,4538.974358,4541.538461,4276.410256,4533.333333,4185.641025,4443.076923,4217.948717,4241.538461,4511.282051,4226.153846,4645.128205,4001.538461,4052.307692
107,4412.307692,4532.820512,4538.974358,4275.384615,4517.435897,4176.923076,4441.025641,4216.410256,4232.820512,4507.692307,4224.102564,4647.692307,3995.897436,4048.205128
108,4413.846153,4532.820512,4542.051282,4277.948717,4496.923076,4170.769230,4438.974358,4216.923076,4234.358974,4504.615384,4227.179487,4650.769230,3993.333334,4047.692307
109,4416.410256,4536.410256,4551.794871,4273.333333,4496.923076,4181.538461,4442.564102,4216.410256,4238.974358,4505.128205,4230.769230,4653.333333,4003.589743,4055.897435
110,4423.076923,4541.025641,4554.358974,4270.769230,4517.435897,4186.666666,4445.641025,4220.512820,4239.487179,4514.358974,4232.307692,4658.974358,4010.769230,4060.000000
111,4425.128205,4546.666666,4550.769230,4277.948717,4521.538461,4179.487179,4444.102564,4226.666666,4241.025641,4516.923076,4232.820512,4662.051282,4007.692307,4055.384615
112,4418.461538,4547.179487,4550.256410,4277.948717,4514.358974,4177.948717,4444.102564,4223.076923,4239.487179,4511.794871,4225.128205,4656.410256,4000.512820,4052.820512
113,4416.410256,4540.512820,4548.205128,4272.307692,4519.487179,4184.102564,4445.641025,4215.384615,4233.846153,4507.179487,4220.512820,4652.820512,3991.794872,4050.256410
114,4414.871794,4535.384615,4540.000000,4273.333333,4512.820512,4180.512820,4439.487179,4209.230769,4224.615384,4494.871794,4224.615384,4650.256410,3983.076924,4041.025641
115,4409.230769,4537.948717,4539.487179,4268.717948,4494.871794,4173.846153,4431.794871,4206.666666,4221.538461,4486.666666,4219.487179,4645.641025,3986.153847,4037.435897
116,4412.820512,4541.538461,4550.256410,4264.615384,4508.205128,4177.948717,4436.923076,4212.307692,4232.307692,4498.974358,4211.794871,4650.256410,3996.923077,4044.102564
117,4421.025641,4542.051282,4556.410256,4277.948717,4536.923076,4190.769230,4446.666666,4220.000000,4241.025641,4512.307692,4218.974358,4660.512820,3997.948718,4049.743589
118,4421.538461,4543.076923,4557.435897,4283.589743,4530.256410,4194.871794,4446.153846,4223.589743,4242.051282,4510.256410,4226.153846,4661.538461,3996.923077,4052.307692
119,4415.384615,4536.410256,4554.871794,4269.743589,4494.871794,4185.641025,4443.076923,4221.538461,4238.974358,4502.564102,4221.025641,4655.897435,3994.871795,4048.205128
120,4408.717948,4525.128205,4547.179487,4261.025641,4481.538461,4176.410256,4443.589743,4216.923076,4229.743589,4498.974358,4211.794871,4649.743589,3982.564103,4037.948717
121,4407.179487,4529.230769,4545.641025,4266.153846,4501.538461,4180.512820,4443.589743,4216.923076,4225.641025,4503.589743,4211.794871,4649.743589,3980.512821,4036.923076
122,4413.333333,4541.025641,4551.794871,4274.358974,4520.512820,4189.230769,4445.128205,4217.948717,4231.282051,4503.076923,4217.435897,4653.333333,3993.333334,4044.102564
123,4418.461538,4545.128205,4553.846153,4277.948717,4513.333333,4184.102564,4442.564102,4208.205128,4229.230769,4495.384615,4216.923076,4649.230769,3992.307693,4044.615384
124,4416.410256,4544.615384,4549.230769,4277.435897,4505.128205,4178.974358,4431.282051,4198.461538,4221.025641,4493.846153,4213.846153,4644.615384,3982.564103,4043.076923
125,4417.948717,4548.205128,4548.717948,4277.948717,4516.923076,4185.128205,4432.820512,4202.564102,4223.076923,4494.871794,4215.384615,4646.666666,3990.256411,4045.128205
126,4421.025641,4550.769230,4549.743589,4280.000000,4518.974358,4185.641025,4440.512820,4209.743589,4227.179487,4496.410256,4220.000000,4648.717948,3995.384616,4044.615384
127,4420.512820,4551.282051,4545.641025,4281.538461,4509.743589,4183.076923,4436.410256,4214.358974,4231.794871,4499.487179,4223.589743,4650.769230,3989.743590,4044.102564
128,4422.051282,4553.333333,4540.512820,4284.102564,4513.846153,4184.102564,4434.358974,4214.871794,4233.846153,4499.487179,4221.538461,4651.282051,3992.307693,4048.717948
129,4421.538461,4553.846153,4538.461538,4285.641025,4520.000000,4187.692307,4440.512820,4213.846153,4231.794871,4501.025641,4216.923076,4645.128205,3996.923077,4049.230769
130,4418.461538,4555.384615,4540.512820,4282.051282,4514.358974,4188.717948,4442.051282,4216.923076,4232.820512,4511.794871,4218.461538,4642.051282,3997.435898,4046.153846
131,4419.487179,4553.333333,4540.000000,4280.512820,4507.692307,4186.666666,4440.000000,4217.435897,4233.333333,4514.871794,4221.538461,4644.102564,3998.974359,4044.102564
132,4419.487179,4546.153846,4538.461538,4282.051282,4506.666666,4183.076923,4437.948717,4205.641025,4230.769230,4500.512820,4212.307692,4642.051282,3992.820513,4040.000000
133,4416.410256,4543.076923,4543.589743,4283.589743,4512.307692,4185.128205,4436.923076,4207.179487,4233.333333,4494.358974,4208.717948,4642.564102,3981.538462,4040.512820
134,4420.000000,4549.743589,4552.307692,4284.615384,4530.769230,4196.410256,4445.641025,4225.641025,4243.589743,4510.769230,4224.102564,4651.282051,3988.717949,4048.205128
135,4428.205128,4557.435897,4556.410256,4284.102564,4539.487179,4204.102564,4453.333333,4230.256410,4252.307692,4525.128205,4238.974358,4660.000000,4008.717948,4055.384615
136,4426.153846,4553.333333,4553.846153,4285.128205,4521.025641,4201.025641,4447.179487,4224.102564,4250.256410,4516.410256,4234.871794,4658.461538,4010.256410,4055.384615
137,4424.102564,4550.256410,4553.333333,4288.205128,4503.076923,4191.282051,4444.102564,4221.538461,4238.461538,4503.589743,4220.512820,4651.794871,3998.461539,4052.307692
138,4427.692307,4555.384615,4556.410256,4293.333333,4505.128205,4189.230769,4445.128205,4220.000000,4236.410256,4507.692307,4220.000000,4652.307692,3998.974359,4053.333333
139,4430.769230,4557.948717,4558.461538,4294.358974,4520.000000,4198.461538,4444.102564,4223.076923,4247.692307,4516.923076,4233.333333,4662.564102,4008.205128,4061.025641
140,4429.230769,4553.846153,4556.923076,4285.641025,4528.205128,4198.974358,4443.589743,4226.666666,4247.179487,4517.435897,4233.846153,4665.128205,4006.666666,4062.564102
141,4423.589743,4548.717948,4554.358974,4282.051282,4521.538461,4191.282051,4443.076923,4217.948717,4238.461538,4511.794871,4219.487179,4655.897435,3999.487180,4054.358974
142,4427.692307,4552.307692,4556.923076,4291.794871,4515.384615,4192.820512,4442.564102,4214.358974,4236.410256,4508.205128,4218.461538,4656.923076,4002.051282,4054.871794
143,4432.307692,4557.948717,4556.923076,4292.307692,4515.384615,4192.307692,4443.076923,4220.000000,4240.000000,4511.282051,4225.128205,4660.000000,4001.025641,4060.000000
144,4419.487179,4549.743589,4551.794871,4277.435897,4507.692307,4183.589743,4442.564102,4217.948717,4237.948717,4511.282051,4217.435897,4648.205128,3990.256411,4048.717948
145,4409.743589,4537.948717,4551.282051,4277.435897,4499.487179,4184.102564,4439.487179,4215.897435,4236.410256,4509.743589,4212.307692,4642.564102,3989.743590,4038.461538
146,4421.538461,4546.153846,4553.846153,4286.153846,4501.538461,4189.743589,4433.846153,4216.923076,4238.974358,4508.717948,4217.435897,4652.820512,4001.025641,4044.615384
147,4427.179487,4553.333333,4552.307692,4282.051282,4503.589743,4184.102564,4427.692307,4213.333333,4235.384615,4504.102564,4215.897435,4652.820512,3998.974359,4049.230769
148,4416.410256,4544.102564,4548.717948,4278.974358,4509.230769,4182.564102,4431.794871,4213.333333,4233.846153,4502.564102,4214.358974,4647.179487,3991.794872,4046.153846
149,4418.974358,4542.051282,4555.384615,4286.666666,4531.794871,4193.333333,4446.153846,4221.538461,4242.564102,4507.179487,4223.589743,4656.923076,3998.974359,4049.230769
150,4424.615384,4546.153846,4557.435897,4291.794871,4531.794871,4196.410256,4443.589743,4221.025641,4240.512820,4510.769230,4222.051282,4659.487179,3997.435898,4050.769230
151,4411.794871,4540.000000,4544.102564,4281.538461,4495.897435,4185.641025,4429.230769,4210.769230,4226.153846,4506.666666,4205.128205,4643.589743,3983.076924,4040.512820
152,4405.128205,4535.384615,4541.025641,4274.871794,4486.666666,4180.000000,4433.846153,4211.282051,4225.641025,4501.025641,4203.076923,4637.948717,3977.948718,4033.333333
153,4414.358974,4538.974358,4551.794871,4278.974358,4514.358974,4187.692307,4446.153846,4218.974358,4234.871794,4498.461538,4209.230769,4648.205128,3980.512821,4040.000000
154,4415.897435,4542.051282,4550.256410,4278.974358,4527.179487,4195.384615,4443.076923,4218.974358,4236.410256,4501.025641,4207.692307,4651.794871,3979.487180,4046.666666
155,4413.333333,4544.102564,4540.000000,4275.897435,4517.435897,4193.333333,4441.025641,4218.461538,4238.974358,4505.641025,4210.769230,4650.256410,3986.666667,4046.153846
156,4415.897435,4546.153846,4538.974358,4278.974358,4503.589743,4187.692307,4443.589743,4218.974358,4237.435897,4504.102564,4218.461538,4650.256410,3991.282052,4042.051282
157,4411.282051,4536.410256,4541.025641,4280.000000,4497.948717,4185.641025,4442.051282,4214.358974,4232.307692,4501.025641,4213.333333,4644.615384,3987.692308,4038.974358
158,4406.666666,4525.128205,4536.923076,4277.948717,4505.641025,4187.179487,4442.051282,4214.358974,4233.846153,4496.923076,4202.564102,4640.000000,3983.589744,4038.461538
159,4415.384615,4533.846153,4541.025641,4282.564102,4517.435897,4192.820512,4442.564102,4216.923076,4235.897435,4493.333333,4203.589743,4644.102564,3976.923077,4038.461538
160,4422.051282,4553.333333,4547.179487,4284.615384,4517.435897,4194.871794,4441.025641,4212.307692,4233.846153,4502.564102,4210.256410,4646.666666,3978.974359,4042.051282
161,4420.000000,4555.897435,4545.128205,4286.666666,4516.923076,4196.923076,4442.564102,4209.743589,4231.794871,4510.256410,4213.846153,4648.205128,3990.256411,4047.179487
162,4421.538461,4553.333333,4542.564102,4292.820512,4518.461538,4196.923076,4442.051282,4210.256410,4231.794871,4505.641025,4212.820512,4651.282051,3992.307693,4051.282051
163,4425.641025,4554.358974,4548.717948,4291.794871,4514.871794,4191.282051,4440.000000,4212.307692,4233.846153,4505.128205,4215.384615,4652.820512,3990.769231,4054.871794
164,4426.153846,4547.692307,4555.897435,4289.743589,4514.358974,4192.820512,4445.641025,4222.564102,4239.487179,4508.717948,4220.000000,4656.923076,3993.333334,4057.948717
165,4421.538461,4537.948717,4551.282051,4289.230769,4511.282051,4196.923076,4449.230769,4226.153846,4246.666666,4504.102564,4214.871794,4657.435897,3986.666667,4054.358974
166,4414.871794,4539.487179,4541.538461,4284.615384,4506.666666,4195.897435,4444.102564,4220.512820,4247.692307,4500.000000,4207.692307,4649.230769,3979.487180,4043.589743
167,4416.410256,4545.641025,4540.512820,4284.615384,4518.461538,4197.435897,4442.564102,4225.641025,4247.179487,4508.205128,4211.282051,4648.205128,3988.205129,4042.564102
168,4421.025641,4544.615384,4543.076923,4288.205128,4525.128205,4198.461538,4445.128205,4227.179487,4246.153846,4514.358974,4218.974358,4655.897435,3995.897436,4051.794871
169,4422.051282,4542.564102,4546.153846,4284.102564,4506.153846,4192.307692,4441.025641,4218.974358,4243.589743,4512.820512,4218.461538,4657.948717,3994.871795,4056.410256
170,4422.564102,4547.692307,4550.769230,4282.051282,4509.743589,4191.794871,4438.461538,4223.076923,4245.641025,4513.846153,4220.000000,4659.487179,3992.307693,4053.846153
171,4422.051282,4546.666666,4554.871794,4287.179487,4530.256410,4194.358974,4443.076923,4232.820512,4249.230769,4512.820512,4223.076923,4662.051282,3994.358975,4051.282051
172,4416.923076,4536.923076,4551.794871,4287.692307,4515.897435,4189.230769,4438.974358,4230.256410,4245.641025,4505.641025,4217.948717,4655.384615,3992.820513,4048.717948
173,4414.871794,4535.384615,4550.256410,4285.641025,4498.974358,4187.179487,4431.282051,4228.205128,4247.179487,4507.692307,4217.435897,4652.820512,3989.230770,4050.256410
174,4420.512820,4539.487179,4553.846153,4284.615384,4505.641025,4188.205128,4435.384615,4225.128205,4250.256410,4515.384615,4223.589743,4657.948717,3991.282052,4057.435897
175,4421.538461,4534.871794,4552.307692,4282.564102,4510.769230,4190.769230,4441.025641,4215.384615,4244.102564,4513.846153,4225.641025,4656.923076,3998.461539,4059.487179
176,4420.512820,4536.923076,4550.256410,4285.641025,4515.897435,4200.000000,4441.538461,4217.435897,4245.128205,4518.461538,4232.307692,4656.923076,4007.692307,4057.948717
177,4423.076923,4543.589743,4553.846153,4291.282051,4527.179487,4203.076923,4443.076923,4227.179487,4251.282051,4527.692307,4235.897435,4663.589743,4009.743589,4057.948717
178,4421.538461,4535.384615,4551.794871,4288.205128,4518.974358,4192.820512,4437.948717,4221.025641,4240.000000,4516.410256,4224.615384,4659.487179,3998.974359,4052.307692
179,4413.333333,4529.230769,4545.128205,4282.051282,4499.487179,4188.205128,4432.307692,4209.743589,4232.307692,4501.538461,4213.333333,4649.743589,3988.205129,4047.179487
180,4414.871794,4541.025641,4549.230769,4286.666666,4497.948717,4197.435897,4440.000000,4214.871794,4243.589743,4507.179487,4214.871794,4652.820512,3990.256411,4052.307692
181,4428.205128,4548.205128,4556.923076,4296.923076,4513.333333,4205.641025,4448.205128,4223.076923,4244.102564,4514.871794,4217.948717,4658.461538,3993.333334,4056.410256
182,4432.307692,4545.128205,4557.435897,4299.487179,4533.846153,4209.230769,4448.717948,4224.102564,4241.025641,4512.820512,4223.076923,4658.974358,3992.820513,4056.410256
183,4423.589743,4547.692307,4557.948717,4295.384615,4527.692307,4207.692307,4449.230769,4227.692307,4247.692307,4511.282051,4222.564102,4660.000000,3992.307693,4056.410256
184,4412.307692,4538.974358,4552.820512,4286.153846,4497.435897,4194.358974,4442.564102,4224.615384,4240.000000,4506.666666,4210.256410,4655.897435,3981.538462,4046.153846
185,4403.076923,4519.487179,4539.487179,4276.410256,4491.282051,4186.666666,4434.358974,4212.820512,4228.205128,4498.974358,4204.102564,4643.589743,3969.743590,4035.897435
186,4400.512820,4520.512820,4534.358974,4276.410256,4513.333333,4198.461538,4440.000000,4213.846153,4238.974358,4505.641025,4207.179487,4640.000000,3980.000000,4038.974358
187,4405.641025,4537.435897,4543.076923,4284.615384,4513.846153,4204.102564,4446.153846,4228.205128,4254.358974,4521.538461,4208.717948,4644.102564,3998.461539,4041.538461
188,4410.769230,4539.487179,4552.820512,4292.307692,4500.000000,4196.410256,4444.102564,4233.333333,4253.333333,4524.102564,4213.846153,4647.179487,4001.025641,4041.538461
189,4409.230769,4533.846153,4550.769230,4290.256410,4512.307692,4195.897435,4441.538461,4225.641025,4244.102564,4514.358974,4221.025641,4648.205128,3993.333334,4046.153846
190,4406.153846,4531.794871,4542.051282,4281.025641,4522.051282,4196.923076,4443.076923,4215.384615,4234.871794,4507.692307,4214.871794,4647.692307,3987.179488,4043.589743
191,4404.615384,4527.179487,4537.948717,4278.461538,4507.692307,4191.794871,4442.564102,4208.205128,4228.205128,4501.538461,4204.615384,4642.051282,3986.153847,4036.923076
192,4404.102564,4521.538461,4536.923076,4280.000000,4501.538461,4188.717948,4434.358974,4204.102564,4225.641025,4494.358974,4208.205128,4637.948717,3990.256411,4038.461538
193,4407.179487,4524.615384,4541.025641,4278.974358,4503.589743,4189.230769,4433.846153,4199.487179,4226.153846,4494.871794,4215.897435,4641.025641,3997.948718,4044.102564
194,4413.846153,4533.846153,4551.282051,4282.051282,4498.974358,4189.743589,4441.025641,4202.051282,4231.794871,4502.564102,4215.897435,4647.692307,3998.974359,4047.179487
195,4417.948717,4537.948717,4555.384615,4285.128205,4503.589743,4190.769230,4435.897435,4208.205128,4237.435897,4507.692307,4211.282051,4647.179487,3993.333334,4046.666666
196,4421.025641,4538.974358,4553.333333,4286.153846,4517.948717,4195.384615,4433.846153,4209.743589,4238.974358,4511.282051,4214.871794,4646.666666,4001.538461,4051.794871
197,4420.512820,4540.512820,4555.384615,4292.820512,4523.076923,4201.025641,4443.076923,4208.205128,4240.000000,4512.820512,4219.487179,4652.820512,4012.820512,4058.461538
198,4412.820512,4534.358974,4552.307692,4291.794871,4516.923076,4196.410256,4436.923076,4205.641025,4233.846153,4507.179487,4215.384615,4652.820512,4002.051282,4050.256410
199,4412.307692,4527.692307,4547.179487,4284.615384,4509.743589,4189.743589,4425.641025,4203.589743,4226.666666,4504.615384,4216.410256,4648.717948,3988.205129,4045.641025
200,4414.358974,4530.769230,4551.282051,4284.615384,4499.487179,4190.256410,4430.769230,4201.538461,4227.179487,4505.128205,4216.923076,4647.179487,3990.769231,4050.256410
201,4411.282051,4536.410256,4551.282051,4284.615384,4497.435897,4189.230769,4430.769230,4201.025641,4222.051282,4492.820512,4203.589743,4643.076923,3992.307693,4045.128205
202,4412.820512,4539.487179,4552.307692,4288.205128,4514.871794,4187.692307,4426.666666,4201.538461,4217.948717,4486.153846,4198.974358,4644.615384,3986.666667,4039.487179
203,4414.358974,4535.384615,4553.333333,4291.794871,4522.051282,4190.256410,4428.205128,4198.461538,4223.076923,4494.358974,4209.230769,4648.717948,3986.666667,4042.564102
204,4405.128205,4524.615384,4542.051282,4287.179487,4503.076923,4188.205128,4427.692307,4197.948717,4224.615384,4495.384615,4203.589743,4641.025641,3988.205129,4040.512820
205,4401.025641,4524.615384,4541.025641,4285.641025,4502.051282,4189.230769,4433.846153,4208.205128,4225.641025,4495.384615,4197.948717,4637.435897,3989.230770,4037.435897
206,4409.743589,4539.487179,4553.846153,4290.256410,4521.538461,4195.897435,4441.538461,4215.384615,4234.871794,4504.615384,4211.794871,4645.128205,3995.384616,4042.564102
207,4413.846153,4543.076923,4550.256410,4286.153846,4514.871794,4195.897435,4438.974358,4210.769230,4238.974358,4501.538461,4212.820512,4644.102564,3998.461539,4044.102564
208,4410.256410,4535.897435,4538.974358,4282.564102,4506.153846,4193.333333,4438.461538,4210.769230,4235.384615,4492.820512,4198.974358,4635.897435,3989.743590,4039.487179
209,4405.128205,4537.948717,4541.025641,4284.102564,4521.025641,4195.897435,4441.025641,4211.282051,4237.948717,4498.974358,4197.948717,4635.897435,3983.076924,4037.435897
210,4403.076923,4539.487179,4541.025641,4282.051282,4516.923076,4188.717948,4432.307692,4202.564102,4235.897435,4498.974358,4207.179487,4641.025641,3986.666667,4038.461538
211,4407.692307,4538.461538,4541.025641,4282.564102,4498.461538,4179.487179,4425.128205,4195.897435,4226.666666,4491.282051,4214.871794,4644.102564,3986.666667,4039.487179
212,4411.794871,4540.000000,4549.743589,4285.641025,4510.256410,4186.153846,4431.282051,4198.974358,4226.153846,4490.769230,4216.410256,4648.717948,3981.538462,4038.974358
213,4408.717948,4538.461538,4548.717948,4282.051282,4531.282051,4197.948717,4441.025641,4207.179487,4231.794871,4489.743589,4208.717948,4648.205128,3980.512821,4039.487179
214,4407.692307,4537.435897,4541.025641,4280.512820,4530.256410,4198.974358,4444.102564,4213.333333,4235.897435,4491.282051,4203.076923,4641.025641,3978.461539,4037.948717
215,4408.205128,4541.025641,4541.025641,4280.512820,4521.538461,4189.743589,4436.923076,4209.230769,4236.410256,4493.333333,4204.102564,4637.948717,3974.358975,4035.384615
216,4401.025641,4536.923076,4539.487179,4275.897435,4512.307692,4182.564102,4428.717948,4200.512820,4230.256410,4480.512820,4200.000000,4638.974358,3970.769231,4029.230769
217,4396.410256,4525.641025,4533.846153,4273.333333,4500.512820,4182.564102,4425.641025,4199.487179,4224.102564,4473.846153,4194.871794,4637.948717,3964.102565,4023.076923
218,4404.615384,4530.769230,4543.076923,4275.897435,4505.128205,4183.076923,4427.179487,4201.025641,4230.769230,4488.717948,4206.153846,4643.589743,3966.153847,4030.769230
219,4413.846153,4540.512820,4553.333333,4275.384615,4521.025641,4185.128205,4430.256410,4200.512820,4237.435897,4497.435897,4216.410256,4653.333333,3976.410257,4042.564102
220,4414.871794,4538.461538,4546.666666,4274.358974,4518.974358,4188.205128,4431.282051,4202.564102,4238.461538,4490.769230,4212.307692,4652.307692,3980.512821,4040.000000
221,4411.794871,4529.743589,4538.461538,4276.923076,4505.128205,4183.076923,4429.230769,4206.153846,4238.974358,4492.820512,4206.153846,4645.641025,3978.974359,4031.794871
222,4405.641025,4527.179487,4537.435897,4274.358974,4499.487179,4175.897435,4426.153846,4202.051282,4237.435897,4495.897435,4206.153846,4645.128205,3979.487180,4029.743589
223,4409.743589,4537.948717,4542.564102,4273.333333,4504.102564,4178.461538,4430.256410,4205.641025,4238.461538,4494.871794,4209.743589,4648.205128,3987.179488,4037.435897
224,4422.564102,4551.794871,4551.282051,4283.589743,4524.102564,4189.230769,4442.051282,4225.641025,4250.769230,4504.102564,4220.000000,4655.384615,3995.897436,4046.666666
225,4424.102564,4552.820512,4551.794871,4285.641025,4533.333333,4192.307692,4447.692307,4232.307692,4261.538461,4513.333333,4223.589743,4660.512820,3997.948718,4047.692307
226,4414.358974,4545.641025,4541.538461,4277.435897,4506.666666,4185.128205,4439.487179,4217.948717,4255.384615,4509.743589,4214.358974,4655.384615,3994.871795,4040.000000
227,4412.820512,4543.076923,4538.974358,4278.461538,4490.769230,4181.538461,4429.743589,4210.256410,4249.230769,4508.717948,4212.820512,4649.230769,3996.410257,4038.461538
228,4418.974358,4539.487179,4543.589743,4281.538461,4505.128205,4183.076923,4431.282051,4212.307692,4247.179487,4508.717948,4217.435897,4653.333333,3999.487180,4043.589743
229,4418.461538,4533.846153,4542.051282,4277.948717,4508.717948,4185.128205,4432.307692,4209.743589,4246.153846,4503.589743,4216.410256,4658.461538,3998.461539,4043.589743
230,4420.000000,4541.538461,4541.538461,4278.461538,4509.230769,4187.692307,4430.769230,4209.230769,4246.153846,4505.128205,4218.974358,4660.000000,4002.051282,4045.128205
231,4423.076923,4550.256410,4541.538461,4279.487179,4517.948717,4185.641025,4431.794871,4213.333333,4246.153846,4509.743589,4218.461538,4659.487179,4006.666666,4047.692307
232,4419.487179,4544.102564,4540.512820,4277.435897,4516.410256,4185.128205,4432.820512,4215.384615,4247.692307,4508.205128,4211.282051,4653.333333,4002.051282,4042.564102
233,4420.000000,4541.538461,4545.128205,4280.512820,4516.923076,4190.256410,4436.410256,4222.051282,4252.820512,4507.692307,4212.820512,4652.820512,3997.435898,4042.564102
234,4426.666666,4550.256410,4552.307692,4281.025641,4522.564102,4192.307692,4439.487179,4229.743589,4257.948717,4511.282051,4218.974358,4661.025641,3999.487180,4050.256410
235,4423.589743,4548.717948,4553.333333,4275.384615,4509.743589,4185.128205,4434.358974,4225.128205,4253.333333,4510.256410,4212.307692,4658.974358,3998.974359,4048.717948
236,4412.820512,4534.358974,4546.153846,4273.333333,4497.948717,4180.512820,4425.641025,4215.384615,4246.153846,4508.205128,4204.102564,4650.256410,3998.461539,4038.974358
237,4412.820512,4527.692307,4537.948717,4271.794871,4500.000000,4179.487179,4424.102564,4213.333333,4243.589743,4510.256410,4205.128205,4649.230769,4002.564102,4036.923076
238,4414.871794,4530.769230,4543.589743,4272.820512,4507.179487,4187.179487,4433.846153,4219.487179,4246.666666,4511.282051,4204.102564,4652.307692,3998.974359,4038.974358
239,4409.230769,4529.230769,4552.820512,4273.333333,4514.358974,4197.948717,4443.076923,4224.615384,4249.230769,4501.538461,4200.512820,4653.333333,3984.615385,4036.410256
240,4406.153846,4526.666666,4546.666666,4268.205128,4513.333333,4192.307692,4437.435897,4223.076923,4243.589743,4494.358974,4201.025641,4649.230769,3975.384616,4031.282051
241,4410.256410,4533.333333,4536.923076,4268.205128,4511.282051,4185.128205,4425.641025,4215.384615,4239.487179,4503.076923,4200.000000,4643.076923,3983.589744,4027.179487
242,4409.230769,4539.487179,4536.923076,4271.794871,4505.128205,4184.102564,4425.641025,4206.666666,4240.512820,4506.153846,4192.307692,4638.461538,3998.974359,4027.692307
243,4404.102564,4535.897435,4536.923076,4269.230769,4491.794871,4180.000000,4429.230769,4207.692307,4238.461538,4502.564102,4192.307692,4636.410256,3996.923077,4026.666666
244,4405.128205,4532.820512,4533.333333,4264.615384,4489.230769,4177.948717,4426.153846,4210.256410,4235.384615,4495.897435,4194.871794,4634.358974,3982.564103,4023.589743
245,4411.282051,4536.923076,4537.435897,4270.769230,4496.923076,4182.564102,4425.641025,4207.179487,4235.897435,4490.256410,4193.333333,4638.974358,3983.589744,4028.717948
246,4419.487179,4545.641025,4545.128205,4282.051282,4506.666666,4188.717948,4428.205128,4208.205128,4241.538461,4502.564102,4200.000000,4647.179487,4001.025641,4037.948717
247,4426.153846,4550.256410,4552.820512,4288.717948,4516.923076,4194.871794,4430.256410,4216.923076,4246.153846,4521.538461,4210.769230,4651.794871,4007.692307,4043.076923
248,4425.641025,4547.692307,4554.871794,4285.128205,4517.435897,4199.487179,4431.282051,4217.435897,4244.615384,4515.897435,4205.641025,4651.282051,3996.923077,4042.051282
249,4421.025641,4546.153846,4550.256410,4278.461538,4510.769230,4196.923076,4434.358974,4210.256410,4239.487179,4501.025641,4192.820512,4647.179487,3988.717949,4038.974358
250,4423.076923,4548.205128,4551.794871,4283.076923,4515.384615,4198.974358,4442.564102,4216.923076,4245.641025,4504.615384,4200.512820,4654.358974,3997.948718,4046.153846
251,4425.641025,4548.717948,4555.384615,4284.615384,4513.846153,4201.538461,4443.589743,4221.538461,4249.230769,4508.205128,4215.384615,4659.487179,4006.666666,4050.256410
252,4422.051282,4547.692307,4550.256410,4277.435897,4501.538461,4193.333333,4432.307692,4215.897435,4243.076923,4506.153846,4211.794871,4651.794871,3998.461539,4044.102564
253,4418.461538,4543.589743,4546.666666,4278.461538,4498.461538,4185.641025,4428.205128,4215.384615,4245.128205,4508.717948,4203.589743,4649.230769,3994.358975,4042.051282
254,4415.897435,4537.435897,4548.205128,4278.974358,4501.025641,4184.102564,4431.794871,4216.923076,4249.743589,4508.205128,4206.153846,4653.333333,4001.538461,4043.589743
255,4412.820512,4537.948717,4544.615384,4269.743589,4506.666666,4186.666666,4431.794871,4215.897435,4243.076923,4506.666666,4209.743589,4650.769230,4001.538461,4041.538461
256,4409.743589,4540.000000,4536.923076,4268.205128,4516.923076,4187.179487,4435.897435,4215.384615,4240.512820,4506.153846,4203.076923,4645.128205,3991.794872,4037.435897
257,4408.205128,4533.846153,4536.923076,4274.871794,4517.435897,4188.717948,4437.948717,4213.333333,4243.589743,4506.666666,4198.461538,4644.615384,3987.692308,4032.307692
258,4406.666666,4531.282051,4540.000000,4272.307692,4502.051282,4187.692307,4432.820512,4209.743589,4239.487179,4508.205128,4200.512820,4640.512820,3991.282052,4030.769230
259,4406.666666,4534.871794,4539.487179,4271.794871,4490.256410,4185.128205,4435.384615,4210.769230,4238.974358,4506.666666,4202.564102,4640.000000,3993.846154,4037.435897
