,AF3,F7,F3,FC5,T7,P7,O1,O2,P8,T8,FC6,F4,F8,AF4
0,4416.410256,4516.410256,4530.769230,4251.794871,4477.435897,4204.102564,4448.205128,3966.666667,4233.846153,4491.282051,4215.897435,4602.051282,4011.282051,4080.512820
1,4402.051282,4506.153846,4523.589743,4233.846153,4473.333333,4190.769230,4442.051282,3954.358975,4225.641025,4486.153846,4200.000000,4589.743589,4003.589743,4066.153846
2,4391.282051,4493.846153,4517.948717,4229.743589,4474.358974,4189.230769,4438.974358,3948.717949,4219.487179,4484.102564,4197.435897,4581.538461,3989.230770,4057.948717
3,4400.000000,4502.051282,4522.051282,4246.666666,4475.897435,4196.923076,4441.538461,3953.333334,4221.025641,4487.692307,4205.641025,4588.717948,3991.282052,4067.179487
4,4404.102564,4505.641025,4525.128205,4251.282051,4473.846153,4192.820512,4443.589743,3949.743590,4220.000000,4482.564102,4206.666666,4592.307692,4003.589743,4072.307692
5,4398.461538,4499.487179,4519.487179,4246.666666,4473.333333,4190.256410,4441.538461,3945.641026,4214.358974,4475.384615,4206.153846,4586.666666,3997.948718,4065.641025
6,4394.358974,4494.358974,4514.358974,4248.205128,4473.333333,4193.333333,4435.384615,3946.153847,4211.794871,4475.897435,4200.512820,4583.589743,3982.051283,4057.435897
7,4394.358974,4495.384615,4515.897435,4248.717948,4471.794871,4193.846153,4436.923076,3946.153847,4216.410256,4474.358974,4192.307692,4588.205128,3984.102565,4059.487179
8,4402.564102,4501.538461,4523.589743,4257.948717,4473.846153,4195.384615,4444.102564,3951.794872,4226.666666,4480.000000,4198.461538,4596.923076,3996.923077,4068.717948
9,4406.666666,4503.076923,4527.692307,4266.666666,4476.410256,4196.923076,4446.666666,3955.384616,4228.205128,4489.230769,4213.846153,4605.641025,3997.435898,4072.307692
10,4398.974358,4501.025641,4523.076923,4255.384615,4473.846153,4193.333333,4441.538461,3944.615385,4216.410256,4481.538461,4212.307692,4601.025641,3991.794872,4069.230769
11,4394.358974,4497.435897,4517.948717,4246.153846,4472.820512,4190.769230,4435.897435,3937.948718,4209.743589,4472.307692,4202.564102,4590.769230,3988.717949,4064.102564
12,4398.461538,4495.897435,4518.461538,4251.282051,4475.384615,4190.769230,4434.871794,3943.589744,4214.358974,4475.897435,4201.025641,4590.256410,3989.743590,4061.538461
13,4400.000000,4499.487179,4522.564102,4257.948717,4474.358974,4191.794871,4432.820512,3943.589744,4217.948717,4477.948717,4200.000000,4593.846153,3990.769231,4061.025641
14,4397.948717,4499.487179,4523.076923,4261.025641,4473.846153,4194.358974,4434.358974,3945.641026,4218.461538,4477.435897,4204.615384,4589.743589,3985.128206,4061.025641
15,4401.025641,4495.897435,4521.538461,4256.923076,4474.871794,4192.307692,4440.000000,3952.820513,4216.923076,4474.871794,4209.230769,4584.615384,3983.589744,4062.564102
16,4402.564102,4501.025641,4523.076923,4251.282051,4474.358974,4194.871794,4445.128205,3949.230770,4214.871794,4471.794871,4204.615384,4587.692307,3993.846154,4066.153846
17,4402.051282,4506.666666,4523.076923,4256.410256,4474.871794,4202.051282,4445.128205,3945.128206,4218.461538,4474.358974,4200.000000,4590.256410,3997.435898,4064.102564
18,4402.051282,4499.487179,4520.000000,4266.153846,4474.871794,4189.743589,4442.564102,3946.153847,4219.487179,4476.923076,4198.461538,4586.666666,3984.102565,4055.384615
19,4400.512820,4499.487179,4520.000000,4261.538461,4470.769230,4180.512820,4442.051282,3945.641026,4216.410256,4473.333333,4202.564102,4589.743589,3980.512821,4057.435897
20,4400.512820,4503.076923,4526.153846,4252.820512,4473.333333,4194.871794,4445.641025,3950.769231,4218.974358,4475.384615,4206.153846,4597.435897,3995.897436,4066.666666
21,4397.948717,4492.307692,4521.538461,4248.205128,4477.435897,4199.487179,4443.076923,3954.358975,4218.974358,4476.923076,4197.435897,4591.282051,3994.871795,4057.948717
22,4390.256410,4487.692307,4509.743589,4245.128205,4465.128205,4185.128205,4432.307692,3947.692308,4208.205128,4465.128205,4194.358974,4577.948717,3972.820513,4044.615384
23,4390.256410,4492.820512,4512.820512,4252.820512,4460.000000,4182.051282,4434.358974,3939.487180,4206.666666,4460.000000,4204.102564,4580.512820,3972.307693,4053.333333
24,4399.487179,4493.333333,4522.564102,4261.538461,4472.307692,4193.333333,4444.102564,3929.230770,4215.384615,4469.743589,4203.589743,4588.717948,3991.794872,4067.692307
25,4400.000000,4491.282051,4523.076923,4255.384615,4476.923076,4196.410256,4443.076923,3911.282052,4215.897435,4474.871794,4206.153846,4587.179487,3996.923077,4063.589743
26,4395.897435,4491.794871,4517.948717,4245.641025,4473.846153,4193.846153,4442.564102,3904.102565,4215.897435,4474.871794,4214.358974,4583.589743,3989.743590,4056.410256
27,4396.410256,4490.256410,4512.820512,4247.692307,4472.307692,4191.282051,4441.025641,3896.923077,4215.384615,4471.794871,4201.025641,4577.435897,3982.564103,4056.923076
28,4389.230769,4483.076923,4503.076923,4252.307692,4463.589743,4184.615384,4432.307692,3878.974359,4209.230769,4465.128205,4184.102564,4565.128205,3974.358975,4047.179487
29,4382.051282,4481.538461,4504.102564,4247.179487,4458.974358,4181.538461,4433.846153,3872.307693,4207.179487,4463.076923,4183.589743,4563.589743,3974.871795,4041.025641
30,4391.794871,4491.282051,4514.358974,4246.153846,4471.794871,4188.717948,4444.102564,3878.974359,4217.948717,4476.923076,4192.307692,4571.794871,3990.769231,4053.846153
31,4401.025641,4493.846153,4512.307692,4251.282051,4476.923076,4194.871794,4445.641025,3880.000000,4226.666666,4489.743589,4203.589743,4571.794871,4000.512820,4062.564102
32,4396.923076,4489.230769,4509.230769,4253.333333,4468.205128,4191.282051,4438.974358,3873.846154,4223.076923,4482.051282,4206.666666,4570.256410,3995.384616,4057.435897
33,4399.487179,4489.230769,4512.820512,4248.717948,4467.692307,4186.153846,4433.846153,3864.615385,4222.564102,4480.512820,4208.205128,4574.358974,3996.923077,4058.461538
34,4411.282051,4492.820512,4517.948717,4246.153846,4474.358974,4187.692307,4437.948717,3863.076924,4231.282051,4493.333333,4215.897435,4577.435897,4004.102564,4067.179487
35,4408.205128,4493.333333,4517.435897,4247.179487,4473.846153,4188.205128,4441.538461,3862.051283,4228.205128,4490.769230,4207.692307,4579.487179,3998.974359,4065.641025
36,4394.871794,4489.743589,4510.769230,4246.666666,4471.282051,4187.179487,4436.923076,3850.256411,4213.333333,4471.794871,4190.769230,4577.948717,3987.179488,4057.948717
37,4394.358974,4488.717948,4510.769230,4249.743589,4473.846153,4191.282051,4437.435897,3843.076924,4209.230769,4468.717948,4191.282051,4575.384615,3985.128206,4057.948717
38,4398.974358,4491.282051,4515.384615,4244.615384,4476.410256,4198.461538,4444.615384,3847.692308,4214.871794,4475.897435,4202.564102,4576.410256,3982.051283,4061.538461
39,4394.358974,4491.794871,4511.794871,4229.230769,4473.846153,4198.974358,4442.564102,3849.743590,4220.000000,4470.769230,4211.794871,4575.897435,3977.435898,4059.487179
40,4392.307692,4489.230769,4509.743589,4237.435897,4471.282051,4190.769230,4440.000000,3847.179488,4223.076923,4472.307692,4209.743589,4577.948717,3985.641026,4058.974358
41,4403.589743,4489.743589,4521.538461,4260.512820,4472.307692,4189.743589,4442.051282,3846.666667,4218.974358,4480.000000,4199.487179,4587.179487,3998.461539,4067.692307
42,4408.717948,4494.358974,4527.179487,4262.564102,4474.358974,4194.871794,4443.076923,3845.128206,4212.820512,4474.358974,4196.923076,4590.256410,3995.384616,4073.333333
43,4400.512820,4492.307692,4518.974358,4245.128205,4474.871794,4193.846153,4443.076923,3845.128206,4213.333333,4467.179487,4208.717948,4584.615384,3984.615385,4067.692307
44,4394.358974,4485.128205,4517.948717,4231.794871,4473.333333,4190.769230,4444.102564,3847.692308,4218.974358,4472.820512,4215.384615,4581.025641,3982.051283,4061.025641
45,4393.333333,4479.487179,4522.051282,4230.256410,4471.282051,4188.205128,4441.538461,3848.717949,4221.025641,4476.410256,4200.000000,4576.410256,3982.051283,4059.487179
46,4395.384615,4478.461538,4519.487179,4242.564102,4473.333333,4185.641025,4440.512820,3846.666667,4216.410256,4470.256410,4187.179487,4569.743589,3978.974359,4060.000000
47,4394.871794,4479.487179,4513.846153,4251.282051,4469.743589,4186.153846,4441.538461,3840.512821,4212.820512,4469.743589,4196.410256,4571.282051,3979.487180,4058.974358
48,4387.692307,4476.410256,4509.230769,4238.461538,4462.051282,4186.666666,4441.538461,3832.820513,4215.384615,4474.871794,4205.128205,4569.743589,3977.435898,4053.846153
49,4386.153846,4473.333333,4508.205128,4223.589743,4464.615384,4184.102564,4435.384615,3830.769231,4216.410256,4475.897435,4198.461538,4566.666666,3968.205129,4050.769230
50,4394.358974,4481.025641,4513.333333,4233.333333,4471.282051,4184.102564,4428.205128,3833.333334,4215.897435,4473.846153,4195.384615,4571.282051,3973.846154,4054.871794
51,4397.435897,4491.282051,4521.538461,4249.743589,4471.794871,4186.153846,4432.820512,3832.820513,4217.435897,4475.384615,4203.076923,4575.897435,3991.794872,4062.051282
52,4395.384615,4491.794871,4521.538461,4248.717948,4473.333333,4190.769230,4442.051282,3829.230770,4217.435897,4481.025641,4210.256410,4574.871794,3994.871795,4067.692307
53,4397.435897,4490.256410,4518.974358,4247.179487,4475.897435,4193.846153,4442.051282,3827.179488,4215.897435,4481.025641,4210.769230,4576.923076,3986.153847,4068.717948
54,4398.974358,4493.333333,4521.538461,4247.692307,4471.794871,4186.153846,4438.461538,3827.692308,4212.820512,4475.384615,4198.974358,4582.051282,3983.589744,4066.153846
55,4398.461538,4493.846153,4525.641025,4238.974358,4469.743589,4185.641025,4440.000000,3829.743590,4210.256410,4472.820512,4195.897435,4580.000000,3989.230770,4065.641025
56,4399.487179,4491.794871,4526.153846,4242.564102,4477.435897,4197.435897,4442.564102,3829.743590,4217.435897,4476.923076,4212.820512,4578.974358,3994.358975,4069.230769
57,4404.615384,4498.974358,4530.769230,4264.102564,4487.692307,4203.076923,4450.256410,3830.256411,4227.692307,4485.641025,4221.538461,4585.641025,3994.358975,4073.333333
58,4413.333333,4510.256410,4536.923076,4267.692307,4492.307692,4206.153846,4460.000000,3839.487180,4228.205128,4488.717948,4209.743589,4590.256410,3992.307693,4078.461538
59,4410.256410,4507.692307,4532.820512,4252.820512,4491.282051,4208.717948,4461.025641,3846.153847,4224.102564,4488.205128,4200.512820,4584.102564,3994.358975,4077.435897
60,4398.461538,4493.333333,4523.589743,4244.615384,4488.205128,4202.051282,4457.948717,3842.564103,4222.051282,4486.153846,4203.589743,4575.384615,3995.384616,4068.205128
61,4399.487179,4493.846153,4526.153846,4246.153846,4487.692307,4202.564102,4457.435897,3842.564103,4225.128205,4481.538461,4206.153846,4577.948717,3992.307693,4067.692307
62,4406.153846,4504.102564,4531.282051,4256.923076,4491.794871,4212.307692,4458.461538,3847.179488,4229.230769,4476.923076,4204.102564,4584.615384,3989.230770,4073.333333
63,4402.564102,4499.487179,4526.153846,4265.641025,4489.743589,4210.256410,4457.435897,3844.102565,4229.743589,4477.948717,4197.435897,4582.564102,3990.769231,4069.743589
64,4391.794871,4490.256410,4521.538461,4256.410256,4478.974358,4198.974358,4450.769230,3833.846154,4220.512820,4471.282051,4182.564102,4574.358974,3990.769231,4060.000000
65,4382.564102,4486.666666,4521.538461,4240.512820,4471.794871,4197.948717,4441.025641,3828.205129,4203.076923,4457.435897,4181.538461,4569.743589,3979.487180,4054.358974
66,4385.128205,4488.205128,4522.564102,4239.487179,4477.435897,4203.076923,4445.641025,3833.846154,4200.512820,4458.974358,4198.461538,4571.794871,3968.205129,4056.410256
67,4397.435897,4496.410256,4526.153846,4254.358974,4486.666666,4204.102564,4460.512820,3842.564103,4214.358974,4473.846153,4207.179487,4580.000000,3975.384616,4062.051282
68,4397.435897,4498.974358,4526.153846,4262.564102,4483.589743,4203.076923,4457.948717,3841.025642,4221.025641,4480.512820,4192.307692,4583.589743,3984.102565,4060.512820
69,4385.641025,4489.743589,4520.512820,4254.358974,4476.410256,4200.000000,4443.076923,3833.333334,4217.948717,4475.384615,4173.846153,4573.846153,3981.538462,4053.846153
70,4386.153846,4488.717948,4520.000000,4246.153846,4476.410256,4199.487179,4447.179487,3836.923077,4221.025641,4473.333333,4177.948717,4570.769230,3982.051283,4055.384615
71,4393.333333,4494.871794,4524.102564,4246.153846,4477.435897,4202.564102,4460.512820,3847.179488,4223.589743,4476.923076,4200.512820,4580.512820,3980.000000,4061.025641
72,4392.820512,4491.794871,4524.615384,4247.692307,4482.564102,4203.076923,4456.923076,3845.128206,4223.589743,4477.435897,4207.692307,4582.564102,3976.923077,4058.974358
73,4394.358974,4488.717948,4523.076923,4255.897435,4486.153846,4203.076923,4448.205128,3836.410257,4223.076923,4472.820512,4192.820512,4578.974358,3983.076924,4056.923076
74,4395.384615,4490.769230,4523.076923,4266.666666,4481.538461,4202.051282,4445.641025,3833.333334,4218.974358,4471.794871,4185.128205,4577.435897,3987.179488,4056.923076
75,4392.820512,4494.358974,4523.076923,4267.692307,4481.538461,4200.000000,4445.641025,3837.435898,4224.615384,4481.025641,4191.282051,4576.410256,3983.076924,4059.487179
76,4401.025641,4501.025641,4530.256410,4271.794871,4490.769230,4205.641025,4452.307692,3849.230770,4233.846153,4490.256410,4203.076923,4581.025641,3986.666667,4068.717948
77,4413.846153,4508.717948,4540.512820,4283.076923,4492.820512,4215.897435,4464.102564,3862.564103,4233.846153,4493.846153,4211.282051,4593.333333,4002.564102,4077.435897
78,4411.794871,4506.666666,4537.435897,4277.948717,4488.205128,4214.871794,4461.025641,3859.487180,4232.307692,4490.256410,4208.717948,4591.794871,4001.538461,4074.358974
79,4400.000000,4495.384615,4524.102564,4265.128205,4485.128205,4205.128205,4446.666666,3845.641026,4231.794871,4483.076923,4204.615384,4575.384615,3982.564103,4063.589743
80,4395.897435,4489.230769,4519.487179,4269.230769,4480.000000,4200.512820,4443.589743,3844.615385,4228.205128,4477.948717,4195.897435,4568.205128,3972.307693,4056.923076
81,4396.410256,4492.307692,4523.589743,4281.538461,4481.025641,4201.538461,4453.333333,3855.897436,4231.282051,4480.000000,4191.794871,4568.717948,3984.615385,4060.000000
82,4401.538461,4497.435897,4523.589743,4284.102564,4487.692307,4207.692307,4461.025641,3862.051283,4235.384615,4489.743589,4202.564102,4570.256410,3997.948718,4069.743589
83,4411.794871,4501.025641,4524.615384,4277.435897,4490.769230,4212.307692,4458.974358,3864.102565,4233.333333,4489.743589,4205.641025,4572.820512,3997.948718,4072.820512
84,4412.307692,4505.641025,4529.230769,4276.410256,4491.282051,4207.692307,4457.948717,3861.538462,4232.307692,4483.076923,4204.102564,4571.794871,3992.820513,4067.692307
85,4402.564102,4504.102564,4527.692307,4284.102564,4487.692307,4202.564102,4460.512820,3855.384616,4230.769230,4482.051282,4213.333333,4570.256410,3985.128206,4064.615384
86,4396.923076,4495.384615,4520.000000,4287.692307,4481.025641,4203.076923,4453.333333,3850.769231,4228.717948,4483.589743,4203.076923,4569.743589,3984.102565,4061.025641
87,4395.897435,4489.230769,4518.974358,4279.487179,4475.384615,4201.025641,4445.128205,3849.230770,4230.256410,4486.153846,4181.538461,4564.102564,3986.153847,4051.794871
88,4393.846153,4488.205128,4522.564102,4275.897435,4474.871794,4197.948717,4445.641025,3848.717949,4233.333333,4492.307692,4190.256410,4557.435897,3986.666667,4050.769230
89,4395.384615,4495.384615,4523.589743,4282.564102,4477.948717,4201.025641,4446.153846,3849.230770,4234.871794,4492.307692,4210.769230,4561.025641,3990.256411,4060.512820
90,4399.487179,4503.589743,4523.589743,4285.128205,4477.948717,4201.538461,4443.076923,3849.743590,4229.230769,4482.564102,4211.282051,4563.589743,3989.230770,4061.538461
91,4397.948717,4500.000000,4524.615384,4284.615384,4474.871794,4197.948717,4443.076923,3846.153847,4220.512820,4484.102564,4203.076923,4561.025641,3983.589744,4053.846153
92,4398.974358,4491.794871,4523.589743,4291.794871,4475.384615,4198.974358,4444.615384,3851.282052,4227.179487,4492.820512,4197.948717,4565.641025,3985.641026,4055.384615
93,4404.102564,4491.282051,4527.179487,4295.384615,4481.025641,4201.025641,4442.564102,3865.128206,4242.051282,4491.794871,4200.512820,4573.333333,3992.820513,4064.102564
94,4401.538461,4496.410256,4531.282051,4287.692307,4479.487179,4200.512820,4444.615384,3863.589744,4239.487179,4489.230769,4203.076923,4570.769230,3994.358975,4063.589743
95,4397.948717,4499.487179,4528.205128,4280.000000,4474.871794,4202.051282,4445.641025,3852.307693,4229.230769,4491.282051,4200.000000,4568.205128,3991.794872,4055.897435
96,4397.435897,4495.897435,4522.564102,4277.435897,4473.846153,4196.410256,4437.435897,3847.179488,4223.589743,4484.102564,4201.538461,4568.717948,3985.641026,4051.282051
97,4394.871794,4488.717948,4521.025641,4285.128205,4473.333333,4189.743589,4433.333333,3846.153847,4215.897435,4474.871794,4203.589743,4566.666666,3977.435898,4052.307692
98,4400.000000,4493.333333,4525.641025,4292.820512,4474.358974,4195.384615,4442.564102,3848.717949,4214.871794,4480.000000,4200.512820,4568.717948,3983.589744,4057.948717
99,4407.692307,4500.000000,4528.717948,4289.743589,4476.410256,4200.000000,4442.564102,3849.743590,4224.102564,4485.128205,4201.538461,4571.794871,3990.769231,4061.538461
100,4401.538461,4493.846153,4523.589743,4284.615384,4472.820512,4191.282051,4428.205128,3845.128206,4222.564102,4483.589743,4203.076923,4570.256410,3984.102565,4057.948717
101,4393.846153,4488.205128,4519.487179,4285.128205,4470.256410,4187.179487,4430.256410,3844.615385,4214.871794,4481.538461,4203.076923,4566.666666,3982.564103,4055.897435
102,4401.538461,4492.820512,4522.051282,4291.794871,4474.871794,4194.358974,4444.102564,3848.205129,4215.384615,4480.512820,4204.615384,4568.205128,3991.794872,4060.000000
103,4409.230769,4496.923076,4523.589743,4301.025641,4479.487179,4200.512820,4445.641025,3848.205129,4218.461538,4480.000000,4203.076923,4569.230769,3995.384616,4060.000000
104,4407.179487,4496.923076,4523.589743,4297.948717,4477.435897,4202.051282,4442.051282,3849.743590,4220.512820,4482.564102,4201.538461,4568.205128,3991.282052,4055.897435
105,4400.512820,4493.846153,4518.974358,4283.589743,4473.333333,4198.461538,4436.923076,3847.179488,4222.051282,4478.974358,4200.000000,4560.000000,3989.230770,4052.307692
106,4395.897435,4490.256410,4512.307692,4281.025641,4474.358974,4194.871794,4430.256410,3839.487180,4215.384615,4471.282051,4196.410256,4553.333333,3985.641026,4050.256410
107,4398.461538,4492.307692,4515.897435,4283.589743,4476.410256,4200.000000,4433.846153,3840.512821,4212.820512,4473.846153,4200.512820,4562.051282,3984.615385,4051.794871
108,4396.923076,4493.846153,4524.102564,4277.948717,4472.307692,4196.410256,4435.384615,3840.512821,4215.897435,4476.923076,4202.051282,4563.589743,3983.076924,4050.769230
109,4389.743589,4483.589743,4522.051282,4275.384615,4470.256410,4184.615384,4430.256410,3837.435898,4210.256410,4475.384615,4186.666666,4556.923076,3974.871795,4042.564102
110,4390.769230,4479.487179,4517.435897,4278.974358,4474.358974,4189.743589,4436.410256,3844.102565,4208.205128,4473.846153,4185.641025,4561.538461,3973.333334,4041.025641
111,4394.358974,4486.666666,4517.948717,4278.461538,4474.871794,4197.948717,4444.615384,3850.769231,4216.923076,4474.871794,4203.076923,4565.128205,3978.974359,4045.128205
112,4391.794871,4487.692307,4516.923076,4272.307692,4472.820512,4190.256410,4440.000000,3846.666667,4217.948717,4474.871794,4194.358974,4557.435897,3979.487180,4041.538461
113,4391.282051,4483.589743,4509.743589,4269.230769,4472.820512,4190.769230,4438.974358,3843.076924,4210.769230,4472.307692,4180.000000,4552.307692,3970.769231,4037.948717
114,4394.358974,4489.230769,4508.717948,4274.871794,4473.333333,4202.051282,4444.102564,3846.153847,4212.820512,4473.333333,4197.435897,4555.897435,3971.282052,4042.051282
115,4392.820512,4492.307692,4516.410256,4279.487179,4475.384615,4201.025641,4442.564102,3848.205129,4216.923076,4474.871794,4207.692307,4559.487179,3984.615385,4046.666666
116,4396.410256,4487.179487,4522.051282,4279.487179,4475.897435,4196.410256,4442.051282,3848.205129,4213.846153,4472.820512,4200.512820,4564.102564,3991.794872,4049.230769
117,4408.205128,4494.871794,4525.641025,4284.102564,4475.384615,4201.538461,4444.102564,3845.128206,4218.974358,4475.897435,4201.025641,4569.230769,3986.666667,4053.333333
118,4414.358974,4508.205128,4535.384615,4287.179487,4483.076923,4204.102564,4444.102564,3848.717949,4229.230769,4488.205128,4206.153846,4571.794871,3988.717949,4057.948717
119,4413.333333,4507.692307,4541.025641,4288.717948,4487.179487,4200.512820,4444.615384,3853.333334,4229.743589,4491.794871,4210.769230,4577.948717,4001.025641,4061.538461
120,4412.307692,4501.538461,4535.384615,4294.871794,4478.974358,4202.051282,4443.589743,3849.743590,4218.974358,4484.102564,4220.512820,4582.051282,3998.461539,4064.102564
121,4411.794871,4501.025641,4528.205128,4294.871794,4472.307692,4200.512820,4435.384615,3845.128206,4212.820512,4478.974358,4218.974358,4576.410256,3987.179488,4061.538461
122,4406.666666,4503.076923,4523.076923,4291.282051,4471.794871,4189.743589,4426.666666,3845.641026,4216.923076,4476.410256,4207.692307,4569.743589,3982.564103,4057.435897
123,4404.615384,4506.153846,4523.589743,4296.410256,4472.820512,4190.769230,4430.256410,3849.230770,4223.076923,4477.435897,4210.769230,4568.717948,3988.205129,4058.974358
124,4404.102564,4504.615384,4525.641025,4290.256410,4476.410256,4202.051282,4433.333333,3849.743590,4215.897435,4477.435897,4208.205128,4565.128205,3989.230770,4058.974358
125,4395.897435,4494.358974,4518.461538,4275.897435,4475.897435,4200.512820,4429.743589,3845.128206,4203.076923,4471.794871,4190.769230,4560.000000,3977.948718,4048.717948
126,4397.435897,4494.871794,4518.461538,4286.153846,4472.307692,4195.384615,4433.333333,3847.179488,4210.256410,4476.923076,4194.871794,4565.128205,3980.512821,4049.230769
127,4412.307692,4509.743589,4530.769230,4306.153846,4477.435897,4201.538461,4444.102564,3862.564103,4230.256410,4494.358974,4220.000000,4573.846153,3994.871795,4065.128205
128,4417.948717,4513.333333,4532.820512,4306.666666,4480.512820,4203.589743,4446.153846,3866.153847,4236.410256,4497.435897,4225.128205,4576.923076,4002.564102,4071.794871
129,4411.794871,4504.615384,4524.615384,4295.897435,4473.846153,4197.435897,4438.461538,3853.333334,4226.666666,4489.230769,4215.384615,4572.307692,4005.641025,4065.641025
130,4411.282051,4504.102564,4522.564102,4292.307692,4475.384615,4198.461538,4435.897435,3849.230770,4223.076923,4490.769230,4218.461538,4567.179487,4009.230769,4064.102564
131,4413.333333,4507.179487,4525.128205,4295.897435,4481.538461,4201.025641,4442.051282,3853.333334,4227.692307,4495.897435,4221.025641,4567.179487,4004.102564,4065.128205
132,4410.769230,4505.128205,4524.615384,4296.923076,4479.487179,4200.512820,4443.589743,3851.282052,4224.615384,4489.743589,4217.435897,4570.256410,4002.564102,4064.102564
133,4410.769230,4506.153846,4519.487179,4294.871794,4473.846153,4198.974358,4440.512820,3847.179488,4216.923076,4478.461538,4213.846153,4564.615384,4006.666666,4062.051282
134,4409.230769,4502.051282,4516.410256,4291.794871,4475.897435,4199.487179,4440.000000,3849.230770,4216.923076,4475.897435,4213.333333,4556.923076,3995.897436,4060.512820
135,4403.589743,4493.333333,4518.461538,4284.615384,4478.461538,4198.461538,4441.025641,3854.871795,4221.538461,4482.564102,4215.897435,4558.974358,3987.179488,4057.948717
136,4404.615384,4496.923076,4522.564102,4285.641025,4474.871794,4196.923076,4440.000000,3860.512821,4224.102564,4487.692307,4214.358974,4566.153846,3993.333334,4060.512820
137,4411.282051,4505.128205,4530.769230,4295.384615,4471.794871,4198.974358,4444.615384,3864.615385,4230.256410,4491.282051,4215.897435,4569.230769,4002.051282,4069.743589
138,4413.333333,4500.512820,4533.846153,4295.384615,4477.948717,4202.051282,4450.769230,3863.589744,4232.307692,4498.974358,4223.589743,4570.256410,4007.692307,4074.871794
139,4412.307692,4498.974358,4528.717948,4294.871794,4487.179487,4203.076923,4455.897435,3865.128206,4229.743589,4502.564102,4229.743589,4571.282051,4008.717948,4071.794871
140,4413.846153,4509.230769,4532.820512,4308.205128,4491.282051,4203.589743,4458.974358,3872.820513,4234.358974,4503.589743,4232.820512,4570.769230,4007.692307,4069.743589
141,4414.358974,4509.743589,4538.461538,4312.820512,4487.179487,4204.615384,4453.333333,3873.846154,4236.410256,4506.666666,4229.743589,4568.205128,4007.692307,4069.743589
142,4409.230769,4498.461538,4527.179487,4301.025641,4480.000000,4202.051282,4445.641025,3864.615385,4225.128205,4495.897435,4217.948717,4562.051282,4002.051282,4062.564102
143,4401.538461,4490.256410,4517.435897,4295.897435,4475.384615,4197.948717,4441.538461,3856.923077,4216.923076,4478.974358,4209.230769,4554.358974,3987.179488,4053.333333
144,4402.564102,4493.333333,4523.076923,4297.435897,4475.897435,4197.948717,4444.102564,3859.487180,4224.102564,4481.025641,4215.384615,4555.384615,3984.615385,4053.333333
145,4411.794871,4505.128205,4525.641025,4296.410256,4478.461538,4201.025641,4455.897435,3870.769231,4230.769230,4493.846153,4222.051282,4564.615384,4002.051282,4062.564102
146,4414.871794,4510.256410,4523.076923,4294.871794,4478.974358,4202.564102,4456.923076,3876.923077,4225.128205,4493.333333,4218.461538,4569.230769,4011.282051,4067.179487
147,4406.666666,4500.512820,4522.564102,4293.333333,4477.435897,4200.000000,4447.692307,3870.769231,4219.487179,4488.205128,4214.871794,4568.205128,4000.512820,4060.512820
148,4397.435897,4489.230769,4518.461538,4291.794871,4477.435897,4200.512820,4449.743589,3864.102565,4218.461538,4489.230769,4212.820512,4564.615384,3988.205129,4054.358974
149,4397.948717,4490.769230,4513.846153,4292.307692,4475.384615,4199.487179,4453.333333,3868.205129,4217.948717,4488.205128,4215.897435,4561.025641,3987.179488,4056.410256
150,4400.000000,4489.743589,4511.282051,4281.538461,4466.666666,4189.230769,4439.487179,3865.641026,4213.333333,4478.974358,4211.794871,4556.923076,3986.153847,4052.307692
151,4389.743589,4475.384615,4504.102564,4263.076923,4457.948717,4180.512820,4424.615384,3847.179488,4198.461538,4462.051282,4192.307692,4546.153846,3972.307693,4036.410256
152,4383.589743,4474.871794,4502.564102,4268.205128,4456.923076,4179.487179,4424.615384,3844.615385,4192.820512,4457.435897,4179.487179,4539.487179,3964.615385,4032.820512
153,4395.897435,4490.769230,4514.358974,4285.641025,4463.589743,4185.641025,4433.333333,3869.230770,4208.717948,4476.923076,4196.923076,4550.256410,3977.435898,4047.692307
154,4400.512820,4493.846153,4515.897435,4285.128205,4471.282051,4193.846153,4442.564102,3877.435898,4218.974358,4487.179487,4219.487179,4556.923076,3985.641026,4052.307692
155,4390.256410,4488.717948,4508.717948,4277.435897,4473.846153,4194.871794,4443.589743,3862.564103,4214.358974,4472.307692,4206.666666,4546.153846,3981.025642,4043.589743
156,4389.230769,4490.256410,4512.820512,4276.923076,4472.307692,4191.794871,4441.025641,3863.589744,4214.358974,4475.897435,4187.692307,4544.615384,3982.051283,4038.974358
157,4397.948717,4490.769230,4517.948717,4275.897435,4471.794871,4195.384615,4442.051282,3872.820513,4218.974358,4493.333333,4195.384615,4557.435897,3988.717949,4043.076923
158,4400.000000,4491.282051,4517.948717,4277.435897,4476.410256,4201.025641,4445.641025,3870.769231,4217.948717,4486.153846,4203.076923,4558.461538,3989.743590,4049.230769
159,4395.897435,4491.282051,4520.000000,4278.974358,4477.435897,4200.000000,4444.102564,3873.333334,4214.871794,4475.384615,4196.923076,4551.794871,3985.128206,4050.256410
160,4398.974358,4490.256410,4526.153846,4283.076923,4475.897435,4200.000000,4442.564102,3878.974359,4214.358974,4484.102564,4197.948717,4554.871794,3981.538462,4050.769230
161,4411.282051,4500.512820,4533.333333,4292.820512,4485.128205,4204.615384,4452.307692,3880.000000,4223.589743,4492.307692,4204.102564,4567.179487,3990.256411,4061.025641
162,4414.871794,4509.230769,4536.410256,4288.205128,4489.743589,4205.128205,4456.410256,3880.512821,4229.230769,4488.205128,4196.410256,4572.307692,4001.025641,4067.692307
163,4410.256410,4504.615384,4533.846153,4276.410256,4478.461538,4200.512820,4446.153846,3877.948718,4220.000000,4486.153846,4193.846153,4570.769230,3996.923077,4064.102564
164,4412.307692,4503.589743,4537.948717,4282.051282,4478.461538,4202.051282,4442.051282,3875.897436,4218.974358,4490.256410,4208.717948,4572.820512,3989.743590,4064.615384
165,4415.897435,4510.256410,4541.538461,4296.410256,4490.769230,4206.666666,4447.692307,3880.000000,4226.153846,4490.769230,4212.307692,4573.846153,3995.384616,4068.205128
166,4414.358974,4509.230769,4537.435897,4300.512820,4488.717948,4205.641025,4446.666666,3881.025642,4222.051282,4485.641025,4202.564102,4569.230769,4001.538461,4065.641025
167,4412.307692,4505.128205,4535.897435,4288.717948,4484.615384,4204.615384,4442.564102,3880.000000,4224.102564,4486.666666,4201.025641,4567.692307,4002.564102,4062.564102
168,4411.794871,4506.153846,4536.923076,4276.923076,4490.256410,4204.615384,4448.205128,3885.128206,4232.820512,4493.846153,4206.153846,4571.282051,4004.615384,4063.589743
169,4419.487179,4508.205128,4536.410256,4281.538461,4491.794871,4208.717948,4454.358974,3892.307693,4229.230769,4493.846153,4211.794871,4572.307692,4007.692307,4068.205128
170,4424.615384,4508.717948,4538.461538,4295.897435,4489.230769,4212.820512,4458.974358,3894.358975,4225.641025,4492.307692,4216.410256,4577.435897,4007.179487,4071.282051
171,4418.974358,4508.717948,4543.589743,4301.538461,4490.769230,4209.743589,4458.974358,3894.358975,4231.794871,4494.358974,4218.461538,4584.102564,4007.179487,4073.333333
172,4415.384615,4507.179487,4544.102564,4289.230769,4489.230769,4202.051282,4452.820512,3895.897436,4231.794871,4492.820512,4215.897435,4578.461538,4009.230769,4071.794871
173,4413.846153,4505.128205,4538.461538,4274.358974,4483.589743,4200.512820,4450.769230,3897.948718,4229.230769,4491.794871,4210.256410,4571.282051,4003.076923,4062.051282
174,4412.820512,4504.102564,4535.384615,4280.512820,4483.589743,4203.589743,4456.923076,3896.410257,4228.717948,4492.307692,4201.538461,4574.871794,3997.435898,4059.487179
175,4413.846153,4504.615384,4537.435897,4294.871794,4485.128205,4202.051282,4460.512820,3895.384616,4230.256410,4490.256410,4197.435897,4577.435897,4003.589743,4069.230769
176,4414.871794,4506.153846,4537.948717,4295.384615,4483.589743,4203.589743,4456.410256,3898.461539,4231.794871,4491.794871,4210.769230,4577.435897,4007.692307,4070.769230
177,4417.435897,4508.205128,4538.461538,4300.512820,4485.128205,4206.153846,4455.897435,3900.000000,4233.846153,4501.025641,4226.666666,4583.589743,4003.589743,4066.666666
178,4426.666666,4510.769230,4543.589743,4305.641025,4489.230769,4206.666666,4458.461538,3901.538462,4237.948717,4505.641025,4236.923076,4589.230769,4004.102564,4074.871794
179,4430.769230,4510.769230,4546.666666,4294.871794,4492.307692,4209.230769,4459.487179,3901.538462,4240.000000,4497.948717,4237.948717,4586.666666,4007.692307,4080.512820
180,4421.538461,4507.179487,4543.076923,4292.307692,4487.179487,4207.179487,4457.435897,3895.897436,4231.794871,4491.282051,4214.871794,4576.923076,4005.128205,4069.230769
181,4413.333333,4504.102564,4538.461538,4301.538461,4477.948717,4200.000000,4449.743589,3890.769231,4225.641025,4490.769230,4198.461538,4573.333333,4005.641025,4062.564102
182,4421.025641,4507.179487,4541.025641,4303.076923,4482.051282,4198.974358,4451.282051,3892.820513,4231.282051,4492.820512,4221.538461,4583.076923,4003.589743,4071.794871
183,4425.128205,4510.256410,4542.564102,4296.410256,4489.743589,4205.641025,4458.461538,3896.923077,4228.205128,4493.846153,4245.641025,4582.564102,3994.358975,4071.794871
184,4412.820512,4505.641025,4535.384615,4290.769230,4485.641025,4204.615384,4450.256410,3889.230770,4216.923076,4490.256410,4227.179487,4567.692307,3989.743590,4057.435897
185,4411.794871,4504.102564,4533.846153,4293.846153,4483.076923,4200.512820,4443.589743,3880.000000,4218.974358,4485.641025,4197.435897,4566.666666,3990.769231,4055.384615
186,4419.487179,4509.230769,4538.974358,4302.051282,4488.205128,4203.076923,4452.307692,3883.076924,4226.666666,4488.205128,4202.564102,4574.358974,3993.333334,4064.102564
187,4413.846153,4509.743589,4538.461538,4297.435897,4486.153846,4203.589743,4454.871794,3891.282052,4221.538461,4489.743589,4224.615384,4570.256410,4000.000000,4063.589743
188,4416.923076,4505.641025,4537.948717,4292.307692,4486.153846,4203.589743,4451.794871,3892.307693,4216.410256,4486.153846,4235.897435,4569.743589,4002.051282,4063.076923
189,4426.153846,4507.179487,4544.102564,4295.897435,4492.307692,4204.615384,4457.435897,3892.820513,4224.615384,4489.230769,4235.897435,4576.923076,3995.384616,4069.743589
190,4419.487179,4508.717948,4544.615384,4295.897435,4488.717948,4202.564102,4463.076923,3897.435898,4232.820512,4494.358974,4226.153846,4572.820512,3993.333334,4068.717948
191,4408.717948,4500.000000,4536.923076,4292.307692,4476.923076,4200.512820,4453.846153,3896.410257,4224.102564,4486.666666,4206.666666,4560.512820,3993.846154,4057.948717
192,4408.717948,4491.794871,4530.769230,4294.871794,4477.948717,4199.487179,4446.666666,3892.820513,4217.948717,4483.589743,4205.128205,4555.897435,3989.743590,4051.282051
193,4410.769230,4490.256410,4532.307692,4293.333333,4485.128205,4200.000000,4454.871794,3896.923077,4226.153846,4488.205128,4228.717948,4564.615384,3992.307693,4056.410256
194,4409.743589,4491.794871,4533.333333,4278.974358,4483.589743,4201.538461,4458.461538,3897.435898,4226.153846,4480.000000,4228.717948,4568.205128,3995.897436,4061.025641
195,4409.230769,4494.871794,4530.769230,4274.358974,4477.435897,4200.512820,4450.769230,3895.897436,4219.487179,4474.871794,4209.743589,4560.512820,3986.153847,4058.461538
196,4410.769230,4496.410256,4532.307692,4290.256410,4481.025641,4200.000000,4450.769230,3902.564103,4220.000000,4484.615384,4211.794871,4560.000000,3983.589744,4056.410256
197,4414.871794,4498.974358,4539.487179,4305.128205,4485.128205,4201.538461,4462.564102,3912.307693,4225.128205,4492.820512,4228.205128,4570.256410,4000.000000,4062.564102
198,4415.384615,4499.487179,4541.538461,4293.333333,4477.948717,4201.025641,4460.000000,3913.333334,4226.153846,4489.230769,4233.846153,4575.897435,4007.179487,4067.692307
199,4413.846153,4492.307692,4534.871794,4275.384615,4478.461538,4198.461538,4448.205128,3908.205129,4222.051282,4483.589743,4230.256410,4571.282051,3993.846154,4063.076923
200,4412.820512,4493.846153,4535.897435,4284.615384,4486.666666,4199.487179,4451.282051,3907.179488,4221.538461,4483.589743,4232.307692,4568.717948,3990.769231,4057.948717
201,4413.333333,4503.076923,4540.000000,4302.051282,4482.564102,4200.512820,4462.051282,3917.435898,4228.205128,4489.230769,4230.256410,4574.358974,4004.102564,4060.512820
202,4413.333333,4497.435897,4534.871794,4304.615384,4480.000000,4199.487179,4456.410256,3923.589744,4231.282051,4494.358974,4221.538461,4575.897435,4004.102564,4063.589743
203,4410.769230,4490.769230,4532.820512,4296.923076,4488.205128,4199.487179,4446.666666,3917.435898,4226.666666,4492.820512,4222.564102,4570.769230,3995.897436,4064.615384
204,4414.871794,4506.153846,4536.410256,4287.692307,4486.153846,4200.000000,4455.897435,3921.025642,4231.282051,4493.333333,4232.820512,4569.743589,4001.025641,4069.230769
205,4415.384615,4510.769230,4530.256410,4287.179487,4472.820512,4198.974358,4461.538461,3925.128206,4235.897435,4491.794871,4234.358974,4570.769230,4003.589743,4066.666666
206,4406.666666,4495.384615,4525.641025,4298.974358,4479.487179,4199.487179,4452.307692,3917.435898,4225.641025,4488.717948,4224.615384,4566.153846,3992.307693,4057.948717
207,4406.153846,4490.769230,4533.333333,4304.615384,4492.307692,4201.538461,4450.769230,3916.923077,4220.512820,4490.769230,4216.410256,4567.692307,3989.743590,4061.025641
208,4412.820512,4494.871794,4535.384615,4295.384615,4487.179487,4200.512820,4456.410256,3919.487180,4228.717948,4491.794871,4221.025641,4572.820512,3995.897436,4066.153846
209,4414.358974,4495.384615,4532.307692,4292.307692,4477.948717,4198.974358,4457.435897,3917.948718,4231.282051,4491.282051,4232.307692,4571.794871,3996.410257,4063.589743
210,4411.282051,4492.820512,4528.717948,4294.871794,4476.410256,4200.512820,4453.846153,3916.410257,4222.564102,4488.205128,4232.820512,4569.743589,3989.230770,4061.025641
211,4405.641025,4488.717948,4524.102564,4293.846153,4477.948717,4195.384615,4447.692307,3917.435898,4224.102564,4486.666666,4228.717948,4569.230769,3985.641026,4058.974358
212,4405.641025,4488.717948,4526.153846,4297.948717,4475.384615,4190.256410,4444.615384,3918.974359,4231.794871,4490.256410,4224.615384,4567.179487,3996.923077,4059.487179
213,4410.769230,4492.820512,4529.230769,4294.871794,4474.358974,4195.384615,4449.230769,3925.641026,4229.743589,4492.307692,4216.923076,4568.717948,4005.128205,4063.076923
214,4408.717948,4493.846153,4524.102564,4282.564102,4475.897435,4198.974358,4450.769230,3926.666667,4230.769230,4490.769230,4219.487179,4570.769230,3997.948718,4063.589743
215,4401.538461,4491.282051,4521.025641,4285.128205,4475.897435,4195.897435,4446.666666,3915.897436,4233.846153,4491.282051,4225.128205,4566.153846,3990.769231,4057.435897
216,4400.512820,4487.179487,4523.076923,4294.358974,4474.871794,4194.871794,4447.692307,3912.307693,4226.666666,4486.666666,4222.564102,4557.948717,3986.666667,4053.333333
217,4400.000000,4484.615384,4518.974358,4292.307692,4474.871794,4195.897435,4449.230769,3914.358975,4217.435897,4476.923076,4220.512820,4553.333333,3980.000000,4051.282051
218,4396.410256,4487.179487,4517.435897,4288.205128,4476.923076,4196.410256,4445.641025,3911.794872,4213.846153,4472.820512,4206.153846,4552.307692,3981.538462,4047.179487
219,4395.897435,4491.794871,4520.512820,4286.153846,4478.461538,4197.948717,4444.615384,3912.820513,4215.384615,4474.871794,4200.512820,4555.897435,3990.256411,4049.743589
220,4402.051282,4491.282051,4522.564102,4281.538461,4476.923076,4198.974358,4446.666666,3920.512821,4223.076923,4480.000000,4220.000000,4559.487179,3988.205129,4053.333333
221,4407.692307,4488.205128,4523.076923,4286.666666,4481.025641,4196.923076,4448.717948,3925.128206,4230.769230,4485.641025,4225.641025,4559.487179,3984.102565,4053.333333
222,4409.743589,4495.384615,4526.153846,4304.615384,4490.769230,4201.538461,4455.384615,3929.230770,4233.333333,4489.743589,4219.487179,4565.128205,3991.794872,4059.487179
223,4411.794871,4504.615384,4529.743589,4308.717948,4494.358974,4210.769230,4461.538461,3937.948718,4237.435897,4495.897435,4227.179487,4572.307692,4006.666666,4067.179487
224,4416.923076,4507.179487,4526.666666,4297.435897,4493.333333,4209.230769,4462.051282,3939.487180,4242.564102,4498.974358,4231.282051,4573.333333,4012.307692,4065.641025
225,4415.384615,4506.666666,4524.102564,4290.256410,4490.769230,4202.564102,4458.974358,3934.871795,4237.948717,4493.846153,4230.769230,4569.230769,4007.179487,4060.512820
226,4405.641025,4501.025641,4523.076923,4288.717948,4480.000000,4197.435897,4450.769230,3928.205129,4227.692307,4489.743589,4234.871794,4561.538461,3996.923077,4054.871794
227,4396.923076,4490.769230,4520.000000,4286.666666,4473.333333,4190.256410,4442.051282,3922.051283,4230.769230,4492.307692,4221.538461,4556.410256,3985.641026,4048.205128
228,4399.487179,4490.256410,4521.025641,4280.512820,4479.487179,4192.820512,4443.589743,3924.615385,4236.923076,4494.358974,4216.923076,4560.000000,3990.256411,4051.794871
229,4405.641025,4500.512820,4525.128205,4277.948717,4480.000000,4198.461538,4447.692307,3928.205129,4228.205128,4490.256410,4228.205128,4560.512820,4004.102564,4058.461538
230,4401.025641,4497.948717,4519.487179,4278.461538,4472.820512,4192.820512,4443.589743,3923.589744,4220.512820,4481.538461,4224.615384,4552.307692,4002.051282,4052.820512
231,4395.384615,4487.692307,4511.794871,4279.487179,4473.846153,4189.230769,4442.564102,3924.615385,4227.692307,4481.538461,4225.128205,4552.307692,3991.282052,4048.205128
232,4400.512820,4489.743589,4514.871794,4281.025641,4476.923076,4192.307692,4445.128205,3928.717949,4230.256410,4493.333333,4229.230769,4555.384615,3991.282052,4051.794871
233,4406.153846,4496.410256,4522.051282,4279.487179,4473.333333,4191.282051,4444.102564,3928.205129,4218.974358,4492.820512,4217.435897,4552.307692,3999.487180,4053.333333
234,4403.076923,4495.384615,4524.102564,4281.025641,4474.358974,4193.333333,4443.589743,3925.128206,4213.846153,4478.461538,4211.794871,4552.307692,3996.923077,4050.769230
235,4397.948717,4491.794871,4517.948717,4282.564102,4480.000000,4200.512820,4444.615384,3922.051283,4215.897435,4473.846153,4221.025641,4550.256410,3981.538462,4045.641025
236,4397.948717,4492.820512,4512.820512,4282.051282,4478.974358,4199.487179,4445.128205,3925.641026,4215.897435,4477.948717,4217.948717,4542.051282,3975.384616,4043.076923
237,4398.461538,4492.820512,4515.897435,4281.538461,4473.846153,4192.820512,4444.615384,3929.743590,4215.384615,4477.435897,4207.692307,4541.538461,3984.615385,4043.589743
238,4395.897435,4490.769230,4520.512820,4278.974358,4474.871794,4188.717948,4444.102564,3925.641026,4221.538461,4477.948717,4211.282051,4550.256410,3992.820513,4045.128205
239,4395.384615,4488.205128,4521.025641,4275.897435,4475.384615,4186.666666,4443.076923,3927.692308,4227.179487,4487.692307,4220.512820,4555.384615,3994.358975,4050.769230
240,4403.589743,4489.743589,4521.538461,4277.435897,4474.871794,4191.794871,4450.256410,3943.589744,4229.230769,4495.897435,4223.589743,4560.000000,3994.871795,4055.384615
241,4407.692307,4496.410256,4524.615384,4288.205128,4477.948717,4200.000000,4460.000000,3948.717949,4226.666666,4491.282051,4217.435897,4562.051282,3990.769231,4053.846153
242,4402.564102,4496.410256,4523.589743,4289.743589,4478.974358,4201.025641,4456.410256,3943.076924,4220.512820,4481.025641,4213.333333,4555.384615,3989.743590,4049.230769
243,4398.974358,4492.307692,4518.974358,4272.307692,4475.384615,4192.820512,4446.666666,3938.974359,4214.871794,4476.410256,4215.897435,4551.794871,3994.358975,4051.794871
244,4398.974358,4488.205128,4516.923076,4265.128205,4473.846153,4186.153846,4446.153846,3934.358975,4214.358974,4477.435897,4220.000000,4556.410256,3987.692308,4051.282051
245,4396.923076,4484.615384,4518.461538,4278.974358,4474.871794,4188.205128,4447.692307,3935.384616,4217.948717,4477.948717,4213.846153,4556.410256,3975.384616,4042.564102
246,4393.846153,4483.076923,4522.051282,4284.615384,4473.846153,4190.256410,4444.615384,3937.435898,4216.923076,4476.923076,4198.974358,4553.333333,3972.307693,4037.948717
247,4397.948717,4485.641025,4523.076923,4275.897435,4472.820512,4186.666666,4444.102564,3934.358975,4214.358974,4475.384615,4198.461538,4556.410256,3980.512821,4042.051282
248,4406.666666,4490.256410,4523.076923,4276.410256,4474.871794,4189.230769,4446.153846,3937.948718,4216.923076,4477.435897,4213.333333,4564.102564,3988.205129,4049.743589
249,4408.205128,4493.333333,4522.051282,4280.512820,4476.923076,4195.897435,4446.153846,3944.102565,4217.435897,4482.564102,4225.128205,4568.717948,3987.179488,4053.846153
250,4404.615384,4492.307692,4523.076923,4282.051282,4476.410256,4193.333333,4445.128205,3941.025642,4218.461538,4489.230769,4228.205128,4571.282051,3988.717949,4055.384615
251,4403.589743,4488.205128,4521.538461,4282.051282,4473.846153,4186.153846,4444.102564,3939.487180,4224.615384,4490.769230,4211.282051,4569.230769,3995.384616,4054.871794
252,4405.641025,4487.692307,4517.435897,4270.256410,4472.820512,4186.153846,4443.589743,3941.538462,4224.102564,4487.692307,4190.256410,4564.102564,3988.717949,4050.769230
253,4403.076923,4489.743589,4514.358974,4263.076923,4473.846153,4187.692307,4444.615384,3939.487180,4214.871794,4486.153846,4205.641025,4564.615384,3979.487180,4048.717948
254,4399.487179,4486.666666,4515.384615,4265.641025,4472.820512,4188.717948,4444.102564,3939.487180,4215.384615,4485.128205,4236.410256,4568.717948,3987.179488,4049.743589
255,4401.538461,4486.666666,4518.461538,4257.435897,4476.410256,4194.358974,4446.153846,3942.564103,4227.692307,4488.205128,4231.282051,4570.769230,4000.000000,4052.307692
256,4410.769230,4498.461538,4521.538461,4243.076923,4486.666666,4203.589743,4455.897435,3950.769231,4235.384615,4493.846153,4214.358974,4575.384615,4006.666666,4060.000000
257,4421.538461,4508.205128,4532.307692,4246.153846,4493.846153,4211.282051,4462.564102,3961.025642,4237.435897,4495.384615,4218.974358,4584.615384,4012.307692,4071.794871
258,4419.487179,4508.717948,4537.948717,4247.692307,4491.282051,4209.743589,4460.000000,3961.538462,4237.948717,4498.461538,4220.512820,4585.128205,4006.153846,4070.256410
259,4411.282051,4502.051282,4526.666666,4233.846153,4488.717948,4200.512820,4455.897435,3950.769231,4234.358974,4500.512820,4214.871794,4571.794871,3990.769231,4057.948717
