,AF3,F7,F3,FC5,T7,P7,O1,O2,P8,T8,FC6,F4,F8,AF4
0,4372.820512,4512.307692,4524.102564,4262.051282,4498.974358,4175.897435,4438.461538,4216.410256,4287.692307,4483.076923,4171.794871,4630.769230,4000.512820,3777.435898
1,4372.307692,4514.358974,4522.564102,4261.025641,4502.051282,4176.923076,4434.871794,4207.179487,4278.461538,4477.948717,4164.615384,4630.769230,4001.538461,3781.025642
2,4368.205128,4510.769230,4521.538461,4266.153846,4497.948717,4176.410256,4433.333333,4206.153846,4281.025641,4478.974358,4169.230769,4630.256410,3994.358975,3781.025642
3,4362.564102,4503.076923,4525.641025,4266.666666,4494.358974,4174.871794,4431.282051,4213.333333,4288.205128,4483.076923,4178.461538,4628.205128,3992.307693,3772.307693
4,4366.666666,4505.641025,4527.179487,4260.000000,4495.384615,4174.871794,4436.923076,4216.923076,4289.743589,4486.153846,4175.897435,4629.230769,3996.923077,3771.282052
5,4370.769230,4510.769230,4526.666666,4261.025641,4496.923076,4176.410256,4445.641025,4215.897435,4293.333333,4489.230769,4158.461538,4630.256410,4003.076923,3776.923077
6,4364.102564,4505.641025,4527.692307,4264.615384,4495.897435,4177.435897,4444.615384,4212.307692,4290.769230,4484.615384,4147.692307,4624.615384,3998.461539,3774.358975
7,4360.512820,4507.692307,4532.820512,4266.666666,4495.897435,4176.923076,4443.076923,4210.256410,4282.051282,4478.461538,4153.333333,4625.641025,3994.358975,3774.871795
8,4367.692307,4516.410256,4537.435897,4271.794871,4494.871794,4174.871794,4446.666666,4209.230769,4282.051282,4482.051282,4163.076923,4636.410256,3997.435898,3782.051283
9,4370.769230,4516.923076,4540.000000,4273.846153,4492.307692,4173.333333,4450.256410,4210.769230,4286.666666,4486.666666,4164.102564,4637.435897,3993.333334,3784.102565
10,4364.615384,4510.256410,4536.923076,4266.153846,4495.384615,4177.435897,4454.871794,4209.743589,4281.025641,4475.897435,4153.333333,4629.230769,3986.666667,3776.410257
11,4360.000000,4505.641025,4529.743589,4258.974358,4500.512820,4180.512820,4455.384615,4205.128205,4273.333333,4465.641025,4145.128205,4625.128205,3992.307693,3767.692308
12,4363.589743,4503.589743,4530.769230,4264.102564,4497.435897,4178.461538,4448.717948,4201.538461,4275.384615,4472.820512,4151.794871,4626.666666,3998.974359,3768.717949
13,4369.230769,4510.769230,4538.974358,4268.717948,4493.333333,4175.897435,4444.615384,4202.564102,4281.538461,4482.051282,4163.589743,4629.230769,3995.897436,3774.871795
14,4371.794871,4517.435897,4538.974358,4265.641025,4499.487179,4175.384615,4443.589743,4203.076923,4282.051282,4482.051282,4163.589743,4634.358974,3994.358975,3781.025642
15,4374.871794,4520.000000,4536.410256,4265.128205,4504.102564,4177.948717,4441.538461,4206.153846,4284.615384,4484.102564,4158.974358,4640.512820,4004.615384,3789.743590
16,4378.974358,4527.179487,4544.615384,4272.820512,4502.564102,4180.000000,4446.153846,4216.923076,4291.282051,4491.794871,4157.435897,4644.615384,4017.948717,3794.871795
17,4381.025641,4530.256410,4551.794871,4281.025641,4506.666666,4179.487179,4453.846153,4222.564102,4295.384615,4496.923076,4159.487179,4645.641025,4018.974358,3792.307693
18,4381.538461,4524.102564,4547.179487,4282.051282,4510.256410,4177.948717,4451.794871,4217.948717,4293.333333,4490.769230,4169.230769,4643.589743,4004.615384,3792.820513
19,4377.948717,4517.435897,4540.000000,4272.820512,4504.102564,4178.461538,4443.076923,4214.871794,4287.179487,4482.051282,4165.641025,4638.461538,3996.923077,3790.769231
20,4375.897435,4517.435897,4538.974358,4267.179487,4500.512820,4178.974358,4442.051282,4214.871794,4289.743589,4485.128205,4150.256410,4634.358974,4003.589743,3780.512821
21,4377.948717,4523.076923,4540.512820,4271.794871,4509.230769,4180.512820,4445.128205,4216.923076,4299.487179,4489.743589,4147.692307,4636.923076,4003.589743,3778.974359
22,4375.384615,4527.692307,4539.487179,4274.358974,4516.410256,4184.615384,4445.128205,4218.974358,4297.435897,4483.589743,4150.769230,4637.435897,3993.846154,3783.589744
23,4372.307692,4524.102564,4535.897435,4271.794871,4510.256410,4182.051282,4443.589743,4214.358974,4284.615384,4478.974358,4146.666666,4628.717948,3994.358975,3781.025642
24,4375.897435,4518.974358,4533.333333,4269.230769,4503.076923,4176.410256,4434.358974,4209.743589,4279.487179,4478.461538,4150.256410,4624.615384,3998.974359,3775.384616
25,4379.487179,4520.000000,4536.410256,4267.179487,4502.051282,4175.384615,4427.692307,4212.307692,4284.615384,4476.923076,4156.923076,4631.282051,4001.025641,3775.384616
26,4380.000000,4521.025641,4541.025641,4268.205128,4499.487179,4172.820512,4429.743589,4216.410256,4287.692307,4481.025641,4149.230769,4638.461538,4003.589743,3781.538462
27,4377.948717,4520.512820,4542.051282,4271.794871,4499.487179,4170.769230,4430.256410,4213.333333,4289.230769,4488.717948,4148.205128,4637.435897,4001.538461,3784.102565
28,4373.333333,4521.025641,4536.923076,4271.794871,4503.589743,4170.256410,4427.692307,4205.128205,4285.128205,4488.205128,4160.000000,4629.743589,3995.384616,3774.358975
29,4367.179487,4517.948717,4528.717948,4263.076923,4501.025641,4166.666666,4427.692307,4201.025641,4275.384615,4477.435897,4152.307692,4622.051282,3991.282052,3763.076924
30,4362.051282,4511.794871,4526.666666,4259.487179,4497.435897,4165.128205,4427.692307,4202.051282,4269.743589,4465.128205,4129.230769,4618.461538,3989.230770,3758.974359
31,4356.923076,4509.743589,4526.666666,4258.974358,4495.897435,4165.641025,4421.538461,4202.051282,4268.717948,4461.538461,4129.743589,4616.923076,3986.153847,3756.923077
32,4358.974358,4512.820512,4527.692307,4260.000000,4493.846153,4165.128205,4419.487179,4200.000000,4270.769230,4472.307692,4148.205128,4622.051282,3986.153847,3758.461539
33,4373.846153,4522.051282,4534.871794,4267.179487,4496.923076,4173.846153,4426.153846,4202.051282,4277.948717,4481.538461,4148.205128,4630.769230,3992.820513,3768.717949
34,4375.897435,4521.025641,4541.025641,4267.692307,4500.512820,4178.974358,4429.230769,4204.102564,4278.461538,4475.384615,4130.769230,4627.692307,3988.205129,3765.128206
35,4357.435897,4509.743589,4532.307692,4255.897435,4494.871794,4169.743589,4425.641025,4198.974358,4271.282051,4460.512820,4124.615384,4617.948717,3980.000000,3750.769231
36,4349.743589,4509.743589,4524.102564,4250.769230,4491.794871,4167.179487,4426.153846,4196.410256,4272.307692,4454.358974,4130.769230,4616.923076,3982.051283,3755.384616
37,4356.410256,4512.820512,4525.128205,4253.846153,4494.871794,4170.769230,4428.205128,4200.000000,4273.333333,4456.923076,4130.769230,4618.974358,3976.410257,3760.000000
38,4357.435897,4508.205128,4523.589743,4254.871794,4495.897435,4166.666666,4422.564102,4200.000000,4268.205128,4457.435897,4130.769230,4616.410256,3963.589744,3751.794872
39,4356.923076,4506.666666,4520.512820,4259.487179,4495.897435,4163.076923,4416.923076,4199.487179,4272.820512,4462.051282,4135.384615,4618.461538,3970.769231,3751.282052
40,4363.589743,4514.358974,4527.179487,4265.641025,4497.948717,4164.615384,4414.358974,4200.512820,4282.564102,4475.897435,4130.769230,4625.128205,3987.692308,3760.000000
41,4366.153846,4515.384615,4537.435897,4262.051282,4498.974358,4164.102564,4414.871794,4199.487179,4281.538461,4481.538461,4127.179487,4625.128205,3985.128206,3761.538462
42,4367.692307,4515.897435,4537.435897,4261.538461,4502.564102,4166.666666,4423.076923,4205.128205,4283.589743,4478.974358,4144.615384,4622.564102,3982.564103,3764.102565
43,4373.846153,4526.153846,4537.435897,4269.230769,4505.128205,4173.846153,4430.256410,4215.897435,4296.410256,4483.076923,4164.615384,4630.256410,3994.871795,3771.282052
44,4376.923076,4531.794871,4541.538461,4273.846153,4504.102564,4175.897435,4431.282051,4218.461538,4300.000000,4488.717948,4155.384615,4636.410256,3999.487180,3770.256411
45,4376.923076,4527.692307,4542.564102,4273.333333,4506.666666,4175.897435,4430.769230,4215.384615,4294.358974,4485.128205,4138.461538,4634.358974,3994.871795,3767.692308
46,4372.820512,4523.589743,4536.923076,4268.717948,4509.743589,4173.846153,4430.769230,4209.743589,4292.307692,4482.051282,4141.025641,4630.769230,3992.820513,3765.641026
47,4364.102564,4520.512820,4527.692307,4262.051282,4504.615384,4169.743589,4427.692307,4201.538461,4291.794871,4480.000000,4141.025641,4627.179487,3990.769231,3761.538462
48,4361.025641,4512.820512,4521.538461,4260.512820,4499.487179,4169.230769,4424.615384,4198.461538,4284.615384,4478.461538,4126.153846,4622.564102,3984.102565,3757.948718
49,4366.153846,4513.846153,4524.102564,4269.230769,4498.974358,4172.820512,4429.230769,4202.051282,4284.615384,4482.051282,4129.230769,4625.128205,3986.153847,3758.974359
50,4366.153846,4520.512820,4527.692307,4271.282051,4498.461538,4171.282051,4433.846153,4203.589743,4289.230769,4482.051282,4143.076923,4627.179487,3991.794872,3757.435898
51,4354.871794,4514.871794,4517.948717,4258.974358,4493.333333,4165.128205,4430.256410,4198.974358,4276.410256,4472.307692,4132.307692,4616.923076,3983.589744,3748.717949
52,4348.205128,4505.128205,4509.743589,4254.358974,4486.666666,4161.538461,4425.128205,4187.692307,4258.461538,4461.025641,4122.564102,4612.307692,3969.743590,3743.076924
53,4352.307692,4507.692307,4515.897435,4264.615384,4483.076923,4160.512820,4425.128205,4182.564102,4261.538461,4461.025641,4138.461538,4615.897435,3969.230770,3746.153847
54,4357.948717,4518.974358,4524.615384,4267.692307,4487.692307,4161.025641,4423.589743,4191.794871,4271.794871,4467.692307,4143.589743,4617.948717,3982.564103,3750.256411
55,4363.076923,4523.076923,4523.589743,4261.025641,4490.256410,4162.051282,4422.051282,4200.000000,4274.358974,4472.307692,4129.230769,4623.076923,3997.435898,3754.871795
56,4368.717948,4520.000000,4524.102564,4264.615384,4487.692307,4162.564102,4426.666666,4201.538461,4281.025641,4476.410256,4133.846153,4631.282051,3998.974359,3763.589744
57,4366.153846,4515.897435,4527.692307,4264.615384,4486.153846,4161.025641,4425.641025,4201.538461,4283.076923,4474.871794,4145.641025,4629.230769,3983.076924,3763.076924
58,4358.974358,4513.333333,4518.461538,4254.871794,4487.692307,4159.487179,4416.410256,4198.461538,4274.358974,4466.153846,4141.025641,4622.051282,3973.846154,3751.794872
59,4360.512820,4513.333333,4511.794871,4255.384615,4488.205128,4161.538461,4418.461538,4198.974358,4274.358974,4466.666666,4136.923076,4622.564102,3981.025642,3749.230770
60,4358.974358,4509.230769,4518.974358,4258.461538,4487.179487,4164.615384,4427.692307,4203.076923,4277.435897,4472.820512,4126.666666,4625.128205,3982.051283,3750.256411
61,4349.743589,4501.025641,4520.000000,4250.769230,4484.102564,4165.128205,4429.743589,4204.102564,4276.410256,4469.230769,4118.461538,4623.589743,3977.948718,3746.153847
62,4349.743589,4499.487179,4509.230769,4246.666666,4485.641025,4164.615384,4427.692307,4201.538461,4271.794871,4462.564102,4125.128205,4622.564102,3980.000000,3742.051283
63,4352.820512,4507.692307,4504.615384,4251.794871,4490.256410,4167.179487,4428.205128,4202.051282,4269.743589,4461.025641,4120.512820,4620.000000,3973.333334,3738.461539
64,4348.205128,4512.307692,4508.205128,4255.897435,4487.692307,4168.717948,4429.743589,4202.564102,4275.897435,4463.589743,4106.153846,4614.358974,3960.512821,3733.333334
65,4346.666666,4512.820512,4508.717948,4252.820512,4488.205128,4171.282051,4430.769230,4203.076923,4281.025641,4460.000000,4110.769230,4613.333333,3960.512821,3734.871795
66,4348.205128,4510.769230,4504.615384,4250.769230,4492.820512,4172.820512,4429.743589,4202.051282,4270.769230,4451.282051,4120.000000,4617.435897,3964.102565,3734.358975
67,4348.205128,4507.692307,4506.666666,4256.410256,4491.282051,4171.282051,4429.230769,4200.512820,4264.102564,4451.282051,4116.923076,4618.974358,3964.615385,3729.230770
68,4351.282051,4510.769230,4517.435897,4258.974358,4491.282051,4174.358974,4431.794871,4210.256410,4277.435897,4462.051282,4124.615384,4621.025641,3973.333334,3737.435898
69,4353.846153,4513.846153,4520.000000,4253.846153,4497.435897,4173.333333,4429.743589,4216.410256,4281.025641,4465.641025,4133.846153,4623.589743,3980.512821,3745.641026
70,4355.384615,4514.871794,4515.897435,4257.435897,4499.487179,4167.692307,4427.692307,4209.230769,4272.307692,4461.025641,4125.641025,4623.076923,3973.333334,3740.000000
71,4360.000000,4516.410256,4517.948717,4267.179487,4498.974358,4170.769230,4429.743589,4208.205128,4276.410256,4465.128205,4126.666666,4623.589743,3969.743590,3738.974359
72,4365.641025,4521.538461,4522.564102,4266.666666,4498.974358,4175.897435,4429.743589,4217.435897,4289.230769,4475.384615,4145.641025,4629.230769,3979.487180,3749.743590
73,4366.153846,4522.051282,4522.051282,4259.487179,4498.461538,4174.871794,4429.230769,4221.025641,4290.769230,4482.564102,4154.871794,4633.846153,3988.205129,3752.307693
74,4357.948717,4514.358974,4514.358974,4251.282051,4495.897435,4170.256410,4422.564102,4209.743589,4277.948717,4474.358974,4146.153846,4627.692307,3984.615385,3740.000000
75,4352.307692,4510.256410,4509.230769,4249.230769,4490.769230,4166.153846,4414.358974,4201.538461,4271.282051,4464.102564,4144.102564,4620.000000,3977.948718,3734.871795
76,4365.128205,4522.051282,4518.461538,4262.564102,4493.846153,4169.743589,4420.512820,4211.282051,4287.692307,4475.897435,4153.846153,4629.230769,3985.641026,3749.743590
77,4380.000000,4534.871794,4529.743589,4276.923076,4506.666666,4180.000000,4432.820512,4225.128205,4305.641025,4491.794871,4154.871794,4647.179487,4002.564102,3765.128206
78,4373.333333,4529.743589,4524.615384,4270.256410,4507.179487,4180.512820,4427.692307,4216.410256,4296.410256,4485.128205,4152.307692,4642.564102,4003.589743,3758.461539
79,4362.051282,4525.128205,4518.461538,4255.384615,4500.512820,4172.307692,4414.871794,4200.512820,4280.000000,4471.282051,4148.717948,4628.205128,3991.282052,3746.153847
80,4363.076923,4527.692307,4522.051282,4256.410256,4497.948717,4170.256410,4412.820512,4200.512820,4274.871794,4467.692307,4129.743589,4629.743589,3986.153847,3745.128206
81,4362.051282,4518.974358,4519.487179,4264.615384,4494.871794,4170.256410,4416.410256,4202.564102,4269.230769,4465.128205,4116.923076,4632.820512,3983.589744,3744.615385
82,4356.410256,4510.256410,4517.435897,4264.615384,4495.897435,4169.743589,4417.948717,4200.512820,4267.179487,4461.538461,4132.307692,4627.692307,3973.846154,3740.000000
83,4355.384615,4515.384615,4521.025641,4260.000000,4499.487179,4167.692307,4412.820512,4198.974358,4269.743589,4465.641025,4143.589743,4625.128205,3969.743590,3736.923077
84,4356.923076,4521.538461,4515.897435,4251.282051,4494.871794,4166.153846,4411.282051,4197.948717,4263.589743,4462.564102,4120.000000,4623.076923,3973.846154,3735.897436
85,4360.000000,4522.564102,4511.282051,4248.717948,4494.358974,4171.282051,4422.051282,4198.461538,4261.538461,4455.384615,4098.974358,4624.102564,3978.461539,3737.435898
86,4360.512820,4523.076923,4515.384615,4262.564102,4497.435897,4176.923076,4428.205128,4201.025641,4272.820512,4460.512820,4111.282051,4631.282051,3976.923077,3739.487180
87,4349.743589,4517.948717,4511.794871,4269.743589,4490.769230,4171.282051,4418.974358,4201.538461,4268.205128,4460.512820,4129.230769,4628.205128,3972.307693,3735.384616
88,4346.153846,4511.794871,4503.589743,4255.897435,4482.564102,4162.051282,4409.743589,4199.487179,4255.897435,4452.820512,4132.307692,4620.000000,3969.230770,3730.769231
89,4353.846153,4513.846153,4505.128205,4246.153846,4483.589743,4159.487179,4409.743589,4198.974358,4263.076923,4458.461538,4131.282051,4621.025641,3966.153847,3731.794872
90,4355.897435,4516.410256,4509.230769,4250.769230,4487.692307,4164.102564,4412.307692,4200.000000,4267.692307,4466.153846,4131.282051,4623.076923,3965.641026,3732.307693
91,4355.384615,4522.051282,4511.794871,4252.820512,4492.307692,4172.307692,4417.435897,4202.051282,4257.435897,4463.589743,4131.282051,4624.102564,3975.897436,3734.871795
92,4361.538461,4524.615384,4518.974358,4256.410256,4497.948717,4172.307692,4418.974358,4204.102564,4261.538461,4468.205128,4128.717948,4627.179487,3990.769231,3741.538462
93,4364.102564,4520.512820,4520.000000,4260.000000,4498.461538,4166.666666,4413.333333,4204.102564,4273.846153,4476.410256,4129.743589,4633.333333,3988.717949,3747.692308
94,4363.076923,4522.051282,4519.487179,4256.923076,4495.384615,4168.717948,4412.307692,4205.641025,4268.717948,4471.282051,4139.487179,4634.871794,3978.461539,3750.769231
95,4365.128205,4527.179487,4523.589743,4259.487179,4497.435897,4173.333333,4416.923076,4210.256410,4267.692307,4466.153846,4148.205128,4634.358974,3981.538462,3748.717949
96,4367.179487,4528.205128,4525.128205,4270.256410,4502.051282,4172.820512,4415.384615,4215.384615,4285.128205,4477.948717,4151.794871,4637.435897,3991.282052,3748.717949
97,4364.615384,4525.641025,4523.589743,4270.256410,4498.974358,4171.794871,4412.307692,4213.846153,4291.282051,4484.615384,4154.871794,4640.512820,3986.666667,3747.692308
98,4359.487179,4518.461538,4520.512820,4252.820512,4495.897435,4169.743589,4412.307692,4204.615384,4275.897435,4471.282051,4142.564102,4634.358974,3976.923077,3738.974359
99,4358.974358,4515.384615,4516.923076,4244.615384,4495.384615,4164.615384,4409.230769,4197.948717,4269.230769,4464.615384,4122.564102,4624.102564,3978.461539,3732.307693
100,4364.102564,4523.076923,4518.974358,4253.846153,4489.230769,4164.615384,4411.282051,4204.615384,4279.487179,4477.948717,4131.794871,4628.205128,3987.692308,3738.974359
101,4368.717948,4527.692307,4523.589743,4260.000000,4486.153846,4169.743589,4424.102564,4214.871794,4288.717948,4488.205128,4150.769230,4638.974358,3995.897436,3743.589744
102,4365.641025,4524.615384,4524.615384,4260.512820,4492.820512,4170.256410,4430.769230,4209.230769,4284.615384,4482.564102,4145.128205,4635.897435,3989.230770,3736.410257
103,4357.435897,4525.641025,4520.000000,4257.435897,4496.923076,4166.666666,4426.666666,4197.948717,4269.230769,4470.256410,4137.435897,4629.743589,3975.897436,3730.769231
104,4362.051282,4529.743589,4519.487179,4254.871794,4496.410256,4170.256410,4425.641025,4197.948717,4262.564102,4464.615384,4138.974358,4631.794871,3975.384616,3734.871795
105,4370.769230,4525.641025,4523.076923,4258.974358,4497.435897,4176.410256,4430.769230,4201.025641,4273.846153,4474.871794,4136.410256,4635.384615,3985.641026,3740.000000
106,4363.589743,4518.461538,4522.564102,4259.487179,4498.461538,4172.820512,4431.282051,4201.025641,4285.641025,4486.153846,4133.333333,4633.333333,3986.153847,3737.435898
107,4353.846153,4511.794871,4516.410256,4250.769230,4493.846153,4167.179487,4428.205128,4200.512820,4283.076923,4479.487179,4133.846153,4628.205128,3980.512821,3732.307693
108,4358.461538,4504.615384,4515.897435,4249.743589,4489.743589,4169.230769,4433.846153,4204.102564,4277.435897,4469.743589,4137.948717,4628.717948,3980.000000,3734.871795
109,4364.102564,4507.179487,4522.051282,4255.897435,4492.820512,4173.846153,4442.051282,4210.256410,4282.051282,4472.820512,4145.641025,4634.871794,3982.564103,3740.512821
110,4356.410256,4510.256410,4522.564102,4249.743589,4492.307692,4173.333333,4443.589743,4209.743589,4284.102564,4476.410256,4148.205128,4634.358974,3983.589744,3737.435898
111,4347.692307,4500.512820,4521.025641,4239.487179,4488.205128,4166.153846,4442.564102,4202.051282,4277.948717,4471.282051,4132.820512,4626.153846,3977.435898,3731.794872
112,4345.128205,4494.358974,4517.948717,4236.923076,4491.282051,4163.076923,4440.512820,4199.487179,4270.256410,4466.153846,4115.384615,4622.564102,3972.307693,3732.307693
113,4344.102564,4497.948717,4512.307692,4237.948717,4491.794871,4165.641025,4434.358974,4201.538461,4268.717948,4467.692307,4118.461538,4620.000000,3967.692308,3732.307693
114,4343.076923,4494.871794,4512.820512,4244.615384,4484.615384,4163.076923,4428.717948,4201.025641,4274.358974,4473.333333,4135.897435,4623.076923,3966.153847,3730.256411
115,4341.025641,4490.256410,4514.358974,4249.230769,4482.564102,4161.025641,4425.128205,4195.897435,4276.923076,4475.384615,4133.846153,4627.179487,3974.871795,3732.307693
116,4337.948717,4493.333333,4509.230769,4241.538461,4486.153846,4163.589743,4422.051282,4188.717948,4269.230769,4469.230769,4114.871794,4622.051282,3981.025642,3731.282052
117,4339.487179,4492.307692,4508.205128,4236.923076,4487.179487,4163.076923,4420.000000,4185.128205,4262.051282,4463.589743,4121.025641,4618.974358,3980.512821,3728.717949
118,4345.641025,4494.871794,4509.743589,4242.564102,4486.666666,4159.487179,4415.384615,4186.153846,4268.205128,4467.692307,4137.948717,4621.538461,3978.974359,3729.743590
119,4347.692307,4502.051282,4510.256410,4245.128205,4489.743589,4157.435897,4412.820512,4188.205128,4268.717948,4470.256410,4128.205128,4620.000000,3974.871795,3729.230770
120,4349.743589,4500.512820,4516.923076,4243.076923,4491.794871,4158.461538,4420.512820,4193.846153,4268.717948,4470.256410,4126.153846,4625.641025,3977.435898,3729.230770
121,4355.384615,4495.384615,4525.641025,4243.076923,4489.230769,4162.051282,4428.717948,4201.538461,4277.948717,4475.384615,4154.871794,4640.000000,3993.333334,3736.410257
122,4352.820512,4495.897435,4524.615384,4241.025641,4487.179487,4162.051282,4431.282051,4203.076923,4277.435897,4478.461538,4170.769230,4638.974358,3995.897436,3741.025642
123,4347.692307,4494.871794,4518.974358,4235.897435,4487.179487,4159.487179,4429.230769,4196.410256,4269.230769,4473.846153,4151.794871,4625.128205,3977.435898,3733.846154
124,4344.615384,4490.769230,4514.871794,4235.384615,4488.205128,4160.512820,4425.641025,4191.794871,4269.743589,4471.282051,4145.641025,4623.589743,3968.205129,3722.564103
125,4342.564102,4492.307692,4518.461538,4236.410256,4489.230769,4163.589743,4426.666666,4194.871794,4272.307692,4472.820512,4165.128205,4627.692307,3971.282052,3722.564103
126,4342.564102,4492.820512,4522.051282,4229.743589,4487.692307,4161.025641,4425.128205,4199.487179,4270.769230,4474.871794,4162.051282,4628.205128,3977.948718,3730.256411
127,4346.666666,4493.846153,4521.538461,4231.282051,4486.153846,4156.410256,4420.000000,4198.461538,4278.461538,4480.000000,4140.512820,4629.743589,3984.102565,3731.794872
128,4352.307692,4501.025641,4525.128205,4244.102564,4486.153846,4157.435897,4418.461538,4200.512820,4287.179487,4479.487179,4140.512820,4635.897435,3983.076924,3731.282052
129,4349.743589,4501.025641,4526.153846,4244.102564,4488.205128,4160.000000,4417.948717,4202.564102,4275.897435,4468.717948,4156.923076,4636.923076,3980.000000,3732.820513
130,4343.076923,4494.358974,4521.538461,4230.769230,4490.769230,4158.461538,4413.846153,4198.974358,4265.641025,4466.666666,4158.461538,4631.794871,3981.538462,3730.256411
131,4346.153846,4493.846153,4522.051282,4232.307692,4489.743589,4156.410256,4413.333333,4199.487179,4271.282051,4473.333333,4151.282051,4631.282051,3984.615385,3729.743590
132,4350.769230,4494.871794,4523.076923,4242.564102,4486.666666,4155.384615,4411.282051,4202.564102,4275.384615,4473.333333,4149.743589,4630.769230,3981.025642,3730.769231
133,4349.743589,4496.410256,4520.512820,4240.000000,4488.717948,4158.974358,4409.743589,4200.512820,4270.769230,4468.717948,4141.025641,4628.205128,3973.846154,3728.717949
134,4351.282051,4501.538461,4523.589743,4240.000000,4492.820512,4163.076923,4415.384615,4200.000000,4271.794871,4472.820512,4130.256410,4629.230769,3975.897436,3729.743590
135,4351.282051,4502.051282,4526.153846,4247.692307,4493.846153,4164.102564,4418.461538,4199.487179,4275.384615,4480.000000,4140.512820,4632.307692,3980.512821,3729.230770
136,4351.282051,4500.512820,4524.102564,4247.692307,4495.384615,4163.589743,4420.512820,4194.871794,4275.897435,4483.589743,4166.666666,4633.333333,3977.948718,3727.179488
137,4360.512820,4510.256410,4528.205128,4246.153846,4496.923076,4164.102564,4428.205128,4204.615384,4280.512820,4487.692307,4176.410256,4637.948717,3988.205129,3734.358975
138,4363.076923,4515.897435,4530.256410,4250.256410,4494.871794,4164.615384,4430.256410,4217.435897,4288.205128,4491.794871,4164.102564,4642.051282,4006.666666,3741.025642
139,4354.358974,4506.153846,4522.564102,4247.179487,4488.717948,4163.589743,4428.717948,4207.179487,4280.512820,4487.179487,4161.025641,4636.923076,3996.923077,3730.256411
140,4357.435897,4505.641025,4518.974358,4244.102564,4484.615384,4164.102564,4438.461538,4202.564102,4273.846153,4482.051282,4170.769230,4635.384615,3985.128206,3728.205129
141,4365.128205,4514.871794,4524.615384,4248.205128,4486.666666,4165.641025,4448.205128,4214.358974,4285.641025,4486.666666,4172.307692,4640.000000,3994.358975,3741.025642
142,4360.000000,4510.769230,4526.153846,4246.153846,4488.717948,4164.615384,4444.615384,4211.282051,4285.641025,4489.230769,4173.846153,4638.461538,3992.820513,3741.538462
143,4355.384615,4505.128205,4520.512820,4241.538461,4492.307692,4164.102564,4441.538461,4196.410256,4269.743589,4482.564102,4183.589743,4633.333333,3980.000000,3732.820513
144,4360.000000,4512.820512,4525.641025,4247.179487,4495.384615,4166.666666,4445.641025,4197.435897,4266.666666,4475.897435,4185.641025,4634.358974,3980.000000,3733.333334
145,4364.615384,4520.000000,4534.871794,4253.333333,4495.897435,4171.282051,4447.179487,4203.076923,4276.410256,4476.923076,4183.589743,4636.923076,3990.256411,3738.974359
146,4358.974358,4510.256410,4529.230769,4248.717948,4501.025641,4169.743589,4445.641025,4199.487179,4277.948717,4483.589743,4189.743589,4634.358974,3992.307693,3730.769231
147,4349.743589,4499.487179,4520.000000,4240.512820,4502.051282,4164.615384,4445.128205,4199.487179,4278.461538,4484.102564,4179.487179,4630.256410,3983.076924,3718.974359
148,4352.307692,4503.076923,4519.487179,4239.487179,4490.769230,4160.512820,4444.615384,4200.512820,4281.538461,4477.948717,4162.564102,4629.743589,3976.410257,3721.538462
149,4358.974358,4509.230769,4524.615384,4244.102564,4485.128205,4162.051282,4450.769230,4203.589743,4280.000000,4475.384615,4175.384615,4634.358974,3982.564103,3730.256411
150,4361.025641,4510.256410,4530.769230,4250.256410,4494.358974,4170.256410,4457.948717,4213.846153,4283.076923,4483.076923,4189.230769,4639.487179,3990.769231,3735.384616
151,4362.564102,4512.307692,4531.794871,4251.794871,4499.487179,4171.282051,4453.333333,4216.923076,4285.128205,4491.282051,4178.461538,4640.000000,3991.794872,3735.384616
152,4361.025641,4514.358974,4526.153846,4247.179487,4490.769230,4164.615384,4444.102564,4205.641025,4277.435897,4489.230769,4178.974358,4636.410256,3988.717949,3732.820513
153,4359.487179,4513.333333,4524.615384,4243.076923,4486.153846,4160.000000,4442.051282,4198.461538,4273.333333,4479.487179,4192.820512,4635.384615,3986.153847,3732.307693
154,4358.461538,4513.333333,4527.179487,4244.615384,4487.692307,4157.948717,4439.487179,4201.538461,4277.948717,4472.820512,4178.461538,4634.358974,3986.153847,3732.820513
155,4354.358974,4509.743589,4523.076923,4246.666666,4486.666666,4155.897435,4433.333333,4198.974358,4275.897435,4476.923076,4160.000000,4628.717948,3983.589744,3726.153847
156,4353.333333,4504.615384,4522.051282,4247.692307,4486.153846,4154.358974,4432.307692,4195.897435,4268.717948,4479.487179,4173.846153,4628.717948,3976.410257,3723.589744
157,4348.717948,4501.025641,4524.102564,4247.179487,4486.153846,4152.820512,4430.256410,4198.461538,4267.179487,4470.256410,4186.666666,4633.333333,3972.820513,3729.230770
158,4335.384615,4501.538461,4522.051282,4237.435897,4481.025641,4153.333333,4426.666666,4197.948717,4267.692307,4467.692307,4179.487179,4630.769230,3973.333334,3726.666667
159,4333.846153,4505.641025,4522.051282,4234.358974,4481.538461,4159.487179,4427.692307,4195.384615,4268.717948,4480.000000,4176.410256,4630.256410,3983.076924,3726.153847
160,4343.589743,4509.230769,4524.615384,4247.692307,4488.205128,4162.564102,4429.230769,4197.435897,4271.282051,4485.641025,4180.512820,4635.897435,3992.307693,3733.846154
161,4345.128205,4510.256410,4525.128205,4254.871794,4489.743589,4162.564102,4430.256410,4200.000000,4276.923076,4481.538461,4177.435897,4634.871794,3987.179488,3732.820513
162,4334.871794,4508.717948,4522.051282,4241.538461,4485.641025,4161.025641,4427.179487,4190.256410,4270.769230,4476.923076,4166.153846,4624.615384,3978.461539,3723.589744
163,4328.717948,4504.615384,4518.974358,4229.743589,4485.641025,4155.897435,4420.000000,4183.589743,4257.435897,4473.333333,4156.923076,4620.512820,3977.435898,3718.974359
164,4335.384615,4502.564102,4520.512820,4235.897435,4485.641025,4154.871794,4421.538461,4195.897435,4264.102564,4477.435897,4167.692307,4630.769230,3982.051283,3724.102565
165,4333.333333,4504.615384,4526.153846,4242.051282,4485.641025,4157.435897,4424.102564,4204.102564,4274.358974,4476.410256,4187.692307,4637.435897,3982.564103,3726.666667
166,4314.871794,4500.000000,4516.923076,4235.384615,4478.974358,4152.307692,4412.820512,4187.692307,4258.974358,4458.974358,4186.666666,4624.102564,3972.820513,3715.384616
167,4314.871794,4495.384615,4507.692307,4228.717948,4470.769230,4147.179487,4411.794871,4181.025641,4249.743589,4455.384615,4173.846153,4612.820512,3970.769231,3710.256411
168,4333.333333,4500.000000,4514.871794,4231.794871,4473.846153,4153.846153,4425.128205,4196.923076,4266.666666,4470.769230,4169.743589,4621.538461,3983.076924,3723.076924
169,4334.358974,4502.051282,4516.410256,4235.384615,4482.564102,4162.051282,4424.615384,4196.410256,4272.820512,4473.333333,4160.000000,4625.128205,3978.461539,3727.692308
170,4328.717948,4505.128205,4513.333333,4242.051282,4483.589743,4162.564102,4418.974358,4184.102564,4265.641025,4467.179487,4157.435897,4620.512820,3965.128206,3720.512821
171,4331.794871,4512.307692,4518.461538,4248.717948,4483.589743,4163.589743,4424.102564,4189.743589,4266.666666,4471.282051,4177.948717,4624.615384,3981.025642,3723.076924
172,4330.769230,4513.333333,4524.102564,4244.102564,4487.692307,4165.641025,4427.692307,4195.384615,4270.256410,4473.846153,4190.256410,4626.153846,3998.461539,3730.769231
173,4329.230769,4510.769230,4521.025641,4235.897435,4487.692307,4165.641025,4425.641025,4187.692307,4273.333333,4470.256410,4188.717948,4623.589743,3985.641026,3732.307693
174,4326.666666,4506.153846,4514.358974,4229.230769,4477.948717,4161.538461,4426.666666,4183.076923,4272.820512,4469.743589,4188.205128,4622.051282,3972.820513,3724.102565
175,4321.538461,4500.000000,4508.717948,4229.230769,4471.794871,4157.948717,4427.179487,4183.589743,4263.589743,4465.641025,4174.358974,4618.974358,3975.384616,3712.307693
176,4324.102564,4505.641025,4506.666666,4238.461538,4475.897435,4158.974358,4428.205128,4188.205128,4262.564102,4458.974358,4160.000000,4620.512820,3982.051283,3717.948718
177,4330.256410,4514.871794,4511.794871,4247.179487,4483.589743,4163.589743,4436.410256,4194.871794,4270.769230,4462.564102,4168.205128,4625.128205,3980.512821,3730.256411
178,4333.333333,4513.846153,4516.410256,4245.641025,4484.102564,4169.743589,4442.051282,4193.846153,4269.230769,4471.282051,4180.512820,4625.128205,3977.948718,3730.256411
179,4339.487179,4514.871794,4519.487179,4245.128205,4484.615384,4171.282051,4444.615384,4191.282051,4268.205128,4474.358974,4184.102564,4625.128205,3987.692308,3731.282052
180,4340.000000,4521.538461,4513.846153,4247.692307,4490.769230,4167.179487,4445.128205,4191.794871,4272.307692,4472.820512,4181.025641,4625.641025,3994.358975,3732.820513
181,4330.769230,4519.487179,4503.589743,4242.051282,4491.282051,4165.641025,4441.025641,4185.641025,4264.102564,4466.666666,4176.923076,4617.435897,3984.102565,3723.589744
182,4331.282051,4516.410256,4508.717948,4235.897435,4487.179487,4168.205128,4436.923076,4183.589743,4263.589743,4466.666666,4188.205128,4614.871794,3978.974359,3724.102565
183,4341.538461,4512.820512,4515.384615,4237.948717,4485.641025,4165.128205,4433.846153,4188.717948,4273.846153,4471.282051,4187.692307,4624.615384,3985.128206,3733.846154
184,4343.589743,4515.384615,4510.256410,4244.615384,4484.102564,4159.487179,4429.743589,4185.641025,4266.153846,4465.641025,4169.743589,4630.769230,3983.076924,3731.794872
185,4338.461538,4523.076923,4511.282051,4248.205128,4480.000000,4159.487179,4425.128205,4182.051282,4252.307692,4461.025641,4173.846153,4625.128205,3975.384616,3725.128206
186,4338.461538,4522.051282,4520.512820,4249.230769,4480.000000,4160.512820,4425.128205,4182.051282,4252.307692,4461.538461,4185.128205,4618.974358,3971.794872,3725.641026
187,4341.025641,4512.307692,4518.461538,4247.179487,4480.512820,4157.948717,4421.025641,4174.871794,4254.358974,4455.384615,4174.358974,4620.000000,3973.846154,3726.666667
188,4335.897435,4509.230769,4507.692307,4242.564102,4476.923076,4155.384615,4414.871794,4168.205128,4256.410256,4453.333333,4163.076923,4618.974358,3981.538462,3723.589744
189,4330.769230,4514.871794,4506.153846,4246.153846,4478.461538,4158.461538,4414.358974,4171.282051,4258.974358,4461.538461,4167.179487,4616.410256,3979.487180,3718.461539
190,4332.307692,4513.846153,4514.358974,4247.179487,4481.538461,4161.538461,4415.384615,4180.512820,4259.487179,4464.615384,4173.846153,4619.487179,3974.871795,3716.923077
191,4335.384615,4511.794871,4517.435897,4237.435897,4480.512820,4161.025641,4414.871794,4186.153846,4265.641025,4464.102564,4178.461538,4622.564102,3979.487180,3721.538462
192,4335.384615,4510.769230,4510.769230,4231.282051,4480.512820,4158.461538,4413.846153,4181.538461,4266.153846,4460.512820,4176.410256,4622.051282,3976.410257,3721.025642
193,4333.333333,4506.666666,4504.615384,4237.435897,4483.076923,4156.410256,4412.820512,4175.897435,4253.333333,4453.333333,4172.820512,4619.487179,3971.794872,3714.358975
194,4331.794871,4509.230769,4508.717948,4241.538461,4479.487179,4158.974358,4412.820512,4180.000000,4249.230769,4457.948717,4175.384615,4616.410256,3978.974359,3714.871795
195,4329.743589,4510.256410,4509.230769,4229.743589,4471.282051,4156.410256,4411.282051,4184.615384,4253.846153,4460.512820,4176.923076,4614.871794,3975.897436,3715.384616
196,4327.179487,4501.538461,4503.076923,4220.000000,4470.256410,4153.333333,4409.230769,4183.076923,4253.333333,4450.769230,4180.000000,4615.897435,3968.205129,3712.820513
197,4328.717948,4501.025641,4504.102564,4233.333333,4474.871794,4158.461538,4412.307692,4184.615384,4257.435897,4457.948717,4177.435897,4616.923076,3977.435898,3715.384616
198,4333.333333,4512.820512,4507.692307,4247.179487,4473.846153,4161.538461,4414.871794,4187.179487,4262.564102,4472.307692,4166.666666,4618.461538,3983.589744,3719.487180
199,4334.358974,4515.897435,4508.717948,4241.025641,4469.743589,4156.923076,4410.769230,4186.153846,4258.461538,4467.692307,4168.717948,4617.948717,3979.487180,3716.410257
200,4332.307692,4511.282051,4510.769230,4237.948717,4473.333333,4156.410256,4410.256410,4187.179487,4261.538461,4463.589743,4182.564102,4618.461538,3977.948718,3714.358975
201,4333.846153,4507.692307,4509.743589,4238.461538,4477.435897,4161.025641,4419.487179,4189.230769,4271.282051,4472.307692,4180.000000,4619.487179,3977.435898,3718.974359
202,4329.230769,4497.948717,4504.102564,4227.692307,4468.717948,4160.000000,4426.153846,4185.641025,4267.179487,4470.256410,4163.589743,4614.358974,3976.923077,3713.846154
203,4319.487179,4498.974358,4502.564102,4228.717948,4466.153846,4156.923076,4427.179487,4184.102564,4256.410256,4459.487179,4164.615384,4608.205128,3967.692308,3699.487180
204,4325.128205,4510.769230,4505.128205,4239.487179,4474.871794,4155.897435,4426.666666,4185.641025,4253.846153,4457.435897,4164.102564,4609.743589,3966.153847,3701.025642
205,4334.358974,4507.692307,4506.153846,4235.384615,4476.410256,4156.410256,4422.051282,4180.512820,4254.358974,4455.897435,4151.794871,4614.871794,3980.000000,3711.282052
206,4331.282051,4498.461538,4504.615384,4227.179487,4473.333333,4157.948717,4421.025641,4176.923076,4252.307692,4454.358974,4155.897435,4616.923076,3980.512821,3711.794872
207,4334.358974,4505.641025,4505.128205,4234.871794,4476.410256,4158.974358,4424.102564,4182.051282,4256.410256,4462.564102,4167.692307,4618.974358,3976.923077,3711.794872
208,4347.692307,4518.974358,4515.897435,4251.282051,4480.512820,4161.025641,4429.743589,4187.692307,4268.717948,4472.820512,4176.410256,4628.205128,3996.923077,3723.076924
209,4351.794871,4521.025641,4523.076923,4255.897435,4479.487179,4166.666666,4434.871794,4194.871794,4272.307692,4472.820512,4187.692307,4633.846153,4009.743589,3728.205129
210,4343.589743,4516.410256,4516.923076,4247.179487,4481.538461,4168.205128,4432.307692,4196.923076,4263.076923,4467.179487,4189.230769,4629.743589,3989.743590,3717.948718
211,4341.025641,4515.897435,4517.948717,4245.641025,4482.564102,4164.102564,4432.307692,4195.897435,4263.076923,4472.820512,4181.538461,4629.743589,3986.666667,3716.410257
212,4346.666666,4517.435897,4524.102564,4251.794871,4481.538461,4163.589743,4437.948717,4201.025641,4275.897435,4486.153846,4186.666666,4636.410256,4006.153846,3728.717949
213,4346.153846,4512.820512,4514.871794,4247.179487,4481.538461,4164.102564,4434.358974,4199.487179,4276.410256,4486.666666,4199.487179,4636.410256,4004.615384,3731.282052
214,4339.487179,4506.153846,4505.128205,4240.512820,4480.512820,4162.051282,4426.666666,4194.358974,4268.717948,4477.948717,4197.948717,4629.743589,3992.307693,3724.102565
215,4338.974358,4505.128205,4509.230769,4242.564102,4480.000000,4163.076923,4429.230769,4195.897435,4275.384615,4478.974358,4184.615384,4628.205128,3998.461539,3723.589744
216,4337.948717,4503.076923,4509.743589,4240.000000,4480.000000,4165.641025,4431.282051,4196.410256,4283.589743,4484.615384,4180.000000,4631.794871,4005.641025,3725.128206
217,4330.256410,4495.897435,4504.102564,4237.948717,4482.564102,4165.128205,4427.692307,4190.256410,4277.948717,4478.974358,4179.487179,4632.820512,3998.461539,3721.538462
218,4328.717948,4490.769230,4504.615384,4241.025641,4483.589743,4163.076923,4425.128205,4187.692307,4269.230769,4466.153846,4170.256410,4625.641025,3987.692308,3719.487180
219,4331.794871,4493.333333,4509.230769,4238.461538,4480.512820,4159.487179,4418.974358,4186.666666,4267.179487,4461.025641,4154.358974,4621.025641,3984.615385,3721.025642
220,4329.743589,4490.769230,4508.205128,4236.410256,4475.897435,4157.435897,4413.846153,4182.564102,4265.641025,4466.153846,4144.615384,4623.076923,3986.153847,3719.487180
221,4328.205128,4488.717948,4509.230769,4243.589743,4476.410256,4161.025641,4415.897435,4185.128205,4266.666666,4470.769230,4142.051282,4626.153846,3988.205129,3716.410257
222,4329.743589,4494.358974,4515.897435,4244.102564,4484.102564,4165.641025,4418.974358,4193.846153,4270.769230,4471.794871,4149.230769,4629.230769,3989.743590,3717.948718
223,4330.769230,4493.846153,4512.820512,4231.282051,4486.153846,4163.589743,4416.410256,4192.307692,4266.666666,4469.743589,4151.282051,4628.717948,3985.128206,3720.000000
224,4330.256410,4486.153846,4504.615384,4229.743589,4479.487179,4158.974358,4408.717948,4184.102564,4256.923076,4466.153846,4138.461538,4624.615384,3976.410257,3717.948718
225,4330.256410,4487.179487,4505.128205,4234.358974,4478.461538,4159.487179,4403.076923,4187.179487,4257.948717,4466.153846,4135.384615,4625.128205,3981.538462,3720.000000
226,4329.743589,4491.282051,4510.256410,4233.333333,4484.102564,4163.589743,4404.102564,4192.820512,4266.153846,4466.666666,4144.615384,4631.794871,3992.820513,3724.102565
227,4331.282051,4488.205128,4510.769230,4234.871794,4484.102564,4164.615384,4403.076923,4191.282051,4271.282051,4467.692307,4149.743589,4632.820512,3987.692308,3721.025642
228,4334.358974,4483.589743,4510.256410,4233.333333,4480.000000,4162.564102,4395.897435,4194.871794,4273.846153,4470.256410,4145.641025,4631.282051,3982.051283,3718.974359
229,4333.846153,4484.102564,4516.923076,4228.717948,4480.512820,4161.025641,4400.512820,4202.051282,4274.358974,4470.256410,4140.000000,4632.307692,3990.769231,3723.076924
230,4333.846153,4489.743589,4522.564102,4230.769230,4481.025641,4163.589743,4414.358974,4202.051282,4277.435897,4474.871794,4149.230769,4636.923076,3991.282052,3722.564103
231,4328.717948,4485.641025,4516.410256,4232.820512,4475.897435,4160.000000,4410.769230,4193.846153,4271.794871,4477.948717,4154.871794,4634.871794,3982.564103,3716.410257
232,4320.000000,4476.410256,4506.666666,4222.051282,4473.333333,4151.794871,4402.564102,4184.102564,4256.410256,4468.717948,4141.025641,4627.179487,3983.589744,3711.794872
233,4322.564102,4481.025641,4507.179487,4217.435897,4476.410256,4151.794871,4409.743589,4185.641025,4258.974358,4466.153846,4136.410256,4626.666666,3982.564103,3711.794872
234,4328.205128,4487.692307,4513.333333,4228.205128,4474.358974,4155.897435,4414.871794,4189.230769,4269.230769,4469.743589,4145.641025,4630.769230,3974.358975,3713.333334
235,4327.179487,4486.153846,4514.871794,4235.897435,4469.743589,4155.897435,4410.769230,4183.589743,4266.666666,4468.205128,4152.307692,4630.256410,3980.512821,3714.358975
236,4328.717948,4487.179487,4514.358974,4233.333333,4473.333333,4157.948717,4416.410256,4184.615384,4267.179487,4473.846153,4159.487179,4627.692307,3993.333334,3715.384616
237,4328.205128,4487.179487,4509.743589,4223.589743,4475.897435,4160.000000,4420.000000,4189.743589,4271.794871,4476.410256,4156.410256,4623.589743,3986.153847,3710.769231
238,4322.051282,4479.487179,4505.641025,4218.974358,4471.282051,4156.410256,4413.333333,4186.153846,4266.153846,4467.179487,4142.564102,4619.487179,3976.923077,3703.076924
239,4327.179487,4486.666666,4512.820512,4228.717948,4474.358974,4155.897435,4414.358974,4186.153846,4268.205128,4468.717948,4144.615384,4628.205128,3992.307693,3708.717949
240,4337.435897,4496.923076,4514.871794,4238.461538,4481.025641,4157.948717,4417.435897,4189.230769,4272.307692,4471.794871,4151.282051,4634.358974,4001.025641,3720.000000
241,4331.794871,4490.256410,4509.230769,4231.282051,4480.512820,4156.410256,4412.307692,4186.153846,4263.589743,4462.564102,4144.615384,4625.128205,3980.512821,3716.410257
242,4326.153846,4484.615384,4510.769230,4228.205128,4478.461538,4158.974358,4410.769230,4185.128205,4261.538461,4462.564102,4145.128205,4622.564102,3972.307693,3708.717949
243,4329.743589,4495.384615,4516.923076,4240.512820,4481.025641,4161.025641,4411.794871,4187.179487,4266.153846,4471.282051,4148.717948,4629.230769,3988.205129,3709.230770
244,4332.820512,4503.076923,4515.384615,4243.076923,4481.025641,4160.512820,4406.666666,4185.641025,4265.128205,4472.820512,4144.615384,4630.769230,3996.923077,3712.307693
245,4331.282051,4497.435897,4510.769230,4233.333333,4477.948717,4157.435897,4397.435897,4181.025641,4262.564102,4467.692307,4149.743589,4622.564102,3984.102565,3709.230770
246,4328.205128,4493.333333,4509.230769,4234.358974,4477.435897,4152.820512,4392.307692,4181.025641,4259.487179,4460.512820,4157.435897,4615.384615,3971.282052,3706.153847
247,4331.282051,4496.923076,4510.256410,4242.564102,4480.512820,4154.358974,4394.871794,4185.128205,4258.461538,4460.000000,4157.948717,4620.000000,3978.974359,3709.230770
248,4337.948717,4500.000000,4512.820512,4238.974358,4478.461538,4155.384615,4397.435897,4185.641025,4259.487179,4466.153846,4163.076923,4626.153846,3990.256411,3709.743590
249,4341.025641,4499.487179,4511.794871,4232.820512,4473.333333,4151.282051,4398.974358,4185.128205,4263.076923,4468.205128,4163.076923,4627.179487,3986.666667,3708.717949
250,4335.384615,4497.948717,4508.205128,4232.820512,4473.333333,4150.769230,4397.435897,4187.179487,4260.512820,4463.076923,4149.230769,4623.076923,3978.974359,3713.333334
251,4332.307692,4498.461538,4508.717948,4231.794871,4476.410256,4155.384615,4393.333333,4187.179487,4253.846153,4455.384615,4147.179487,4620.512820,3977.948718,3714.358975
252,4333.846153,4499.487179,4508.717948,4232.307692,4477.948717,4156.923076,4392.820512,4186.666666,4258.461538,4456.410256,4168.717948,4625.641025,3983.076924,3709.230770
253,4333.333333,4501.538461,4508.205128,4235.897435,4482.564102,4159.487179,4397.435897,4187.179487,4270.256410,4468.717948,4165.641025,4633.333333,3988.205129,3711.794872
254,4336.410256,4502.564102,4513.846153,4236.410256,4486.666666,4166.666666,4401.538461,4189.743589,4273.333333,4478.461538,4144.102564,4636.923076,3987.692308,3717.948718
255,4338.461538,4501.025641,4518.461538,4238.974358,4486.153846,4166.666666,4397.435897,4193.333333,4269.230769,4471.794871,4150.769230,4633.333333,3977.948718,3716.410257
256,4332.820512,4492.820512,4513.333333,4242.051282,4485.128205,4161.538461,4394.871794,4194.358974,4270.256410,4465.641025,4162.051282,4631.282051,3974.871795,3710.256411
257,4328.205128,4486.153846,4507.179487,4240.000000,4481.025641,4157.435897,4393.333333,4193.333333,4271.794871,4472.307692,4154.358974,4634.358974,3982.564103,3707.179488
258,4329.743589,4491.794871,4507.692307,4236.923076,4473.846153,4157.435897,4389.230769,4190.256410,4266.666666,4469.230769,4148.205128,4631.794871,3983.076924,3708.205129
259,4330.256410,4499.487179,4508.205128,4232.820512,4473.333333,4158.461538,4389.230769,4184.615384,4264.615384,4461.538461,4152.820512,4626.153846,3981.538462,3712.307693
