,AF3,F7,F3,FC5,T7,P7,O1,O2,P8,T8,FC6,F4,F8,AF4
0,4390.256410,4515.897435,4529.230769,4275.384615,4500.512820,4211.794871,4435.384615,4215.897435,4199.487179,4515.384615,4214.871794,4649.743589,3993.846154,4043.076923
1,4397.948717,4527.692307,4536.410256,4282.564102,4495.384615,4218.974358,4436.410256,4217.948717,4206.153846,4516.410256,4225.128205,4657.435897,4000.000000,4054.871794
2,4401.538461,4533.846153,4540.512820,4278.974358,4495.384615,4212.307692,4436.410256,4217.435897,4208.717948,4510.256410,4232.820512,4659.487179,4002.564102,4052.820512
3,4398.974358,4534.358974,4537.435897,4272.820512,4499.487179,4213.333333,4441.538461,4220.000000,4214.358974,4509.230769,4233.846153,4653.846153,4001.025641,4044.102564
4,4395.384615,4532.307692,4527.692307,4265.128205,4498.461538,4216.923076,4443.076923,4220.512820,4217.948717,4510.256410,4235.384615,4649.230769,3992.307693,4038.974358
5,4396.923076,4531.794871,4525.641025,4268.205128,4495.897435,4213.846153,4442.564102,4216.923076,4215.384615,4516.410256,4229.230769,4654.358974,3988.717949,4043.076923
6,4395.897435,4526.153846,4534.358974,4278.461538,4497.948717,4216.410256,4445.128205,4215.897435,4215.897435,4527.692307,4223.076923,4661.025641,3997.435898,4047.692307
7,4391.794871,4517.435897,4535.384615,4274.358974,4499.487179,4218.461538,4441.538461,4218.974358,4216.410256,4521.025641,4228.717948,4658.461538,4007.692307,4045.641025
8,4391.794871,4520.000000,4526.666666,4264.102564,4497.435897,4207.692307,4430.769230,4216.410256,4208.205128,4500.512820,4229.743589,4652.820512,4002.051282,4042.051282
9,4391.794871,4522.564102,4522.564102,4262.051282,4490.769230,4200.000000,4423.076923,4209.743589,4200.000000,4495.384615,4221.025641,4649.230769,3978.974359,4035.897435
10,4390.256410,4519.487179,4527.179487,4264.615384,4486.666666,4208.205128,4429.743589,4212.307692,4204.615384,4502.051282,4215.897435,4650.769230,3972.307693,4034.358974
11,4396.923076,4524.102564,4534.871794,4270.769230,4491.794871,4218.461538,4441.538461,4221.025641,4217.948717,4515.897435,4215.897435,4655.897435,3993.846154,4045.128205
12,4402.564102,4527.179487,4538.461538,4278.974358,4499.487179,4217.948717,4443.589743,4223.589743,4219.487179,4521.538461,4223.589743,4657.948717,4003.589743,4049.230769
13,4394.358974,4520.000000,4537.435897,4274.871794,4502.051282,4209.230769,4439.487179,4213.333333,4206.666666,4505.641025,4234.358974,4654.358974,3985.128206,4039.487179
14,4389.743589,4517.435897,4535.384615,4268.717948,4495.897435,4208.717948,4436.410256,4208.717948,4198.461538,4494.871794,4228.717948,4651.794871,3977.435898,4036.410256
15,4395.384615,4519.487179,4529.743589,4270.256410,4492.307692,4211.282051,4433.846153,4212.307692,4198.461538,4501.025641,4213.333333,4652.820512,3988.717949,4036.410256
16,4396.410256,4524.615384,4523.076923,4270.769230,4496.923076,4206.153846,4432.307692,4207.692307,4198.974358,4500.000000,4209.230769,4652.307692,3996.410257,4037.435897
17,4396.410256,4534.871794,4525.641025,4267.179487,4493.333333,4206.666666,4433.846153,4206.666666,4201.025641,4502.564102,4215.384615,4652.820512,3992.307693,4044.615384
18,4396.410256,4533.846153,4527.179487,4263.589743,4487.179487,4210.256410,4430.769230,4210.769230,4202.051282,4512.307692,4220.512820,4650.256410,3982.564103,4042.051282
19,4394.871794,4523.589743,4521.025641,4269.743589,4491.282051,4206.666666,4427.692307,4211.282051,4200.000000,4503.076923,4228.717948,4645.641025,3982.564103,4033.846153
20,4396.923076,4525.128205,4524.615384,4278.974358,4493.333333,4208.205128,4434.871794,4211.794871,4203.076923,4496.410256,4229.230769,4652.820512,3992.820513,4038.974358
21,4398.974358,4532.307692,4534.358974,4275.384615,4489.230769,4217.948717,4443.076923,4218.461538,4208.205128,4510.769230,4219.487179,4661.538461,3989.743590,4044.615384
22,4397.948717,4528.205128,4531.794871,4268.205128,4492.307692,4217.948717,4442.564102,4221.025641,4209.230769,4512.820512,4221.538461,4659.487179,3975.384616,4043.589743
23,4396.923076,4520.000000,4523.076923,4267.179487,4497.435897,4210.256410,4435.384615,4216.410256,4205.128205,4501.025641,4230.769230,4653.846153,3978.974359,4045.641025
24,4395.384615,4523.076923,4521.538461,4267.179487,4502.051282,4212.820512,4428.717948,4212.820512,4200.512820,4502.564102,4223.076923,4649.743589,3992.820513,4042.564102
25,4390.769230,4522.051282,4522.564102,4267.179487,4502.051282,4212.307692,4425.641025,4204.615384,4196.923076,4504.102564,4211.794871,4645.641025,3991.282052,4033.846153
26,4389.230769,4521.538461,4520.512820,4268.205128,4491.794871,4206.666666,4426.153846,4201.025641,4198.461538,4496.410256,4216.923076,4645.641025,3985.128206,4033.846153
27,4393.333333,4533.846153,4522.564102,4270.256410,4490.256410,4210.256410,4431.794871,4205.641025,4203.076923,4495.384615,4222.051282,4650.769230,3991.282052,4041.538461
28,4403.076923,4538.974358,4530.769230,4272.820512,4499.487179,4216.923076,4439.487179,4205.641025,4200.512820,4506.666666,4222.051282,4651.282051,3995.384616,4046.153846
29,4407.179487,4531.282051,4534.358974,4269.230769,4500.000000,4216.923076,4443.076923,4204.102564,4201.025641,4511.282051,4227.179487,4649.743589,3988.205129,4043.589743
30,4402.564102,4531.282051,4536.410256,4269.743589,4497.435897,4219.487179,4443.589743,4213.846153,4210.769230,4505.641025,4233.846153,4654.871794,3987.179488,4041.025641
31,4402.051282,4537.948717,4542.051282,4280.000000,4505.128205,4224.615384,4445.641025,4224.102564,4214.358974,4506.666666,4240.512820,4663.589743,3999.487180,4051.282051
32,4401.538461,4531.794871,4538.461538,4274.358974,4511.794871,4216.410256,4437.435897,4217.435897,4206.153846,4507.692307,4236.923076,4659.487179,4002.051282,4056.410256
33,4398.974358,4525.641025,4527.692307,4264.102564,4502.051282,4207.179487,4423.589743,4207.179487,4205.128205,4508.717948,4222.564102,4651.794871,3996.410257,4046.666666
34,4412.307692,4541.025641,4537.948717,4277.435897,4495.384615,4215.384615,4432.820512,4222.051282,4223.589743,4520.000000,4234.358974,4666.153846,4008.717948,4055.897435
35,4425.128205,4554.871794,4553.333333,4285.641025,4502.051282,4225.128205,4450.256410,4238.461538,4236.923076,4528.717948,4259.487179,4682.564102,4014.871794,4075.384615
36,4413.333333,4540.512820,4543.589743,4274.871794,4504.615384,4217.948717,4443.589743,4227.179487,4218.974358,4522.051282,4249.743589,4669.743589,3995.897436,4061.538461
37,4401.025641,4526.666666,4530.769230,4276.410256,4498.974358,4211.282051,4432.307692,4210.256410,4202.564102,4510.769230,4229.230769,4653.846153,3989.743590,4042.564102
38,4406.666666,4533.333333,4534.358974,4281.538461,4495.897435,4211.282051,4433.846153,4212.307692,4210.769230,4507.179487,4227.179487,4656.410256,4001.538461,4048.205128
39,4408.205128,4533.333333,4537.948717,4271.794871,4496.923076,4206.153846,4433.333333,4216.923076,4210.256410,4502.051282,4225.128205,4656.410256,4000.000000,4052.307692
40,4402.564102,4528.717948,4531.794871,4265.128205,4495.897435,4203.589743,4434.358974,4213.333333,4203.589743,4509.230769,4223.589743,4650.256410,3989.743590,4048.205128
41,4401.538461,4535.384615,4528.717948,4266.153846,4498.461538,4208.717948,4440.512820,4214.358974,4210.769230,4517.948717,4234.358974,4650.256410,3986.153847,4047.692307
42,4400.000000,4535.897435,4531.282051,4265.128205,4505.128205,4210.769230,4442.051282,4215.384615,4207.179487,4505.128205,4232.307692,4649.230769,3987.179488,4044.615384
43,4403.589743,4532.307692,4537.435897,4268.205128,4505.128205,4211.794871,4442.564102,4214.871794,4201.025641,4496.923076,4226.666666,4652.307692,3993.846154,4047.179487
44,4413.333333,4542.051282,4539.487179,4278.461538,4497.948717,4217.435897,4445.641025,4217.435897,4212.820512,4506.153846,4233.333333,4665.641025,4004.102564,4059.487179
45,4414.358974,4543.589743,4541.025641,4285.641025,4491.282051,4217.948717,4446.153846,4222.564102,4220.000000,4512.307692,4228.717948,4667.692307,4005.641025,4060.512820
46,4408.205128,4530.769230,4541.538461,4286.153846,4498.974358,4216.923076,4447.692307,4227.692307,4216.410256,4502.051282,4224.102564,4657.435897,3995.897436,4053.846153
47,4406.153846,4528.717948,4536.923076,4275.384615,4508.205128,4218.461538,4447.692307,4222.564102,4212.307692,4494.871794,4233.333333,4652.820512,3986.153847,4047.692307
48,4404.102564,4535.384615,4533.846153,4267.179487,4504.102564,4215.384615,4442.564102,4213.846153,4203.076923,4499.487179,4235.897435,4651.282051,3986.153847,4043.076923
49,4405.641025,4538.461538,4536.923076,4277.435897,4504.615384,4213.846153,4441.538461,4216.410256,4200.512820,4506.666666,4231.794871,4651.794871,3995.384616,4049.743589
50,4413.846153,4543.076923,4538.974358,4285.641025,4506.666666,4214.358974,4442.564102,4221.025641,4214.358974,4518.461538,4235.384615,4656.923076,4006.153846,4057.435897
51,4413.846153,4550.256410,4538.461538,4277.948717,4504.615384,4215.897435,4443.076923,4217.948717,4220.000000,4520.512820,4231.794871,4663.589743,4006.666666,4055.897435
52,4402.564102,4538.974358,4538.461538,4278.461538,4506.666666,4215.897435,4445.128205,4216.410256,4208.205128,4504.615384,4214.871794,4662.051282,3995.897436,4048.205128
53,4394.358974,4517.948717,4537.948717,4282.051282,4502.564102,4212.307692,4441.538461,4214.871794,4198.461538,4491.794871,4219.487179,4654.871794,3983.589744,4038.461538
54,4399.487179,4521.538461,4536.410256,4269.230769,4491.282051,4214.358974,4438.974358,4212.307692,4201.538461,4498.461538,4235.384615,4653.846153,3983.589744,4040.000000
55,4408.205128,4537.948717,4537.948717,4268.205128,4497.948717,4221.025641,4453.333333,4223.589743,4213.846153,4511.282051,4237.948717,4664.102564,3998.461539,4055.384615
56,4404.102564,4541.538461,4541.025641,4280.000000,4511.794871,4218.974358,4461.538461,4233.846153,4216.923076,4515.384615,4235.897435,4668.717948,4005.641025,4062.051282
57,4395.384615,4539.487179,4536.923076,4275.897435,4498.974358,4212.820512,4451.282051,4229.230769,4208.717948,4509.230769,4238.461538,4657.948717,4001.538461,4052.820512
58,4397.948717,4535.897435,4526.666666,4269.743589,4488.205128,4216.923076,4449.230769,4228.205128,4209.230769,4504.102564,4234.871794,4652.820512,4001.538461,4049.743589
59,4400.512820,4524.615384,4528.717948,4278.974358,4501.538461,4222.051282,4458.974358,4235.897435,4224.102564,4516.923076,4227.692307,4661.025641,4005.641025,4052.820512
60,4396.923076,4520.000000,4534.871794,4276.923076,4501.025641,4220.000000,4462.564102,4238.974358,4230.769230,4529.230769,4238.461538,4666.666666,4005.128205,4053.333333
61,4398.461538,4529.743589,4533.846153,4260.000000,4487.179487,4217.948717,4458.461538,4232.307692,4218.974358,4520.000000,4248.717948,4662.051282,4003.076923,4051.794871
62,4394.871794,4528.205128,4531.282051,4261.538461,4491.282051,4216.923076,4449.743589,4222.051282,4207.179487,4506.666666,4231.794871,4654.871794,3995.897436,4046.666666
63,4389.743589,4515.384615,4529.230769,4264.615384,4497.435897,4216.410256,4446.153846,4221.025641,4204.615384,4499.487179,4215.384615,4654.358974,3992.307693,4042.564102
64,4394.358974,4518.461538,4528.717948,4258.974358,4487.179487,4216.923076,4455.897435,4226.153846,4211.282051,4501.538461,4227.692307,4660.000000,3997.948718,4045.641025
65,4396.923076,4526.666666,4534.358974,4270.769230,4484.615384,4216.923076,4458.974358,4230.256410,4219.487179,4514.871794,4238.974358,4664.615384,3997.435898,4048.717948
66,4391.282051,4521.025641,4538.461538,4282.051282,4501.025641,4215.384615,4447.692307,4230.256410,4217.435897,4523.076923,4230.256410,4662.051282,3992.820513,4044.615384
67,4391.282051,4523.589743,4534.871794,4269.230769,4509.743589,4214.871794,4442.564102,4227.179487,4210.256410,4517.948717,4227.692307,4657.948717,3998.461539,4044.102564
68,4397.435897,4540.000000,4535.384615,4261.025641,4506.666666,4216.923076,4445.128205,4224.102564,4212.307692,4507.179487,4233.846153,4655.897435,4003.076923,4052.307692
69,4400.512820,4540.000000,4537.948717,4267.179487,4501.538461,4216.923076,4445.128205,4221.025641,4214.358974,4501.025641,4228.205128,4655.384615,4002.564102,4053.333333
70,4401.538461,4529.230769,4535.897435,4273.333333,4495.897435,4215.384615,4443.589743,4217.948717,4208.717948,4506.666666,4227.692307,4652.820512,4007.179487,4047.179487
71,4400.512820,4531.794871,4535.897435,4276.923076,4497.435897,4215.384615,4444.102564,4217.435897,4205.128205,4518.461538,4230.256410,4652.307692,4006.666666,4045.641025
72,4396.410256,4533.333333,4537.435897,4274.358974,4505.128205,4216.410256,4445.128205,4219.487179,4204.102564,4511.794871,4219.487179,4655.384615,3999.487180,4048.205128
73,4396.923076,4523.589743,4533.333333,4269.230769,4506.153846,4216.923076,4444.615384,4224.102564,4206.153846,4501.025641,4218.974358,4654.871794,4005.128205,4048.205128
74,4400.512820,4523.076923,4531.794871,4270.256410,4505.641025,4217.948717,4445.128205,4229.230769,4211.282051,4508.717948,4230.256410,4653.333333,4010.769230,4045.128205
75,4397.435897,4533.333333,4534.358974,4266.153846,4510.769230,4217.435897,4445.128205,4226.666666,4212.307692,4513.333333,4223.589743,4652.820512,4000.512820,4040.000000
76,4395.897435,4535.897435,4527.692307,4264.102564,4506.666666,4215.897435,4442.051282,4219.487179,4206.153846,4503.589743,4209.743589,4650.769230,3998.461539,4040.512820
77,4400.000000,4535.384615,4524.102564,4274.358974,4499.487179,4215.384615,4441.025641,4221.025641,4202.051282,4506.666666,4214.871794,4648.717948,4009.230769,4045.641025
78,4401.025641,4537.435897,4532.820512,4279.487179,4505.641025,4217.435897,4442.564102,4227.692307,4207.179487,4520.512820,4225.641025,4653.846153,4011.794871,4051.794871
79,4404.615384,4540.512820,4540.000000,4280.512820,4507.692307,4217.435897,4444.102564,4229.230769,4213.333333,4521.538461,4229.743589,4665.128205,4016.410256,4057.948717
80,4407.692307,4540.000000,4539.487179,4283.589743,4505.641025,4210.256410,4443.076923,4225.641025,4211.282051,4516.410256,4228.205128,4665.641025,4022.564102,4058.461538
81,4398.974358,4533.333333,4532.307692,4277.435897,4510.769230,4205.641025,4436.923076,4214.358974,4199.487179,4506.153846,4220.512820,4653.846153,4008.717948,4045.128205
82,4396.923076,4533.846153,4528.205128,4274.358974,4511.282051,4211.282051,4435.897435,4210.256410,4195.384615,4497.948717,4223.589743,4650.769230,3997.435898,4040.000000
83,4408.205128,4542.564102,4535.384615,4282.051282,4505.641025,4218.974358,4443.589743,4223.076923,4207.692307,4505.128205,4232.307692,4662.564102,4008.205128,4054.358974
84,4409.230769,4542.564102,4542.051282,4284.615384,4504.615384,4217.948717,4446.153846,4230.256410,4213.333333,4512.307692,4229.230769,4668.205128,4011.794871,4061.025641
85,4402.051282,4537.948717,4539.487179,4278.974358,4503.589743,4212.307692,4441.025641,4222.564102,4207.692307,4511.794871,4222.564102,4664.102564,4007.692307,4052.820512
86,4400.000000,4537.435897,4532.820512,4277.948717,4498.974358,4208.205128,4433.333333,4212.307692,4197.435897,4505.641025,4217.435897,4655.384615,4007.692307,4047.179487
87,4400.000000,4536.410256,4530.256410,4278.461538,4494.358974,4204.615384,4427.692307,4212.820512,4197.948717,4502.051282,4217.435897,4650.769230,4007.179487,4048.205128
88,4400.512820,4535.384615,4529.743589,4271.794871,4494.871794,4205.128205,4425.641025,4216.410256,4203.589743,4503.589743,4221.025641,4653.333333,4009.743589,4048.205128
89,4401.025641,4536.923076,4529.743589,4269.743589,4499.487179,4209.743589,4431.282051,4213.846153,4198.461538,4501.538461,4216.923076,4654.871794,4010.769230,4048.205128
90,4405.128205,4536.923076,4533.846153,4277.435897,4505.641025,4217.435897,4441.538461,4216.410256,4198.974358,4503.076923,4218.974358,4656.410256,4006.666666,4055.897435
91,4409.230769,4538.461538,4536.923076,4283.589743,4510.256410,4220.000000,4443.589743,4225.641025,4212.820512,4510.769230,4235.897435,4664.102564,4011.282051,4062.564102
92,4406.153846,4538.461538,4530.769230,4277.948717,4504.102564,4214.358974,4434.871794,4224.102564,4214.358974,4507.179487,4234.871794,4663.589743,4014.871794,4057.948717
93,4406.153846,4534.358974,4530.256410,4275.897435,4496.923076,4212.307692,4434.871794,4220.000000,4205.641025,4506.153846,4220.512820,4660.000000,4015.384615,4054.358974
94,4414.871794,4537.948717,4542.564102,4281.538461,4499.487179,4217.948717,4445.641025,4228.717948,4212.307692,4518.974358,4229.743589,4670.769230,4024.615384,4060.512820
95,4410.256410,4537.948717,4538.974358,4276.410256,4501.025641,4216.410256,4443.076923,4229.743589,4214.358974,4512.307692,4234.358974,4669.743589,4017.435897,4055.897435
96,4397.435897,4525.128205,4523.589743,4267.179487,4492.820512,4205.128205,4431.794871,4215.384615,4198.461538,4488.717948,4217.948717,4649.743589,3991.794872,4042.051282
97,4394.358974,4517.435897,4521.538461,4264.615384,4490.256410,4197.435897,4425.641025,4211.282051,4193.846153,4485.641025,4208.205128,4642.051282,3984.615385,4041.025641
98,4394.871794,4524.615384,4521.025641,4265.128205,4494.358974,4200.000000,4424.615384,4214.358974,4201.025641,4496.923076,4210.769230,4648.717948,3994.871795,4043.076923
99,4401.538461,4532.307692,4525.128205,4271.794871,4498.461538,4209.230769,4431.282051,4219.487179,4205.128205,4501.538461,4223.589743,4656.923076,4001.538461,4046.153846
100,4414.358974,4535.897435,4538.461538,4285.641025,4502.564102,4216.410256,4445.128205,4228.205128,4215.897435,4509.230769,4237.435897,4668.205128,4007.692307,4057.435897
101,4415.897435,4541.025641,4537.948717,4287.692307,4505.128205,4218.461538,4444.615384,4226.153846,4221.025641,4514.871794,4236.410256,4669.230769,4011.282051,4062.564102
102,4404.102564,4532.820512,4525.641025,4272.307692,4501.538461,4211.794871,4430.256410,4215.384615,4203.589743,4507.179487,4226.666666,4657.948717,4001.025641,4053.846153
103,4402.564102,4523.076923,4530.769230,4263.076923,4495.384615,4208.717948,4429.230769,4214.871794,4194.871794,4502.564102,4224.102564,4658.461538,3993.333334,4044.615384
104,4412.820512,4532.820512,4541.538461,4267.692307,4487.179487,4213.333333,4442.564102,4224.615384,4210.256410,4511.282051,4221.538461,4666.666666,4000.512820,4047.179487
105,4414.871794,4537.948717,4538.461538,4274.358974,4487.692307,4214.871794,4443.589743,4224.615384,4216.410256,4515.897435,4227.692307,4663.589743,4009.230769,4055.897435
106,4407.179487,4532.820512,4536.923076,4278.974358,4501.025641,4213.846153,4432.307692,4216.410256,4203.589743,4510.256410,4235.384615,4655.384615,4009.743589,4056.923076
107,4401.025641,4530.769230,4540.000000,4278.461538,4504.615384,4209.743589,4428.205128,4210.769230,4192.307692,4498.461538,4222.564102,4651.282051,4000.000000,4046.153846
108,4394.871794,4524.102564,4535.897435,4267.692307,4491.794871,4201.025641,4427.179487,4212.820512,4193.846153,4488.717948,4213.333333,4650.256410,3984.615385,4034.871794
109,4393.333333,4521.538461,4532.307692,4266.153846,4485.641025,4200.512820,4427.179487,4215.384615,4205.128205,4502.051282,4216.923076,4653.846153,3980.000000,4037.435897
110,4406.666666,4535.897435,4541.538461,4282.564102,4492.820512,4211.794871,4437.435897,4216.923076,4211.794871,4521.538461,4218.974358,4663.076923,3996.410257,4051.794871
111,4417.435897,4544.102564,4551.794871,4288.205128,4497.948717,4217.435897,4446.153846,4225.128205,4211.794871,4518.461538,4233.846153,4667.692307,4015.384615,4064.102564
112,4414.871794,4535.897435,4547.179487,4277.435897,4499.487179,4213.333333,4439.487179,4230.256410,4212.820512,4511.794871,4249.743589,4667.692307,4023.076923,4064.615384
113,4412.307692,4534.871794,4540.512820,4275.897435,4498.974358,4207.692307,4428.205128,4226.153846,4211.794871,4526.153846,4239.487179,4663.589743,4017.948717,4061.025641
114,4408.205128,4536.923076,4536.410256,4280.512820,4493.846153,4200.512820,4426.153846,4215.384615,4204.102564,4528.205128,4223.076923,4654.871794,3996.410257,4053.846153
115,4395.897435,4524.102564,4527.179487,4269.743589,4490.256410,4195.897435,4425.128205,4203.589743,4192.307692,4497.948717,4217.435897,4643.589743,3980.512821,4038.461538
116,4396.923076,4516.923076,4523.076923,4263.076923,4490.256410,4200.000000,4419.487179,4202.051282,4188.205128,4482.051282,4214.871794,4638.974358,3991.282052,4036.410256
117,4414.358974,4534.871794,4533.333333,4273.333333,4493.333333,4203.076923,4421.025641,4212.820512,4195.897435,4498.461538,4224.102564,4645.641025,4009.230769,4055.384615
118,4417.948717,4544.102564,4539.487179,4274.871794,4494.871794,4203.076923,4428.205128,4215.384615,4204.102564,4512.307692,4231.794871,4650.769230,4010.256410,4063.589743
119,4405.128205,4528.717948,4530.769230,4268.717948,4490.256410,4201.538461,4427.179487,4209.743589,4203.076923,4507.692307,4222.564102,4644.615384,4003.589743,4052.820512
120,4402.564102,4528.205128,4525.128205,4272.307692,4489.230769,4200.512820,4418.974358,4207.692307,4197.435897,4505.128205,4213.333333,4634.358974,3997.948718,4046.153846
121,4407.179487,4543.076923,4525.641025,4273.333333,4494.358974,4200.512820,4418.974358,4206.153846,4195.384615,4502.564102,4215.384615,4633.846153,3991.794872,4046.666666
122,4404.615384,4539.487179,4528.717948,4269.743589,4497.435897,4205.641025,4425.128205,4207.179487,4197.435897,4497.435897,4223.076923,4640.512820,4000.000000,4049.743589
123,4406.666666,4534.871794,4533.846153,4277.948717,4503.589743,4208.205128,4427.692307,4217.435897,4205.128205,4506.666666,4226.666666,4646.666666,4016.923076,4060.512820
124,4412.820512,4539.487179,4535.384615,4283.589743,4508.717948,4205.641025,4425.641025,4219.487179,4204.615384,4511.794871,4228.717948,4646.666666,4009.743589,4063.076923
125,4414.871794,4538.461538,4536.410256,4276.410256,4502.051282,4207.179487,4426.153846,4214.358974,4204.102564,4506.666666,4229.743589,4645.641025,3993.846154,4058.974358
126,4415.384615,4543.076923,4540.512820,4273.846153,4494.871794,4212.820512,4433.333333,4218.461538,4209.743589,4507.692307,4227.179487,4647.179487,4005.641025,4061.538461
127,4412.307692,4542.051282,4536.410256,4271.282051,4492.307692,4208.717948,4431.794871,4217.948717,4202.564102,4508.205128,4220.512820,4640.512820,4007.179487,4053.846153
128,4408.205128,4527.692307,4526.666666,4267.179487,4490.256410,4200.512820,4422.564102,4208.205128,4192.820512,4500.512820,4220.512820,4635.384615,3990.769231,4044.102564
129,4412.820512,4533.333333,4531.794871,4274.358974,4490.769230,4203.589743,4422.051282,4208.205128,4199.487179,4507.692307,4226.153846,4641.025641,3996.923077,4054.358974
130,4413.333333,4543.076923,4538.461538,4277.948717,4493.333333,4206.666666,4427.179487,4213.846153,4201.538461,4517.435897,4220.512820,4642.051282,4004.102564,4057.435897
131,4412.820512,4531.794871,4534.358974,4274.871794,4493.333333,4206.666666,4426.666666,4214.871794,4200.512820,4512.820512,4214.871794,4638.461538,4000.000000,4049.230769
132,4423.076923,4534.871794,4536.923076,4278.461538,4499.487179,4213.846153,4424.615384,4222.564102,4212.820512,4512.307692,4222.564102,4645.128205,4006.666666,4055.897435
133,4424.615384,4549.230769,4543.589743,4285.128205,4505.128205,4216.923076,4427.692307,4230.256410,4217.948717,4517.948717,4233.333333,4651.794871,4009.230769,4064.102564
134,4417.948717,4546.153846,4539.487179,4284.102564,4501.025641,4211.282051,4429.230769,4225.128205,4207.692307,4515.384615,4238.974358,4649.230769,4001.538461,4057.948717
135,4422.564102,4546.666666,4536.923076,4276.923076,4500.000000,4210.256410,4426.666666,4222.564102,4207.692307,4514.871794,4238.974358,4651.282051,4003.589743,4058.974358
136,4430.256410,4549.230769,4547.179487,4278.461538,4506.153846,4215.897435,4433.333333,4232.820512,4221.025641,4525.641025,4239.487179,4656.923076,4010.769230,4068.717948
137,4427.692307,4540.512820,4551.282051,4283.589743,4506.153846,4217.948717,4444.615384,4237.948717,4225.128205,4532.307692,4234.871794,4656.410256,4013.333333,4065.641025
138,4415.897435,4540.000000,4541.025641,4281.025641,4504.102564,4216.410256,4440.000000,4227.179487,4208.717948,4518.974358,4223.589743,4650.256410,4004.102564,4052.307692
139,4408.717948,4544.102564,4535.897435,4277.948717,4505.641025,4211.794871,4426.666666,4215.384615,4196.410256,4506.666666,4219.487179,4644.615384,3994.871795,4049.743589
140,4416.410256,4538.461538,4543.076923,4280.000000,4504.615384,4210.769230,4426.666666,4214.358974,4206.666666,4513.333333,4228.717948,4648.717948,3998.461539,4058.974358
141,4425.128205,4534.358974,4543.589743,4280.000000,4502.564102,4214.871794,4428.205128,4218.461538,4210.769230,4516.923076,4237.948717,4654.358974,3996.410257,4063.076923
142,4423.076923,4539.487179,4535.897435,4282.564102,4503.076923,4215.384615,4427.692307,4221.025641,4202.051282,4513.333333,4234.358974,4652.307692,3992.307693,4063.076923
143,4423.076923,4544.615384,4543.589743,4290.256410,4507.692307,4218.461538,4438.461538,4227.692307,4210.769230,4520.000000,4224.102564,4651.794871,4010.256410,4067.179487
144,4427.179487,4548.205128,4551.282051,4288.205128,4512.820512,4221.538461,4440.512820,4232.820512,4222.564102,4522.051282,4222.051282,4652.307692,4016.410256,4065.641025
145,4426.666666,4545.641025,4543.589743,4280.000000,4507.179487,4216.923076,4430.769230,4229.230769,4214.871794,4516.923076,4228.717948,4651.794871,3992.820513,4056.410256
146,4426.666666,4540.000000,4541.538461,4281.025641,4501.538461,4216.410256,4432.307692,4225.128205,4206.153846,4516.923076,4233.846153,4652.307692,3983.589744,4056.923076
147,4426.153846,4542.051282,4546.666666,4283.589743,4508.205128,4218.974358,4436.923076,4221.025641,4204.102564,4510.769230,4229.743589,4651.282051,3996.923077,4060.512820
148,4422.564102,4543.589743,4542.564102,4279.487179,4510.769230,4216.410256,4433.846153,4215.384615,4196.410256,4500.000000,4221.538461,4646.666666,4002.051282,4055.384615
149,4421.025641,4544.102564,4537.435897,4276.410256,4505.641025,4215.897435,4436.410256,4215.897435,4192.820512,4504.102564,4212.307692,4644.102564,3995.384616,4050.769230
150,4422.564102,4543.589743,4539.487179,4280.000000,4504.102564,4218.974358,4443.076923,4225.128205,4201.025641,4508.717948,4212.820512,4645.641025,3992.307693,4050.769230
151,4425.641025,4540.512820,4545.641025,4284.102564,4500.000000,4217.948717,4443.076923,4231.794871,4210.769230,4507.179487,4234.871794,4649.743589,4001.025641,4055.384615
152,4428.717948,4541.538461,4549.743589,4285.128205,4501.538461,4214.358974,4441.538461,4230.769230,4210.256410,4511.794871,4253.846153,4654.358974,4009.743589,4062.564102
153,4430.769230,4550.769230,4548.717948,4284.102564,4511.794871,4215.384615,4440.512820,4227.692307,4208.717948,4523.076923,4244.102564,4652.307692,4011.794871,4065.641025
154,4434.358974,4555.897435,4550.769230,4285.641025,4512.307692,4218.974358,4444.615384,4232.820512,4217.948717,4533.846153,4233.333333,4655.897435,4016.410256,4068.717948
155,4435.897435,4542.564102,4557.435897,4287.179487,4506.153846,4222.564102,4448.205128,4236.923076,4221.538461,4532.820512,4242.051282,4663.076923,4021.025641,4074.358974
156,4429.743589,4533.846153,4554.871794,4282.051282,4500.512820,4215.384615,4439.487179,4229.230769,4207.179487,4515.384615,4240.512820,4656.923076,4013.333333,4068.205128
157,4422.564102,4540.000000,4548.717948,4279.487179,4497.435897,4209.743589,4432.820512,4222.051282,4198.461538,4501.025641,4229.743589,4650.256410,4004.615384,4056.410256
158,4428.205128,4551.282051,4554.871794,4282.564102,4502.051282,4223.589743,4442.051282,4228.717948,4211.282051,4515.897435,4241.538461,4661.538461,4009.743589,4066.153846
159,4434.871794,4557.435897,4565.128205,4286.153846,4509.743589,4231.282051,4450.769230,4236.410256,4218.974358,4538.461538,4251.282051,4668.717948,4014.871794,4083.076923
160,4428.205128,4546.666666,4557.435897,4288.717948,4511.282051,4220.000000,4442.564102,4228.717948,4207.692307,4528.717948,4234.871794,4656.410256,4009.230769,4073.846153
161,4417.435897,4532.307692,4544.615384,4284.102564,4505.128205,4210.256410,4431.282051,4216.410256,4196.923076,4500.000000,4221.025641,4647.179487,3997.948718,4052.820512
162,4413.846153,4532.820512,4545.128205,4277.948717,4496.923076,4211.794871,4431.282051,4212.307692,4194.358974,4496.410256,4224.102564,4646.153846,3990.769231,4047.179487
163,4420.000000,4549.743589,4553.333333,4282.051282,4496.410256,4215.384615,4440.512820,4219.487179,4201.025641,4512.307692,4232.307692,4649.230769,3997.435898,4060.000000
164,4427.179487,4556.410256,4555.384615,4289.230769,4507.692307,4218.974358,4446.666666,4230.256410,4216.410256,4524.102564,4238.974358,4657.435897,4010.256410,4074.358974
165,4427.692307,4547.692307,4554.358974,4284.102564,4511.794871,4217.948717,4443.076923,4234.871794,4222.051282,4530.256410,4236.410256,4658.461538,4008.205128,4072.307692
166,4422.564102,4539.487179,4553.333333,4275.897435,4503.589743,4214.871794,4440.512820,4229.230769,4210.256410,4517.435897,4231.794871,4652.820512,4005.128205,4058.974358
167,4425.128205,4545.128205,4554.871794,4282.564102,4506.153846,4219.487179,4444.102564,4223.076923,4204.615384,4504.615384,4236.410256,4657.435897,4013.846153,4060.000000
168,4429.230769,4556.923076,4557.948717,4288.205128,4518.461538,4221.025641,4447.692307,4225.128205,4210.256410,4513.333333,4235.897435,4663.589743,4008.717948,4069.230769
169,4417.948717,4545.641025,4550.769230,4285.641025,4517.948717,4215.897435,4440.000000,4220.512820,4199.487179,4517.948717,4223.589743,4650.256410,3985.128206,4058.974358
170,4408.717948,4523.589743,4539.487179,4286.666666,4506.153846,4214.871794,4432.820512,4210.256410,4186.666666,4507.179487,4213.846153,4640.512820,3982.564103,4048.205128
171,4414.358974,4527.179487,4544.615384,4289.743589,4502.051282,4214.871794,4438.974358,4210.256410,4195.384615,4499.487179,4210.769230,4648.717948,4006.666666,4056.410256
172,4415.897435,4549.743589,4555.384615,4281.025641,4506.153846,4215.384615,4444.615384,4215.897435,4201.538461,4498.974358,4215.384615,4652.820512,4015.897435,4059.487179
173,4411.794871,4556.923076,4554.358974,4274.358974,4506.666666,4221.538461,4443.076923,4215.897435,4195.384615,4498.461538,4222.564102,4650.769230,4001.538461,4053.846153
174,4415.897435,4549.230769,4551.282051,4282.564102,4506.153846,4225.128205,4442.051282,4216.410256,4197.435897,4504.615384,4224.102564,4652.307692,3998.461539,4055.897435
175,4417.948717,4545.641025,4552.307692,4288.205128,4508.717948,4220.512820,4441.538461,4221.538461,4205.641025,4517.948717,4221.025641,4652.820512,4014.358974,4061.025641
176,4406.666666,4534.358974,4543.589743,4280.000000,4509.230769,4215.897435,4433.846153,4215.384615,4196.410256,4517.435897,4210.769230,4647.179487,4012.820512,4054.358974
177,4400.512820,4524.615384,4534.358974,4270.769230,4506.153846,4213.333333,4427.179487,4205.641025,4186.153846,4501.025641,4203.589743,4641.025641,3993.846154,4045.128205
178,4408.205128,4530.769230,4543.076923,4272.820512,4502.051282,4216.923076,4431.282051,4209.230769,4191.794871,4495.897435,4212.307692,4645.641025,3995.897436,4048.205128
179,4421.025641,4540.000000,4556.410256,4279.487179,4501.025641,4223.589743,4442.051282,4218.974358,4202.564102,4511.794871,4222.564102,4656.410256,4013.333333,4059.487179
180,4424.102564,4541.538461,4551.794871,4281.538461,4509.743589,4223.076923,4442.051282,4217.948717,4203.589743,4519.487179,4226.153846,4655.897435,4015.897435,4062.564102
181,4416.410256,4543.076923,4544.102564,4285.128205,4513.846153,4216.923076,4430.256410,4212.307692,4196.923076,4509.743589,4226.153846,4647.692307,4011.282051,4058.461538
182,4415.384615,4543.076923,4548.717948,4290.256410,4507.692307,4215.384615,4429.230769,4212.820512,4194.871794,4504.102564,4217.948717,4650.256410,4015.384615,4058.461538
183,4425.641025,4543.076923,4556.410256,4290.769230,4507.692307,4223.076923,4440.000000,4216.923076,4202.051282,4516.923076,4219.487179,4661.538461,4020.512820,4061.025641
184,4432.820512,4548.717948,4558.461538,4291.282051,4513.333333,4228.717948,4445.641025,4225.128205,4212.820512,4536.923076,4243.076923,4669.230769,4018.974358,4064.615384
185,4427.179487,4548.205128,4554.358974,4285.128205,4509.743589,4224.615384,4444.102564,4226.666666,4210.769230,4527.692307,4247.179487,4664.102564,4014.358974,4064.102564
186,4414.358974,4536.923076,4549.743589,4274.358974,4502.564102,4215.384615,4441.538461,4215.897435,4196.410256,4501.025641,4225.128205,4653.846153,4011.794871,4058.461538
187,4415.384615,4532.820512,4553.846153,4280.512820,4503.589743,4214.871794,4443.589743,4217.948717,4196.923076,4507.179487,4221.538461,4659.487179,4015.384615,4058.461538
188,4428.717948,4542.051282,4561.025641,4293.846153,4509.743589,4226.153846,4450.256410,4232.820512,4213.846153,4535.897435,4235.384615,4671.794871,4021.025641,4063.076923
189,4434.358974,4550.256410,4564.102564,4295.897435,4511.282051,4231.794871,4453.846153,4237.948717,4221.025641,4542.564102,4243.589743,4672.820512,4024.102564,4067.179487
190,4430.256410,4548.717948,4563.589743,4292.307692,4510.769230,4228.205128,4449.230769,4232.820512,4212.820512,4528.205128,4242.564102,4667.179487,4026.153846,4069.743589
191,4425.641025,4543.589743,4557.948717,4282.564102,4514.871794,4225.128205,4444.615384,4229.743589,4207.179487,4517.435897,4233.333333,4661.025641,4025.641025,4064.615384
192,4422.564102,4541.538461,4552.307692,4274.358974,4518.974358,4224.102564,4444.615384,4229.743589,4208.717948,4522.564102,4228.205128,4657.948717,4024.102564,4057.435897
193,4422.564102,4543.076923,4553.846153,4279.487179,4510.769230,4223.589743,4445.641025,4231.282051,4207.692307,4530.769230,4230.769230,4658.974358,4025.128205,4061.025641
194,4424.102564,4536.410256,4553.846153,4281.025641,4498.974358,4222.564102,4443.589743,4228.205128,4201.025641,4523.589743,4233.333333,4656.410256,4017.948717,4061.025641
195,4422.051282,4527.692307,4548.717948,4274.871794,4497.948717,4220.000000,4438.461538,4217.948717,4197.948717,4509.743589,4228.205128,4650.256410,4009.743589,4052.820512
196,4422.051282,4529.230769,4549.230769,4282.564102,4503.589743,4215.897435,4436.923076,4218.461538,4206.153846,4511.794871,4227.692307,4653.333333,4016.923076,4056.923076
197,4428.205128,4540.512820,4555.897435,4292.307692,4505.641025,4217.948717,4442.051282,4228.205128,4214.871794,4525.128205,4229.743589,4660.512820,4026.666666,4066.153846
198,4427.692307,4546.153846,4553.846153,4283.076923,4509.743589,4221.025641,4444.615384,4233.333333,4211.282051,4527.692307,4225.128205,4658.974358,4021.025641,4062.051282
199,4417.948717,4534.358974,4544.615384,4274.358974,4517.435897,4214.871794,4442.051282,4227.179487,4198.461538,4516.410256,4221.538461,4651.794871,4008.717948,4052.820512
200,4409.743589,4527.179487,4541.538461,4276.923076,4512.820512,4213.846153,4442.564102,4219.487179,4190.769230,4506.666666,4223.589743,4647.179487,4002.564102,4048.717948
201,4412.820512,4537.948717,4544.102564,4278.461538,4502.564102,4223.589743,4446.666666,4220.000000,4196.923076,4505.641025,4221.025641,4649.743589,4008.205128,4050.769230
202,4415.897435,4540.000000,4544.615384,4277.948717,4502.051282,4226.666666,4445.128205,4222.051282,4201.025641,4506.666666,4214.358974,4653.846153,4011.282051,4051.282051
203,4410.769230,4525.641025,4545.641025,4278.974358,4501.538461,4215.897435,4441.025641,4216.923076,4195.384615,4505.641025,4213.846153,4652.307692,3997.435898,4044.102564
204,4412.307692,4529.743589,4550.769230,4277.948717,4500.512820,4212.820512,4441.025641,4212.820512,4194.871794,4508.205128,4216.410256,4652.820512,3993.333334,4045.641025
205,4418.461538,4540.000000,4554.871794,4280.000000,4506.153846,4216.410256,4443.076923,4217.435897,4197.948717,4513.333333,4215.384615,4655.384615,4001.538461,4051.282051
206,4410.769230,4527.179487,4552.820512,4281.538461,4508.717948,4215.897435,4438.974358,4214.871794,4191.794871,4505.641025,4214.358974,4648.717948,3996.923077,4046.666666
207,4409.230769,4527.692307,4552.307692,4280.512820,4508.717948,4224.615384,4443.076923,4214.871794,4194.871794,4502.564102,4221.538461,4649.743589,3995.897436,4048.205128
208,4421.538461,4546.666666,4556.410256,4281.025641,4511.282051,4231.794871,4455.897435,4230.769230,4217.435897,4516.923076,4238.461538,4662.564102,4010.256410,4061.025641
209,4423.076923,4544.615384,4558.974358,4280.000000,4506.666666,4221.538461,4452.307692,4235.384615,4222.564102,4526.153846,4234.871794,4661.025641,4015.384615,4061.538461
210,4419.487179,4535.384615,4556.410256,4278.974358,4503.076923,4212.820512,4441.025641,4224.102564,4208.205128,4522.051282,4216.410256,4653.846153,4012.307692,4057.948717
211,4418.974358,4539.487179,4556.923076,4278.974358,4509.743589,4215.384615,4441.538461,4217.435897,4204.102564,4514.358974,4218.974358,4658.461538,4015.384615,4061.538461
212,4415.384615,4533.333333,4555.897435,4275.384615,4507.179487,4213.846153,4442.051282,4217.435897,4203.076923,4503.589743,4230.769230,4660.000000,4009.230769,4055.384615
213,4417.435897,4529.743589,4554.358974,4276.410256,4495.384615,4214.358974,4439.487179,4217.948717,4200.512820,4505.128205,4236.410256,4656.410256,4005.641025,4051.794871
214,4424.102564,4544.102564,4554.358974,4279.487179,4503.076923,4221.538461,4442.564102,4216.923076,4205.128205,4521.025641,4235.384615,4657.435897,4010.769230,4060.000000
215,4419.487179,4544.615384,4551.282051,4275.384615,4516.410256,4220.000000,4441.025641,4212.820512,4206.153846,4515.897435,4218.974358,4655.384615,4007.179487,4058.974358
216,4420.512820,4535.897435,4554.871794,4283.076923,4513.846153,4222.051282,4441.025641,4220.000000,4210.256410,4510.256410,4222.051282,4662.564102,4006.666666,4058.974358
217,4433.333333,4547.692307,4564.102564,4297.948717,4511.282051,4233.333333,4449.743589,4235.384615,4221.538461,4531.794871,4247.179487,4677.435897,4025.128205,4067.692307
218,4426.666666,4552.307692,4558.974358,4287.692307,4515.384615,4230.256410,4449.743589,4229.743589,4218.974358,4535.384615,4240.000000,4672.307692,4028.717948,4060.000000
219,4413.333333,4536.410256,4548.717948,4271.282051,4510.769230,4213.333333,4441.538461,4214.871794,4203.076923,4509.230769,4216.410256,4654.871794,4007.179487,4047.692307
220,4417.948717,4534.358974,4551.794871,4277.435897,4503.589743,4213.333333,4440.000000,4213.846153,4196.923076,4501.538461,4220.512820,4653.846153,4002.051282,4056.923076
221,4426.666666,4543.589743,4555.897435,4281.538461,4505.641025,4223.076923,4442.564102,4221.025641,4205.128205,4520.000000,4226.153846,4664.102564,4015.897435,4064.102564
222,4423.589743,4539.487179,4555.384615,4275.897435,4506.153846,4218.974358,4442.051282,4224.102564,4211.794871,4523.076923,4224.102564,4669.230769,4014.358974,4056.923076
223,4422.051282,4534.358974,4560.000000,4280.512820,4511.282051,4215.897435,4442.051282,4222.564102,4211.794871,4517.435897,4233.846153,4671.794871,4008.205128,4056.923076
224,4430.769230,4542.051282,4560.512820,4285.641025,4517.948717,4219.487179,4442.564102,4223.589743,4210.256410,4524.615384,4236.410256,4672.307692,4016.923076,4062.051282
225,4429.743589,4550.256410,4556.923076,4278.974358,4511.794871,4218.974358,4442.051282,4224.102564,4206.153846,4522.564102,4230.769230,4669.230769,4022.564102,4061.025641
226,4424.615384,4546.666666,4558.461538,4278.461538,4504.102564,4217.435897,4443.076923,4226.153846,4205.128205,4513.846153,4234.358974,4670.769230,4020.000000,4064.615384
227,4428.717948,4537.948717,4561.025641,4285.641025,4506.153846,4217.435897,4445.128205,4228.717948,4209.743589,4520.512820,4233.846153,4677.435897,4016.923076,4067.179487
228,4430.256410,4536.923076,4557.435897,4283.589743,4503.589743,4217.948717,4443.076923,4226.153846,4211.282051,4524.615384,4224.615384,4676.410256,4013.333333,4060.512820
229,4423.589743,4538.461538,4553.846153,4280.512820,4493.846153,4218.461538,4440.512820,4219.487179,4208.717948,4513.333333,4223.589743,4668.717948,4011.282051,4057.435897
230,4421.538461,4534.871794,4553.333333,4278.461538,4496.923076,4214.358974,4442.051282,4213.333333,4202.564102,4506.153846,4229.743589,4663.589743,4007.179487,4059.487179
231,4423.076923,4532.307692,4549.743589,4269.743589,4509.230769,4208.205128,4439.487179,4210.769230,4194.871794,4506.153846,4226.153846,4661.538461,3998.974359,4056.410256
232,4423.076923,4533.846153,4549.230769,4269.230769,4508.717948,4210.769230,4434.871794,4210.256410,4197.435897,4510.769230,4214.871794,4660.512820,4002.564102,4054.871794
233,4426.153846,4540.000000,4551.794871,4279.487179,4494.871794,4217.435897,4438.974358,4213.846153,4210.256410,4517.948717,4216.410256,4660.512820,4017.948717,4061.025641
234,4431.794871,4546.666666,4554.358974,4284.615384,4493.333333,4217.435897,4444.102564,4223.076923,4215.897435,4523.589743,4225.641025,4663.589743,4022.564102,4064.102564
235,4432.307692,4546.153846,4554.871794,4281.025641,4507.179487,4216.410256,4443.076923,4228.717948,4213.333333,4521.025641,4227.179487,4666.153846,4017.948717,4064.102564
236,4427.692307,4540.512820,4552.307692,4275.897435,4512.307692,4215.897435,4442.051282,4224.615384,4207.692307,4510.256410,4227.692307,4661.538461,4013.333333,4062.051282
237,4426.153846,4535.897435,4551.794871,4277.435897,4503.589743,4214.871794,4444.102564,4220.000000,4206.153846,4507.692307,4228.205128,4660.000000,4010.256410,4058.974358
238,4432.820512,4538.461538,4556.410256,4285.128205,4501.538461,4217.435897,4444.102564,4224.102564,4213.846153,4522.051282,4232.820512,4667.692307,4014.871794,4063.076923
239,4434.358974,4545.641025,4554.871794,4280.512820,4510.769230,4217.948717,4444.615384,4223.076923,4211.794871,4522.051282,4234.358974,4669.743589,4021.025641,4064.102564
240,4424.102564,4546.153846,4548.717948,4269.743589,4507.692307,4215.384615,4442.564102,4216.410256,4204.102564,4502.564102,4220.512820,4660.512820,4016.923076,4057.948717
241,4420.000000,4538.974358,4549.230769,4274.358974,4494.871794,4214.871794,4440.000000,4217.435897,4205.128205,4503.076923,4213.846153,4660.000000,4007.179487,4055.384615
242,4427.179487,4535.384615,4552.820512,4280.000000,4495.384615,4214.358974,4441.025641,4223.589743,4211.794871,4520.000000,4226.153846,4671.282051,4008.717948,4064.102564
243,4429.230769,4538.461538,4554.358974,4278.461538,4502.051282,4214.871794,4443.076923,4228.717948,4215.384615,4523.076923,4234.358974,4675.897435,4015.897435,4067.692307
244,4426.153846,4541.025641,4555.384615,4280.000000,4500.000000,4217.948717,4443.589743,4230.256410,4214.871794,4515.384615,4239.487179,4669.743589,4014.871794,4061.538461
245,4429.230769,4545.641025,4555.897435,4280.512820,4498.461538,4216.410256,4443.076923,4227.692307,4211.282051,4514.358974,4242.051282,4666.666666,4014.871794,4061.538461
246,4433.846153,4549.230769,4555.384615,4279.487179,4506.666666,4215.897435,4443.076923,4228.717948,4211.282051,4521.025641,4229.743589,4671.282051,4025.641025,4070.769230
247,4429.230769,4546.666666,4556.410256,4284.102564,4516.410256,4223.589743,4445.128205,4232.820512,4213.333333,4525.641025,4223.589743,4671.282051,4026.153846,4071.794871
248,4422.564102,4542.564102,4555.897435,4283.589743,4509.230769,4224.615384,4446.153846,4228.205128,4208.205128,4521.025641,4232.820512,4667.692307,4008.205128,4061.025641
249,4422.051282,4540.000000,4552.820512,4277.948717,4496.410256,4216.410256,4445.128205,4221.025641,4205.128205,4514.358974,4234.871794,4668.717948,4009.230769,4058.974358
250,4424.102564,4538.974358,4554.358974,4279.487179,4497.435897,4212.820512,4444.102564,4221.025641,4204.102564,4509.743589,4231.282051,4668.717948,4023.076923,4062.564102
251,4424.615384,4540.512820,4555.384615,4280.512820,4506.666666,4217.948717,4443.589743,4220.000000,4203.076923,4509.743589,4224.615384,4665.128205,4016.923076,4060.512820
252,4426.666666,4542.051282,4551.794871,4277.435897,4507.179487,4225.641025,4443.076923,4220.512820,4206.153846,4507.692307,4218.974358,4663.589743,4000.512820,4060.000000
253,4430.256410,4538.461538,4552.820512,4279.487179,4505.128205,4223.589743,4443.589743,4228.205128,4210.256410,4504.615384,4225.641025,4665.641025,4000.512820,4060.000000
254,4426.153846,4537.435897,4554.358974,4278.461538,4508.717948,4218.461538,4446.153846,4228.717948,4210.769230,4512.307692,4233.846153,4664.102564,4009.743589,4055.897435
255,4417.435897,4533.846153,4545.641025,4265.128205,4509.230769,4212.820512,4438.974358,4218.974358,4206.153846,4511.282051,4227.692307,4656.410256,4007.179487,4050.769230
256,4413.333333,4525.641025,4536.410256,4257.435897,4498.974358,4204.102564,4426.153846,4211.794871,4200.000000,4494.358974,4218.974358,4648.717948,3996.410257,4045.641025
257,4415.384615,4528.717948,4536.923076,4269.230769,4490.256410,4204.615384,4431.282051,4218.461538,4200.512820,4498.461538,4214.871794,4652.307692,3991.282052,4044.615384
258,4424.615384,4542.564102,4547.692307,4282.564102,4495.384615,4217.435897,4447.692307,4227.692307,4207.692307,4520.512820,4214.358974,4662.564102,3998.461539,4049.743589
259,4424.102564,4541.538461,4550.769230,4275.897435,4503.589743,4219.487179,4442.051282,4222.051282,4202.564102,4517.948717,4214.871794,4661.025641,4007.692307,4048.717948
