,AF3,F7,F3,FC5,T7,P7,O1,O2,P8,T8,FC6,F4,F8,AF4
0,4359.487179,4378.461538,4505.128205,4229.743589,4482.564102,4150.769230,4419.487179,4191.794871,4196.923076,4478.974358,4184.102564,4617.435897,3966.666667,4042.564102
1,4378.974358,4403.589743,4521.025641,4235.897435,4489.743589,4158.974358,4433.846153,4200.000000,4202.564102,4491.282051,4206.153846,4631.282051,3977.948718,4052.307692
2,4367.179487,4396.923076,4514.871794,4224.615384,4477.435897,4155.384615,4423.076923,4190.256410,4204.615384,4491.282051,4198.461538,4623.589743,3962.564103,4040.000000
3,4347.692307,4372.307692,4496.923076,4221.025641,4469.230769,4148.717948,4407.179487,4176.923076,4196.410256,4483.076923,4178.461538,4606.153846,3937.435898,4020.512820
4,4354.871794,4374.871794,4502.564102,4237.948717,4477.948717,4153.333333,4416.923076,4183.589743,4197.948717,4485.641025,4176.410256,4615.384615,3943.076924,4023.076923
5,4372.820512,4392.307692,4523.076923,4251.282051,4477.948717,4156.410256,4430.256410,4201.538461,4216.923076,4498.974358,4193.333333,4636.923076,3975.384616,4044.615384
6,4384.615384,4401.025641,4531.794871,4249.230769,4472.820512,4154.871794,4435.897435,4211.794871,4225.128205,4510.256410,4207.692307,4641.538461,3993.846154,4061.025641
7,4383.589743,4407.179487,4527.179487,4237.435897,4480.000000,4159.487179,4439.487179,4214.871794,4222.051282,4510.256410,4213.333333,4637.435897,3983.076924,4062.051282
8,4372.820512,4410.256410,4522.564102,4228.205128,4489.743589,4164.102564,4436.410256,4212.307692,4227.692307,4504.102564,4215.897435,4636.410256,3970.256411,4053.846153
9,4367.179487,4400.512820,4521.538461,4231.282051,4487.692307,4158.461538,4427.179487,4206.153846,4231.794871,4503.589743,4213.846153,4632.820512,3973.333334,4045.128205
10,4368.205128,4390.769230,4521.025641,4239.487179,4481.538461,4156.923076,4425.128205,4201.025641,4222.051282,4509.230769,4199.487179,4629.230769,3974.871795,4047.179487
11,4371.282051,4392.820512,4517.435897,4243.589743,4487.179487,4159.487179,4427.692307,4195.384615,4206.153846,4502.051282,4185.128205,4629.743589,3970.769231,4055.384615
12,4373.846153,4398.461538,4517.435897,4236.923076,4493.333333,4156.410256,4425.641025,4190.769230,4202.564102,4490.256410,4188.717948,4628.717948,3972.307693,4051.282051
13,4372.820512,4400.512820,4524.615384,4229.743589,4488.717948,4159.487179,4427.179487,4196.923076,4219.487179,4495.897435,4203.076923,4631.794871,3975.384616,4048.205128
14,4374.358974,4398.974358,4525.641025,4237.948717,4486.153846,4169.743589,4432.307692,4208.205128,4232.307692,4507.179487,4211.794871,4639.487179,3969.230770,4051.794871
15,4374.358974,4398.974358,4518.974358,4253.333333,4491.794871,4170.769230,4432.820512,4205.641025,4222.051282,4508.205128,4212.820512,4634.871794,3970.769231,4050.256410
16,4372.307692,4404.102564,4518.461538,4256.410256,4490.769230,4163.076923,4430.769230,4196.923076,4212.820512,4505.641025,4212.307692,4630.256410,3982.564103,4050.256410
17,4373.333333,4406.666666,4521.025641,4248.205128,4481.025641,4156.410256,4430.256410,4199.487179,4217.948717,4502.564102,4203.076923,4636.923076,3974.871795,4051.282051
18,4369.743589,4396.410256,4516.410256,4235.384615,4475.384615,4151.794871,4430.769230,4203.589743,4216.923076,4494.871794,4197.948717,4636.923076,3953.846154,4043.589743
19,4356.923076,4380.000000,4509.230769,4217.435897,4475.384615,4149.230769,4425.641025,4195.384615,4204.102564,4483.589743,4200.000000,4625.641025,3951.794872,4031.794871
20,4355.384615,4382.051282,4510.256410,4215.384615,4478.974358,4151.794871,4423.076923,4190.256410,4204.102564,4478.974358,4200.000000,4624.102564,3964.102565,4033.846153
21,4366.666666,4397.435897,4518.974358,4237.948717,4489.743589,4158.461538,4430.769230,4199.487179,4220.000000,4488.717948,4205.641025,4635.384615,3968.717949,4045.641025
22,4370.256410,4403.589743,4523.076923,4247.179487,4492.820512,4160.512820,4433.333333,4204.102564,4217.435897,4494.871794,4199.487179,4636.923076,3961.538462,4042.564102
23,4367.179487,4402.564102,4519.487179,4235.897435,4479.487179,4152.307692,4425.128205,4197.435897,4203.589743,4490.256410,4182.564102,4632.820512,3953.846154,4033.333333
24,4363.589743,4400.512820,4518.974358,4231.794871,4471.282051,4149.743589,4422.564102,4199.487179,4210.256410,4487.692307,4197.435897,4633.333333,3955.384616,4041.025641
25,4360.000000,4391.282051,4518.461538,4236.410256,4478.974358,4155.384615,4428.717948,4207.179487,4220.000000,4485.641025,4219.487179,4632.307692,3958.461539,4050.769230
26,4359.487179,4390.256410,4515.384615,4236.923076,4483.589743,4157.435897,4433.333333,4205.128205,4217.948717,4482.564102,4207.692307,4628.717948,3958.461539,4041.538461
27,4351.794871,4394.358974,4507.692307,4228.717948,4476.923076,4152.307692,4430.256410,4196.410256,4213.333333,4488.205128,4186.153846,4624.102564,3953.846154,4026.666666
28,4336.923076,4381.538461,4496.410256,4220.512820,4474.358974,4149.230769,4417.948717,4185.641025,4204.615384,4492.307692,4180.512820,4615.897435,3944.615385,4017.435897
29,4341.025641,4378.461538,4498.461538,4229.743589,4475.897435,4151.794871,4413.846153,4181.025641,4197.948717,4487.692307,4189.230769,4615.897435,3940.000000,4021.025641
30,4355.897435,4397.435897,4511.282051,4237.435897,4476.410256,4154.358974,4425.128205,4189.743589,4205.128205,4485.128205,4197.948717,4626.666666,3944.615385,4038.461538
31,4358.461538,4406.666666,4514.871794,4230.769230,4481.025641,4155.384615,4432.307692,4199.487179,4213.846153,4488.205128,4199.487179,4630.256410,3950.769231,4044.615384
32,4356.410256,4396.923076,4508.717948,4232.820512,4480.512820,4153.846153,4426.666666,4201.538461,4215.384615,4492.307692,4203.589743,4627.692307,3955.897436,4036.410256
33,4353.846153,4389.230769,4507.179487,4225.641025,4474.358974,4152.307692,4422.564102,4198.974358,4216.923076,4493.846153,4206.666666,4628.717948,3960.000000,4033.333333
34,4349.230769,4388.717948,4509.743589,4211.282051,4474.358974,4152.820512,4424.615384,4189.230769,4211.282051,4491.282051,4198.974358,4629.230769,3952.820513,4033.846153
35,4352.820512,4393.846153,4512.307692,4228.205128,4477.948717,4153.846153,4425.641025,4182.564102,4205.128205,4494.358974,4196.923076,4630.256410,3949.743590,4032.820512
36,4358.974358,4398.974358,4512.820512,4243.589743,4480.000000,4154.871794,4427.179487,4190.769230,4206.666666,4493.846153,4204.615384,4629.230769,3952.820513,4035.897435
37,4353.333333,4393.846153,4512.307692,4234.358974,4479.487179,4151.794871,4426.666666,4195.384615,4205.641025,4481.025641,4201.538461,4628.717948,3951.794872,4039.487179
38,4346.666666,4391.282051,4510.769230,4228.717948,4474.358974,4147.179487,4423.076923,4190.256410,4207.692307,4482.564102,4198.461538,4628.717948,3952.307693,4037.435897
39,4341.538461,4390.769230,4503.589743,4224.615384,4470.256410,4147.179487,4415.384615,4186.666666,4209.230769,4495.897435,4202.051282,4621.538461,3951.282052,4030.769230
40,4340.512820,4388.205128,4503.589743,4225.641025,4475.384615,4152.307692,4413.333333,4186.153846,4200.512820,4491.794871,4197.948717,4620.512820,3950.256411,4031.282051
41,4355.897435,4397.435897,4522.051282,4246.153846,4477.948717,4154.358974,4423.076923,4194.358974,4202.564102,4492.307692,4206.153846,4635.384615,3958.461539,4044.102564
42,4369.743589,4410.256410,4528.205128,4251.794871,4472.307692,4152.820512,4430.769230,4202.564102,4218.461538,4506.666666,4225.641025,4643.076923,3961.538462,4049.230769
43,4364.615384,4407.179487,4515.384615,4231.794871,4476.923076,4154.358974,4429.230769,4204.615384,4222.051282,4500.512820,4220.000000,4632.307692,3948.717949,4037.435897
44,4348.205128,4394.871794,4508.205128,4215.897435,4487.179487,4158.461538,4427.692307,4208.205128,4215.384615,4486.153846,4197.948717,4622.564102,3950.256411,4031.282051
45,4341.538461,4387.692307,4506.666666,4214.871794,4481.538461,4158.461538,4428.205128,4208.717948,4208.205128,4489.743589,4190.769230,4620.512820,3958.974359,4033.846153
46,4343.076923,4380.000000,4501.538461,4225.128205,4470.769230,4155.897435,4424.615384,4202.051282,4206.153846,4493.333333,4188.205128,4617.948717,3937.948718,4029.743589
47,4342.051282,4377.948717,4497.435897,4224.102564,4473.333333,4152.820512,4418.974358,4198.461538,4213.846153,4491.282051,4185.641025,4612.307692,3918.461539,4017.435897
48,4342.564102,4385.641025,4500.512820,4217.948717,4478.461538,4151.794871,4419.487179,4196.410256,4215.897435,4491.794871,4200.512820,4613.333333,3933.846154,4014.871794
49,4349.743589,4388.717948,4508.205128,4228.717948,4476.923076,4154.358974,4425.641025,4195.897435,4209.230769,4489.743589,4205.641025,4625.128205,3953.333334,4032.820512
50,4354.358974,4391.282051,4512.820512,4235.897435,4478.974358,4157.948717,4430.256410,4203.076923,4208.205128,4487.692307,4187.692307,4629.230769,3950.256411,4044.615384
51,4352.307692,4395.897435,4506.666666,4228.717948,4475.897435,4155.384615,4428.717948,4206.666666,4205.641025,4483.076923,4191.282051,4618.461538,3940.000000,4031.794871
52,4347.179487,4394.358974,4501.025641,4229.230769,4470.256410,4151.282051,4420.512820,4193.333333,4198.974358,4474.871794,4202.051282,4612.820512,3926.153847,4015.897435
53,4343.076923,4386.153846,4498.461538,4235.384615,4474.358974,4152.820512,4412.307692,4184.615384,4200.512820,4474.871794,4183.076923,4610.256410,3911.794872,4013.333333
54,4343.589743,4382.051282,4496.923076,4233.333333,4476.923076,4155.384615,4416.923076,4191.282051,4201.538461,4474.871794,4166.153846,4608.205128,3923.076924,4016.923076
55,4342.564102,4383.589743,4498.461538,4226.153846,4473.846153,4155.897435,4425.641025,4192.307692,4197.948717,4472.820512,4179.487179,4609.230769,3941.538462,4019.487179
56,4338.461538,4386.666666,4501.025641,4223.589743,4475.384615,4155.384615,4422.564102,4187.692307,4205.641025,4481.538461,4196.410256,4613.333333,3929.743590,4016.410256
57,4343.589743,4389.743589,4503.076923,4230.256410,4476.410256,4152.307692,4419.487179,4195.897435,4211.282051,4489.230769,4200.512820,4617.948717,3917.948718,4014.871794
58,4352.307692,4392.820512,4507.179487,4233.846153,4472.820512,4153.333333,4426.153846,4204.102564,4204.615384,4487.179487,4201.025641,4618.974358,3935.384616,4026.153846
59,4354.871794,4393.846153,4511.282051,4229.230769,4469.743589,4161.538461,4430.256410,4200.512820,4203.076923,4487.692307,4194.871794,4618.461538,3947.692308,4035.384615
60,4353.333333,4394.871794,4506.666666,4229.230769,4472.820512,4166.153846,4429.230769,4201.025641,4208.717948,4490.256410,4188.205128,4620.512820,3945.641026,4031.282051
61,4353.846153,4395.897435,4503.589743,4230.769230,4485.641025,4164.615384,4430.256410,4204.102564,4209.230769,4490.256410,4189.230769,4618.461538,3944.102565,4022.051282
62,4356.923076,4400.000000,4510.769230,4228.717948,4489.230769,4164.102564,4428.205128,4202.564102,4212.820512,4490.256410,4198.461538,4620.000000,3937.948718,4025.641025
63,4359.487179,4400.512820,4515.384615,4232.820512,4480.512820,4166.666666,4425.641025,4203.589743,4221.538461,4494.358974,4208.717948,4629.743589,3938.461539,4038.974358
64,4358.461538,4395.384615,4509.743589,4239.487179,4477.948717,4166.666666,4427.179487,4201.025641,4217.435897,4504.102564,4201.538461,4628.717948,3954.871795,4041.538461
65,4358.461538,4398.461538,4504.615384,4233.333333,4478.974358,4166.666666,4430.256410,4202.564102,4217.435897,4505.128205,4194.358974,4621.025641,3960.000000,4037.435897
66,4356.923076,4403.589743,4503.076923,4216.410256,4477.948717,4169.230769,4429.743589,4212.307692,4229.743589,4496.923076,4200.512820,4621.538461,3941.538462,4030.256410
67,4349.230769,4393.333333,4499.487179,4217.948717,4482.564102,4169.230769,4430.769230,4216.410256,4224.102564,4493.846153,4204.615384,4620.512820,3936.923077,4023.076923
68,4346.153846,4380.000000,4500.512820,4235.897435,4490.256410,4167.692307,4432.820512,4213.846153,4214.358974,4494.358974,4201.538461,4617.948717,3954.358975,4027.692307
69,4353.846153,4385.128205,4506.666666,4233.333333,4490.256410,4167.692307,4431.794871,4214.871794,4225.128205,4496.923076,4196.410256,4623.589743,3961.025642,4042.051282
70,4363.076923,4396.410256,4510.769230,4224.102564,4483.076923,4167.692307,4432.307692,4221.538461,4234.871794,4504.615384,4198.461538,4629.743589,3960.000000,4047.179487
71,4353.333333,4390.769230,4502.051282,4220.000000,4480.512820,4161.025641,4428.205128,4214.358974,4223.076923,4501.025641,4200.512820,4624.615384,3955.897436,4033.333333
72,4343.589743,4378.974358,4496.410256,4207.179487,4481.538461,4154.358974,4418.461538,4198.974358,4211.282051,4487.692307,4199.487179,4618.461538,3947.692308,4027.179487
73,4358.974358,4383.589743,4508.717948,4210.769230,4478.974358,4160.512820,4421.025641,4204.615384,4216.923076,4491.794871,4202.051282,4625.128205,3956.923077,4038.974358
74,4370.769230,4391.282051,4517.435897,4234.358974,4480.000000,4169.743589,4434.358974,4219.487179,4229.230769,4507.179487,4205.128205,4632.820512,3983.589744,4052.307692
75,4362.051282,4387.692307,4508.205128,4237.948717,4488.717948,4169.230769,4433.333333,4216.410256,4229.743589,4505.641025,4201.538461,4629.230769,3987.692308,4051.794871
76,4362.564102,4389.743589,4506.153846,4229.230769,4491.794871,4168.717948,4426.153846,4211.794871,4219.487179,4495.897435,4194.871794,4627.692307,3971.282052,4048.205128
77,4365.641025,4397.435897,4513.333333,4234.358974,4487.179487,4173.333333,4427.692307,4214.358974,4221.025641,4492.307692,4187.692307,4628.205128,3963.076924,4049.230769
78,4358.974358,4396.923076,4506.153846,4226.153846,4488.205128,4171.282051,4422.051282,4204.102564,4225.128205,4492.820512,4182.564102,4622.564102,3963.589744,4045.128205
79,4363.589743,4395.897435,4502.564102,4211.794871,4492.820512,4169.230769,4417.948717,4199.487179,4218.461538,4498.461538,4192.820512,4622.051282,3980.000000,4043.076923
80,4369.230769,4400.000000,4510.769230,4225.128205,4487.179487,4167.692307,4424.615384,4209.230769,4214.358974,4500.000000,4206.666666,4625.641025,3985.128206,4044.615384
81,4357.435897,4389.743589,4507.179487,4236.923076,4480.512820,4163.076923,4425.128205,4207.179487,4216.923076,4496.410256,4201.538461,4622.051282,3958.974359,4039.487179
82,4353.846153,4378.461538,4503.076923,4231.282051,4483.589743,4162.564102,4423.589743,4198.461538,4215.897435,4498.974358,4191.794871,4621.538461,3958.974359,4038.974358
83,4367.179487,4387.692307,4511.282051,4238.461538,4484.102564,4167.692307,4427.692307,4202.564102,4217.948717,4504.102564,4198.461538,4629.230769,3989.743590,4050.769230
84,4372.820512,4402.564102,4512.820512,4246.666666,4478.974358,4171.794871,4424.615384,4208.717948,4221.025641,4502.051282,4208.717948,4632.820512,3993.333334,4058.461538
85,4365.128205,4398.974358,4503.076923,4231.282051,4481.025641,4166.666666,4416.410256,4201.538461,4214.358974,4496.923076,4197.948717,4624.102564,3967.179488,4048.717948
86,4361.538461,4385.641025,4501.538461,4224.102564,4484.615384,4161.538461,4414.871794,4193.333333,4213.333333,4492.820512,4187.692307,4618.974358,3957.435898,4037.435897
87,4366.666666,4386.666666,4507.179487,4232.307692,4483.076923,4163.076923,4413.846153,4196.923076,4218.461538,4490.769230,4197.435897,4624.102564,3969.743590,4041.025641
88,4367.692307,4390.256410,4512.307692,4232.307692,4478.974358,4158.974358,4410.769230,4197.435897,4214.358974,4491.794871,4200.000000,4625.641025,3981.538462,4050.256410
89,4367.179487,4389.230769,4513.846153,4225.128205,4476.410256,4156.923076,4412.307692,4194.358974,4209.743589,4498.974358,4190.256410,4622.564102,3981.538462,4049.230769
90,4370.769230,4392.307692,4513.333333,4219.487179,4477.435897,4162.051282,4415.384615,4197.948717,4215.897435,4500.000000,4194.871794,4625.128205,3970.769231,4047.179487
91,4373.846153,4393.333333,4515.897435,4220.512820,4479.487179,4162.564102,4415.897435,4202.051282,4216.923076,4493.846153,4207.179487,4629.230769,3966.666667,4053.846153
92,4374.358974,4391.794871,4520.000000,4232.307692,4475.384615,4159.487179,4417.435897,4201.025641,4215.897435,4498.974358,4202.051282,4627.692307,3973.846154,4050.256410
93,4371.282051,4390.769230,4518.974358,4242.564102,4473.846153,4159.487179,4413.333333,4201.025641,4218.461538,4504.615384,4192.820512,4624.615384,3976.923077,4040.512820
94,4372.820512,4393.333333,4517.435897,4243.076923,4478.974358,4158.461538,4407.692307,4200.000000,4216.410256,4496.410256,4196.923076,4626.666666,3975.384616,4051.282051
95,4380.000000,4398.974358,4521.025641,4240.000000,4481.538461,4161.538461,4415.384615,4199.487179,4216.923076,4498.461538,4211.794871,4633.846153,3976.410257,4066.666666
96,4382.051282,4404.615384,4523.076923,4229.743589,4481.538461,4166.666666,4424.615384,4203.589743,4222.051282,4508.205128,4220.512820,4634.871794,3975.384616,4057.435897
97,4373.846153,4398.974358,4520.000000,4223.589743,4477.435897,4158.461538,4417.435897,4202.051282,4220.000000,4501.025641,4206.666666,4627.692307,3973.333334,4042.564102
98,4369.230769,4392.820512,4520.512820,4228.717948,4472.820512,4148.205128,4409.743589,4198.461538,4216.410256,4500.512820,4195.897435,4627.692307,3983.589744,4047.692307
99,4374.358974,4398.461538,4527.179487,4233.846153,4474.871794,4154.871794,4414.358974,4200.000000,4217.948717,4513.333333,4209.230769,4635.897435,3988.205129,4055.897435
100,4381.025641,4401.025641,4530.256410,4234.358974,4479.487179,4163.076923,4417.435897,4201.538461,4215.897435,4506.153846,4215.897435,4637.948717,3971.794872,4052.820512
101,4381.538461,4392.820512,4523.589743,4225.641025,4478.974358,4162.051282,4415.897435,4199.487179,4215.384615,4494.871794,4205.128205,4635.384615,3960.000000,4047.692307
102,4376.410256,4384.102564,4517.435897,4211.282051,4474.358974,4155.384615,4413.333333,4189.743589,4216.923076,4493.333333,4201.025641,4630.256410,3959.487180,4042.564102
103,4370.256410,4386.666666,4515.897435,4211.794871,4471.794871,4151.794871,4409.743589,4180.512820,4212.307692,4490.769230,4197.948717,4622.051282,3959.487180,4038.974358
104,4373.333333,4400.000000,4519.487179,4229.743589,4474.358974,4158.461538,4416.410256,4191.794871,4214.871794,4496.410256,4202.051282,4626.153846,3971.794872,4047.692307
105,4380.512820,4403.076923,4525.641025,4236.923076,4485.128205,4169.230769,4425.128205,4204.615384,4221.538461,4509.230769,4220.512820,4636.410256,3973.846154,4051.794871
106,4377.948717,4391.282051,4521.538461,4229.743589,4491.282051,4169.230769,4422.564102,4194.358974,4212.307692,4507.692307,4215.897435,4630.256410,3953.333334,4041.025641
107,4373.333333,4388.205128,4517.435897,4228.717948,4481.025641,4160.000000,4414.871794,4184.102564,4205.128205,4494.358974,4188.717948,4624.615384,3961.538462,4040.512820
108,4378.461538,4396.410256,4523.589743,4232.820512,4471.282051,4154.871794,4414.358974,4185.128205,4213.333333,4488.717948,4191.282051,4632.820512,3988.717949,4051.282051
109,4382.051282,4398.461538,4525.641025,4235.897435,4474.358974,4157.435897,4416.923076,4190.256410,4218.974358,4496.410256,4214.358974,4634.358974,3977.435898,4055.897435
110,4373.333333,4389.743589,4516.410256,4229.230769,4475.384615,4160.000000,4416.410256,4196.410256,4217.948717,4506.153846,4215.384615,4628.205128,3954.871795,4047.692307
111,4364.615384,4381.025641,4512.820512,4217.435897,4472.307692,4156.923076,4413.333333,4193.333333,4213.846153,4505.641025,4194.871794,4629.230769,3961.538462,4035.384615
112,4370.256410,4384.102564,4517.435897,4222.051282,4472.820512,4155.384615,4411.794871,4188.205128,4206.153846,4501.025641,4187.692307,4628.205128,3975.897436,4036.923076
113,4381.538461,4398.461538,4521.025641,4227.179487,4474.871794,4160.512820,4420.000000,4194.358974,4213.333333,4499.487179,4206.153846,4625.641025,3975.384616,4050.769230
114,4381.025641,4407.692307,4523.076923,4223.589743,4476.923076,4163.589743,4426.153846,4198.461538,4228.205128,4497.435897,4220.512820,4629.230769,3967.692308,4053.333333
115,4367.692307,4393.333333,4516.410256,4230.256410,4476.410256,4157.948717,4417.435897,4185.641025,4214.871794,4493.333333,4205.641025,4627.179487,3956.410257,4038.974358
116,4358.461538,4377.435897,4509.743589,4227.692307,4474.871794,4152.820512,4406.153846,4173.333333,4193.333333,4484.615384,4183.589743,4616.923076,3948.205129,4028.205128
117,4366.153846,4387.179487,4512.307692,4216.410256,4474.871794,4156.923076,4411.282051,4175.897435,4200.512820,4483.589743,4188.717948,4620.000000,3957.948718,4034.358974
118,4378.461538,4403.076923,4515.897435,4223.589743,4474.871794,4160.000000,4418.974358,4184.102564,4210.769230,4493.846153,4198.974358,4632.820512,3973.846154,4048.717948
119,4378.461538,4397.948717,4514.871794,4224.102564,4473.333333,4156.923076,4413.846153,4184.615384,4207.692307,4495.384615,4198.461538,4631.794871,3967.179488,4050.769230
120,4372.307692,4389.230769,4518.974358,4216.410256,4472.820512,4157.948717,4411.282051,4188.205128,4217.948717,4494.871794,4204.615384,4629.230769,3951.282052,4043.076923
121,4375.897435,4395.384615,4522.564102,4232.307692,4474.871794,4161.538461,4416.410256,4195.384615,4224.615384,4498.974358,4207.692307,4633.333333,3961.538462,4045.128205
122,4384.615384,4399.487179,4522.051282,4236.923076,4478.461538,4165.128205,4417.948717,4194.871794,4212.820512,4504.102564,4203.589743,4632.820512,3982.051283,4052.820512
123,4384.102564,4398.974358,4525.641025,4215.897435,4479.487179,4165.128205,4415.384615,4193.333333,4209.230769,4506.153846,4207.692307,4633.846153,3984.102565,4051.282051
124,4374.358974,4399.487179,4522.564102,4210.769230,4478.974358,4157.948717,4411.794871,4194.358974,4215.897435,4498.974358,4210.256410,4635.384615,3970.256411,4041.538461
125,4371.282051,4396.923076,4517.948717,4225.641025,4477.948717,4157.435897,4412.820512,4193.846153,4221.025641,4495.384615,4207.179487,4633.846153,3956.410257,4038.974358
126,4377.948717,4397.435897,4526.153846,4241.538461,4477.435897,4164.615384,4417.948717,4196.410256,4224.615384,4506.666666,4213.333333,4634.871794,3958.974359,4045.128205
127,4378.974358,4398.461538,4528.205128,4244.102564,4477.948717,4165.128205,4417.435897,4200.000000,4223.076923,4510.769230,4214.358974,4635.897435,3973.846154,4043.076923
128,4370.769230,4389.743589,4513.846153,4234.871794,4476.410256,4160.000000,4413.333333,4196.923076,4211.794871,4496.923076,4198.461538,4630.256410,3974.358975,4035.897435
129,4372.307692,4384.102564,4512.307692,4230.256410,4475.384615,4163.076923,4416.410256,4189.230769,4205.128205,4491.794871,4184.615384,4629.743589,3961.538462,4036.410256
130,4378.461538,4395.384615,4521.025641,4221.538461,4482.051282,4166.153846,4420.512820,4191.794871,4207.179487,4492.820512,4194.358974,4633.846153,3961.025642,4037.435897
131,4372.307692,4401.538461,4516.923076,4212.820512,4486.666666,4164.102564,4415.897435,4196.923076,4211.794871,4492.820512,4214.871794,4631.282051,3960.512821,4032.307692
132,4367.179487,4393.846153,4514.358974,4226.153846,4481.025641,4164.102564,4411.794871,4193.846153,4218.974358,4500.512820,4215.897435,4629.230769,3957.948718,4031.794871
133,4377.948717,4389.743589,4516.923076,4239.487179,4475.897435,4159.487179,4412.820512,4189.743589,4217.948717,4508.205128,4204.102564,4627.692307,3967.692308,4040.512820
134,4380.512820,4382.564102,4512.820512,4230.769230,4473.333333,4151.794871,4409.230769,4189.230769,4205.128205,4502.051282,4201.025641,4623.076923,3969.743590,4041.025641
135,4370.769230,4377.435897,4508.205128,4216.410256,4472.820512,4154.871794,4408.717948,4186.666666,4203.589743,4495.384615,4192.820512,4622.564102,3958.974359,4031.794871
136,4373.846153,4391.282051,4514.871794,4213.846153,4477.948717,4163.076923,4415.384615,4188.205128,4214.871794,4497.435897,4184.615384,4631.794871,3963.589744,4031.282051
137,4384.615384,4405.128205,4520.512820,4224.615384,4482.051282,4163.076923,4417.435897,4191.794871,4210.256410,4495.897435,4202.564102,4637.435897,3973.846154,4040.512820
138,4381.538461,4398.974358,4523.076923,4235.897435,4475.384615,4155.897435,4413.333333,4185.128205,4201.025641,4495.897435,4221.025641,4633.333333,3961.538462,4044.102564
139,4380.512820,4393.333333,4525.641025,4235.384615,4469.743589,4154.358974,4412.820512,4182.564102,4206.666666,4506.153846,4217.948717,4635.384615,3949.230770,4043.076923
140,4386.153846,4398.461538,4521.538461,4233.846153,4481.025641,4158.461538,4414.871794,4187.179487,4211.282051,4506.153846,4207.179487,4640.512820,3962.564103,4040.512820
141,4381.025641,4402.564102,4517.948717,4237.435897,4489.230769,4161.538461,4413.846153,4186.153846,4209.743589,4497.435897,4198.974358,4637.435897,3973.333334,4036.923076
142,4374.871794,4399.487179,4519.487179,4227.692307,4475.897435,4158.461538,4410.769230,4184.102564,4208.205128,4495.384615,4195.897435,4631.282051,3966.153847,4033.846153
143,4378.974358,4392.820512,4518.461538,4218.974358,4465.128205,4151.794871,4409.230769,4186.153846,4204.615384,4487.692307,4203.589743,4629.743589,3955.384616,4035.897435
144,4380.512820,4393.333333,4517.948717,4232.820512,4473.846153,4150.256410,4411.794871,4194.358974,4209.743589,4488.205128,4212.820512,4636.410256,3953.333334,4041.538461
145,4380.512820,4401.538461,4524.102564,4250.256410,4480.000000,4158.974358,4415.384615,4201.025641,4220.512820,4507.692307,4207.692307,4643.076923,3957.948718,4041.025641
146,4386.153846,4407.692307,4526.666666,4247.692307,4476.923076,4164.102564,4414.871794,4197.948717,4217.435897,4511.282051,4192.820512,4640.512820,3965.641026,4036.410256
147,4385.128205,4408.717948,4522.051282,4235.897435,4474.871794,4158.461538,4414.871794,4197.435897,4216.410256,4501.025641,4194.358974,4638.461538,3972.820513,4044.102564
148,4377.435897,4408.717948,4521.025641,4231.794871,4477.948717,4156.923076,4415.384615,4202.051282,4222.051282,4504.102564,4215.384615,4641.538461,3967.692308,4051.282051
149,4379.487179,4401.025641,4517.948717,4232.307692,4481.025641,4162.051282,4412.820512,4196.410256,4212.820512,4501.025641,4219.487179,4637.435897,3957.435898,4039.487179
150,4384.615384,4395.384615,4515.897435,4234.871794,4482.051282,4161.538461,4413.333333,4190.769230,4205.128205,4487.692307,4207.692307,4633.846153,3958.974359,4034.871794
151,4383.076923,4405.641025,4523.076923,4236.410256,4483.076923,4157.435897,4415.384615,4195.897435,4210.769230,4491.282051,4208.717948,4640.512820,3966.666667,4045.128205
152,4382.051282,4413.333333,4526.666666,4233.846153,4483.076923,4160.000000,4413.846153,4198.974358,4216.923076,4506.153846,4208.717948,4646.153846,3975.897436,4050.769230
153,4384.615384,4406.153846,4518.974358,4233.846153,4478.461538,4158.974358,4412.820512,4198.974358,4219.487179,4510.256410,4205.641025,4642.051282,3975.897436,4049.230769
154,4383.076923,4402.051282,4515.384615,4232.307692,4474.358974,4152.820512,4413.846153,4198.461538,4216.410256,4503.589743,4211.794871,4635.897435,3963.076924,4043.076923
155,4380.512820,4405.641025,4515.897435,4229.743589,4474.358974,4152.307692,4410.769230,4190.769230,4207.179487,4493.846153,4207.179487,4634.871794,3956.410257,4037.435897
156,4383.589743,4405.641025,4513.333333,4235.897435,4481.025641,4158.461538,4409.230769,4182.564102,4205.641025,4491.282051,4191.794871,4636.410256,3963.076924,4037.435897
157,4386.666666,4412.820512,4517.948717,4247.179487,4485.641025,4163.589743,4413.846153,4185.641025,4213.333333,4494.871794,4198.974358,4640.512820,3968.205129,4044.102564
158,4377.948717,4415.384615,4520.000000,4240.000000,4485.641025,4159.487179,4412.307692,4187.692307,4211.282051,4495.897435,4210.256410,4638.461538,3960.000000,4044.615384
159,4372.820512,4402.051282,4512.307692,4226.153846,4481.025641,4151.282051,4407.179487,4182.051282,4206.153846,4492.820512,4201.538461,4632.307692,3950.256411,4041.025641
160,4383.589743,4404.102564,4516.410256,4230.256410,4480.512820,4155.384615,4409.743589,4185.641025,4214.871794,4495.897435,4201.538461,4635.897435,3962.051283,4046.153846
161,4391.794871,4417.948717,4528.205128,4234.871794,4486.666666,4163.589743,4417.435897,4193.333333,4220.512820,4498.974358,4205.128205,4642.051282,3977.948718,4046.666666
162,4388.205128,4412.820512,4524.615384,4232.820512,4487.179487,4161.025641,4419.487179,4188.205128,4205.128205,4493.333333,4200.000000,4638.461538,3969.743590,4035.897435
163,4383.076923,4404.615384,4518.461538,4234.871794,4479.487179,4154.358974,4414.871794,4186.153846,4200.000000,4489.230769,4206.666666,4635.897435,3954.358975,4037.435897
164,4382.051282,4409.743589,4523.076923,4224.102564,4480.000000,4160.512820,4418.461538,4198.974358,4220.000000,4497.435897,4218.461538,4641.025641,3953.846154,4047.179487
165,4388.205128,4411.282051,4523.076923,4216.923076,4491.282051,4169.743589,4426.153846,4204.615384,4229.743589,4507.179487,4210.769230,4642.051282,3960.000000,4042.051282
166,4394.358974,4406.666666,4517.948717,4233.333333,4492.820512,4164.102564,4423.589743,4204.102564,4226.666666,4512.307692,4198.974358,4640.512820,3971.794872,4036.923076
167,4384.615384,4402.564102,4517.435897,4234.358974,4482.051282,4151.282051,4411.282051,4201.025641,4220.512820,4507.692307,4200.000000,4638.461538,3973.333334,4040.000000
168,4372.307692,4393.333333,4513.846153,4212.820512,4474.871794,4150.769230,4406.666666,4190.256410,4207.692307,4493.846153,4199.487179,4628.717948,3957.948718,4035.384615
169,4376.923076,4394.871794,4514.871794,4221.025641,4479.487179,4162.564102,4417.948717,4195.897435,4211.282051,4492.820512,4204.615384,4629.230769,3963.076924,4038.461538
170,4388.205128,4408.717948,4523.589743,4235.897435,4488.205128,4172.307692,4428.717948,4214.358974,4229.230769,4508.205128,4216.923076,4644.102564,3982.051283,4055.897435
171,4392.307692,4409.743589,4525.641025,4222.051282,4488.717948,4169.743589,4426.153846,4217.948717,4231.282051,4510.256410,4214.358974,4647.692307,3978.974359,4060.000000
172,4392.820512,4401.025641,4525.128205,4216.923076,4483.076923,4162.564102,4418.974358,4213.846153,4227.692307,4505.128205,4198.974358,4643.589743,3972.820513,4056.410256
173,4387.692307,4398.974358,4524.102564,4224.102564,4478.974358,4162.564102,4418.461538,4212.307692,4230.256410,4511.794871,4194.871794,4643.589743,3984.102565,4058.974358
174,4373.333333,4397.435897,4515.897435,4215.897435,4481.538461,4166.153846,4420.512820,4207.179487,4220.512820,4508.205128,4200.512820,4638.461538,3988.205129,4052.820512
175,4370.769230,4394.871794,4512.820512,4209.743589,4490.769230,4168.205128,4422.051282,4204.615384,4214.358974,4496.410256,4203.076923,4632.307692,3978.974359,4045.128205
176,4386.153846,4399.487179,4521.025641,4217.435897,4491.794871,4168.717948,4426.153846,4213.333333,4230.256410,4509.743589,4206.153846,4640.512820,3983.589744,4055.384615
177,4388.205128,4398.974358,4522.051282,4215.384615,4487.179487,4170.256410,4429.743589,4215.897435,4234.871794,4522.564102,4203.076923,4646.666666,3989.743590,4059.487179
178,4372.820512,4387.179487,4511.794871,4210.769230,4491.794871,4172.307692,4423.589743,4206.153846,4219.487179,4503.589743,4191.794871,4632.820512,3974.871795,4044.615384
179,4373.333333,4391.282051,4510.769230,4214.871794,4490.256410,4169.230769,4416.410256,4196.923076,4212.820512,4485.128205,4193.846153,4626.666666,3972.820513,4046.153846
180,4382.564102,4406.666666,4518.461538,4213.333333,4476.410256,4160.512820,4419.487179,4201.025641,4217.435897,4491.794871,4208.205128,4642.051282,3995.897436,4060.512820
181,4380.512820,4405.128205,4520.000000,4214.358974,4476.410256,4158.461538,4423.589743,4206.666666,4224.102564,4500.512820,4205.128205,4649.743589,4001.538461,4057.948717
182,4381.538461,4400.000000,4517.948717,4221.025641,4488.717948,4164.615384,4415.897435,4202.564102,4230.256410,4502.051282,4194.871794,4639.487179,3986.666667,4051.794871
183,4390.769230,4408.717948,4522.564102,4224.102564,4491.282051,4167.179487,4409.230769,4199.487179,4228.205128,4507.692307,4202.051282,4634.358974,3986.666667,4061.538461
184,4393.333333,4417.948717,4528.205128,4229.230769,4489.230769,4168.205128,4413.333333,4206.153846,4218.974358,4512.307692,4210.256410,4643.589743,4000.000000,4067.179487
185,4388.717948,4412.820512,4526.153846,4234.358974,4490.256410,4168.717948,4417.435897,4211.794871,4217.948717,4507.179487,4211.282051,4650.256410,4000.512820,4063.076923
186,4387.179487,4407.179487,4524.102564,4225.641025,4486.153846,4162.564102,4414.871794,4207.179487,4219.487179,4503.589743,4222.051282,4648.205128,3995.897436,4061.538461
187,4390.256410,4407.692307,4525.128205,4215.897435,4483.076923,4161.025641,4413.846153,4205.641025,4220.000000,4499.487179,4215.384615,4645.128205,3995.384616,4060.000000
188,4392.820512,4404.102564,4522.564102,4216.410256,4489.230769,4169.230769,4416.410256,4207.692307,4222.564102,4496.923076,4188.717948,4647.179487,3993.846154,4056.923076
189,4389.743589,4401.025641,4521.025641,4221.538461,4493.333333,4169.743589,4418.974358,4203.076923,4220.512820,4501.538461,4192.307692,4647.179487,3990.769231,4056.923076
190,4387.179487,4407.179487,4524.615384,4231.282051,4485.128205,4163.076923,4421.538461,4205.128205,4218.461538,4508.205128,4213.846153,4644.615384,3992.307693,4061.025641
191,4393.846153,4417.948717,4531.282051,4235.897435,4482.051282,4166.153846,4427.692307,4219.487179,4228.205128,4510.256410,4215.897435,4649.230769,3999.487180,4070.769230
192,4402.564102,4417.948717,4533.333333,4234.871794,4485.641025,4171.794871,4431.282051,4220.512820,4235.384615,4507.692307,4209.743589,4654.871794,4000.000000,4076.923076
193,4396.410256,4408.205128,4528.205128,4235.384615,4481.538461,4162.051282,4424.615384,4204.102564,4225.641025,4498.461538,4212.307692,4647.179487,3992.820513,4064.615384
194,4380.000000,4402.051282,4516.410256,4224.615384,4473.333333,4155.384615,4413.333333,4193.846153,4207.179487,4485.641025,4203.589743,4631.282051,3977.948718,4041.538461
195,4368.717948,4395.897435,4510.256410,4208.205128,4475.384615,4162.564102,4415.384615,4192.307692,4195.897435,4485.641025,4182.051282,4626.153846,3966.153847,4037.948717
196,4368.717948,4391.794871,4514.358974,4211.282051,4481.538461,4166.153846,4423.589743,4194.358974,4202.564102,4493.333333,4172.820512,4629.743589,3972.820513,4048.717948
197,4374.871794,4401.025641,4514.871794,4222.051282,4477.948717,4160.512820,4418.974358,4195.384615,4213.333333,4488.717948,4183.076923,4631.794871,3976.923077,4045.128205
198,4380.512820,4409.230769,4513.333333,4210.769230,4476.410256,4156.410256,4413.333333,4199.487179,4210.256410,4482.564102,4200.512820,4633.846153,3967.179488,4033.333333
199,4382.051282,4399.487179,4513.333333,4196.410256,4477.435897,4160.000000,4419.487179,4200.000000,4202.564102,4488.205128,4207.692307,4634.358974,3963.589744,4036.410256
200,4378.461538,4390.256410,4515.384615,4213.333333,4476.923076,4164.615384,4424.102564,4200.512820,4211.282051,4502.051282,4197.435897,4635.384615,3972.307693,4050.256410
201,4374.871794,4395.897435,4514.358974,4233.846153,4476.410256,4162.051282,4417.435897,4202.564102,4223.076923,4504.615384,4182.051282,4636.410256,3975.897436,4047.692307
202,4377.435897,4405.128205,4510.769230,4226.666666,4476.410256,4153.846153,4412.307692,4198.461538,4216.410256,4492.820512,4187.179487,4635.897435,3968.205129,4036.923076
203,4384.615384,4406.666666,4511.794871,4210.769230,4472.820512,4152.307692,4412.820512,4196.923076,4212.307692,4488.205128,4201.538461,4635.384615,3963.076924,4041.538461
204,4382.564102,4396.923076,4513.846153,4206.153846,4465.641025,4154.871794,4414.358974,4200.512820,4215.384615,4496.410256,4194.871794,4633.333333,3962.051283,4048.205128
205,4374.358974,4385.128205,4512.820512,4213.846153,4467.179487,4151.794871,4413.333333,4200.000000,4213.846153,4502.564102,4191.282051,4631.282051,3973.333334,4042.051282
206,4380.512820,4393.333333,4514.358974,4221.025641,4474.358974,4152.307692,4411.794871,4196.923076,4213.846153,4500.000000,4202.051282,4635.384615,3985.128206,4042.051282
207,4397.435897,4409.230769,4520.000000,4218.461538,4478.974358,4153.846153,4412.307692,4197.948717,4217.435897,4494.871794,4200.512820,4641.025641,3975.897436,4055.384615
208,4401.538461,4407.179487,4521.538461,4217.948717,4471.794871,4154.358974,4414.871794,4200.000000,4212.307692,4489.743589,4198.974358,4640.000000,3964.615385,4061.538461
209,4388.717948,4399.487179,4516.410256,4214.871794,4467.179487,4154.358974,4417.948717,4194.358974,4208.717948,4492.820512,4204.615384,4633.846153,3971.794872,4051.282051
210,4376.410256,4394.871794,4508.717948,4200.000000,4467.179487,4151.282051,4412.820512,4183.589743,4212.307692,4499.487179,4185.128205,4626.153846,3972.307693,4035.384615
211,4381.538461,4394.358974,4508.717948,4208.717948,4465.128205,4150.769230,4412.307692,4186.666666,4210.769230,4497.948717,4170.256410,4625.128205,3959.487180,4034.358974
212,4396.410256,4403.589743,4520.512820,4234.871794,4468.717948,4154.358974,4423.076923,4202.051282,4211.282051,4492.307692,4191.794871,4634.871794,3962.051283,4049.743589
213,4401.025641,4411.794871,4527.179487,4229.230769,4474.871794,4156.410256,4426.153846,4203.076923,4210.256410,4487.179487,4211.794871,4641.538461,3969.743590,4056.923076
214,4390.256410,4405.641025,4520.000000,4210.769230,4474.871794,4154.358974,4417.435897,4191.794871,4204.615384,4488.205128,4201.538461,4635.384615,3966.666667,4049.743589
215,4375.897435,4393.846153,4510.769230,4213.333333,4472.307692,4153.333333,4414.871794,4186.153846,4206.666666,4492.820512,4183.076923,4623.076923,3960.000000,4034.871794
216,4370.769230,4385.641025,4509.230769,4216.923076,4466.153846,4148.717948,4416.410256,4184.615384,4210.256410,4489.230769,4180.512820,4619.487179,3947.179488,4022.051282
217,4376.410256,4380.512820,4510.256410,4213.846153,4457.435897,4145.641025,4415.897435,4189.230769,4203.589743,4484.102564,4183.589743,4624.102564,3943.076924,4027.692307
218,4382.051282,4387.179487,4513.846153,4216.410256,4463.076923,4151.794871,4421.025641,4197.948717,4197.948717,4487.179487,4183.589743,4625.641025,3957.948718,4042.051282
219,4380.512820,4398.461538,4517.435897,4215.384615,4475.897435,4156.923076,4427.692307,4200.512820,4199.487179,4482.564102,4182.051282,4624.615384,3961.025642,4036.923076
220,4376.923076,4397.435897,4515.384615,4213.846153,4473.846153,4154.871794,4426.666666,4197.948717,4204.102564,4475.897435,4191.794871,4629.743589,3948.205129,4023.589743
221,4381.025641,4393.846153,4517.948717,4225.641025,4470.256410,4152.307692,4426.153846,4200.512820,4211.282051,4489.230769,4200.000000,4635.384615,3950.256411,4028.205128
222,4383.589743,4391.282051,4521.538461,4230.769230,4475.384615,4160.000000,4429.230769,4202.564102,4212.307692,4496.410256,4187.692307,4635.384615,3953.333334,4039.487179
223,4377.435897,4385.128205,4517.435897,4221.538461,4478.974358,4164.102564,4430.256410,4200.000000,4210.769230,4487.179487,4181.025641,4633.846153,3940.512821,4036.923076
224,4372.820512,4387.692307,4511.794871,4213.846153,4478.461538,4161.538461,4428.205128,4198.461538,4215.897435,4484.615384,4188.717948,4630.769230,3941.025642,4026.153846
225,4377.435897,4403.076923,4515.384615,4209.743589,4477.435897,4164.615384,4428.205128,4201.025641,4220.512820,4491.794871,4188.717948,4630.256410,3958.974359,4024.102564
226,4385.641025,4412.307692,4520.000000,4218.974358,4474.871794,4163.589743,4428.205128,4208.205128,4223.589743,4503.076923,4190.769230,4635.897435,3963.589744,4034.871794
227,4395.897435,4408.205128,4520.512820,4238.461538,4474.871794,4158.974358,4429.230769,4210.256410,4229.230769,4513.846153,4207.692307,4643.076923,3956.410257,4045.128205
228,4396.923076,4401.538461,4520.512820,4244.615384,4475.384615,4162.051282,4429.743589,4203.589743,4229.743589,4510.256410,4210.769230,4642.051282,3962.051283,4045.641025
229,4386.153846,4403.076923,4518.461538,4232.820512,4477.435897,4166.666666,4426.666666,4197.948717,4221.025641,4498.974358,4197.435897,4636.410256,3974.871795,4041.538461
230,4386.153846,4411.794871,4520.512820,4220.512820,4484.615384,4163.589743,4426.666666,4204.615384,4215.384615,4498.461538,4195.897435,4639.487179,3979.487180,4041.538461
231,4397.435897,4410.256410,4527.692307,4220.512820,4488.205128,4166.666666,4437.948717,4215.384615,4226.153846,4505.128205,4205.641025,4645.641025,3973.846154,4045.641025
232,4396.410256,4399.487179,4527.179487,4229.743589,4485.641025,4171.282051,4441.538461,4211.282051,4235.897435,4511.282051,4207.692307,4641.538461,3964.102565,4042.564102
233,4388.205128,4403.076923,4518.461538,4242.051282,4485.641025,4165.641025,4428.717948,4199.487179,4222.051282,4510.769230,4196.923076,4632.820512,3953.846154,4034.358974
234,4384.615384,4415.897435,4514.358974,4243.589743,4487.179487,4166.666666,4423.589743,4196.410256,4210.769230,4501.025641,4193.333333,4632.820512,3955.384616,4035.384615
235,4390.256410,4416.923076,4521.538461,4236.923076,4489.743589,4171.282051,4428.205128,4200.512820,4214.871794,4496.923076,4203.076923,4640.000000,3968.205129,4043.589743
236,4393.846153,4406.666666,4524.615384,4230.769230,4488.717948,4167.692307,4430.256410,4197.948717,4214.358974,4498.461538,4205.641025,4642.051282,3970.256411,4042.051282
237,4391.794871,4407.179487,4523.589743,4232.307692,4483.076923,4167.692307,4435.384615,4201.538461,4217.948717,4499.487179,4197.435897,4641.538461,3961.025642,4038.974358
238,4391.794871,4417.948717,4525.128205,4234.358974,4475.897435,4168.717948,4437.435897,4211.282051,4230.769230,4502.564102,4200.512820,4644.615384,3963.076924,4045.641025
239,4390.769230,4413.846153,4521.538461,4229.743589,4473.333333,4158.974358,4428.205128,4207.179487,4224.615384,4503.076923,4208.717948,4647.179487,3971.282052,4045.641025
240,4386.666666,4403.076923,4520.000000,4233.333333,4482.564102,4158.461538,4427.179487,4205.641025,4216.923076,4498.974358,4205.128205,4643.076923,3971.794872,4041.025641
241,4386.153846,4405.128205,4522.564102,4228.717948,4487.692307,4166.153846,4433.333333,4214.871794,4226.153846,4495.384615,4192.307692,4633.846153,3962.051283,4037.435897
242,4385.641025,4410.769230,4520.512820,4215.897435,4478.461538,4161.025641,4430.256410,4212.307692,4225.641025,4498.461538,4188.717948,4636.410256,3955.897436,4037.435897
243,4389.230769,4412.820512,4521.025641,4226.153846,4479.487179,4161.025641,4425.641025,4202.051282,4214.358974,4504.615384,4201.538461,4646.153846,3966.153847,4049.743589
244,4397.435897,4415.897435,4524.615384,4238.461538,4486.153846,4166.153846,4427.179487,4199.487179,4207.692307,4504.615384,4204.615384,4641.538461,3972.307693,4054.871794
245,4393.846153,4413.333333,4519.487179,4225.128205,4480.000000,4160.512820,4426.153846,4203.589743,4207.692307,4494.871794,4199.487179,4631.794871,3958.461539,4037.435897
246,4384.102564,4408.205128,4514.871794,4216.410256,4478.461538,4160.000000,4426.153846,4208.205128,4213.846153,4487.692307,4205.641025,4640.000000,3957.948718,4031.282051
247,4388.205128,4410.769230,4518.461538,4227.692307,4485.128205,4170.769230,4434.358974,4205.641025,4219.487179,4493.333333,4210.256410,4646.666666,3974.871795,4045.641025
248,4400.512820,4415.384615,4521.538461,4238.974358,4484.615384,4172.307692,4443.076923,4203.076923,4223.589743,4507.692307,4206.153846,4643.076923,3972.820513,4052.307692
249,4413.333333,4425.641025,4532.820512,4252.820512,4488.717948,4172.307692,4445.128205,4215.897435,4234.871794,4522.051282,4205.641025,4655.384615,3971.794872,4055.384615
250,4409.743589,4430.769230,4535.897435,4246.666666,4497.435897,4172.820512,4438.461538,4217.435897,4230.769230,4510.769230,4202.564102,4660.512820,3976.410257,4052.307692
251,4387.179487,4414.358974,4517.435897,4220.000000,4486.153846,4165.641025,4427.179487,4196.410256,4211.282051,4488.205128,4194.358974,4637.948717,3958.461539,4033.846153
252,4384.615384,4406.153846,4513.333333,4222.564102,4476.410256,4165.641025,4429.230769,4200.512820,4213.846153,4498.461538,4203.589743,4632.307692,3951.282052,4033.846153
253,4399.487179,4416.923076,4523.076923,4237.948717,4485.128205,4169.230769,4438.974358,4217.948717,4222.051282,4508.717948,4217.948717,4644.102564,3967.692308,4049.743589
254,4395.897435,4420.000000,4520.000000,4235.384615,4486.153846,4167.692307,4439.487179,4210.256410,4213.846153,4490.769230,4210.769230,4641.538461,3968.205129,4041.538461
255,4385.128205,4412.820512,4514.358974,4227.179487,4481.025641,4166.666666,4438.461538,4205.128205,4213.333333,4489.230769,4198.974358,4635.384615,3953.846154,4026.153846
256,4390.256410,4412.307692,4522.564102,4222.051282,4481.538461,4166.666666,4442.051282,4215.384615,4224.615384,4504.615384,4195.384615,4641.025641,3951.282052,4034.358974
257,4397.435897,4415.384615,4530.256410,4224.102564,4481.538461,4166.666666,4441.025641,4220.512820,4225.641025,4500.000000,4198.461538,4647.692307,3960.512821,4044.615384
258,4397.435897,4414.871794,4525.641025,4232.307692,4481.025641,4169.230769,4434.358974,4213.846153,4217.435897,4489.743589,4206.666666,4645.641025,3962.564103,4037.948717
259,4393.333333,4410.256410,4516.923076,4231.794871,4482.564102,4165.128205,4427.692307,4202.051282,4213.333333,4490.256410,4207.692307,4637.948717,3949.230770,4030.769230
