,AF3,F7,F3,FC5,T7,P7,O1,O2,P8,T8,FC6,F4,F8,AF4
0,4421.025641,4539.487179,4568.205128,4328.205128,4505.128205,4222.564102,4446.153846,4223.589743,4254.358974,4519.487179,4267.179487,4669.230769,4042.564102,4138.461538
1,4412.307692,4529.743589,4556.410256,4329.743589,4505.641025,4223.076923,4442.564102,4216.410256,4241.538461,4511.282051,4256.923076,4659.487179,4029.743589,4129.743589
2,4405.641025,4534.358974,4548.717948,4331.794871,4509.230769,4226.666666,4440.512820,4213.846153,4240.000000,4509.743589,4244.615384,4653.333333,4016.410256,4116.923076
3,4403.076923,4539.487179,4548.205128,4329.743589,4508.205128,4225.641025,4443.589743,4216.410256,4245.128205,4515.384615,4237.948717,4652.307692,4024.615384,4115.384615
4,4395.384615,4535.384615,4542.564102,4325.641025,4505.128205,4220.000000,4441.025641,4218.461538,4233.333333,4508.717948,4237.948717,4646.666666,4019.487179,4108.717948
5,4391.794871,4535.384615,4542.051282,4324.102564,4506.666666,4220.000000,4440.512820,4218.974358,4225.641025,4501.538461,4238.461538,4644.615384,4002.051282,4098.974358
6,4397.948717,4534.871794,4550.256410,4319.487179,4509.230769,4222.051282,4445.641025,4218.461538,4236.410256,4507.179487,4237.948717,4648.205128,4009.743589,4106.666666
7,4397.948717,4530.256410,4549.743589,4312.820512,4508.717948,4215.384615,4442.564102,4214.358974,4241.025641,4512.307692,4240.000000,4649.230769,4018.974358,4113.333333
8,4397.435897,4533.846153,4547.692307,4322.564102,4504.102564,4212.820512,4439.487179,4213.333333,4239.487179,4514.358974,4245.641025,4651.794871,4009.230769,4110.256410
9,4410.769230,4544.615384,4558.461538,4339.487179,4503.589743,4222.564102,4449.230769,4228.205128,4248.717948,4521.538461,4251.794871,4660.512820,4022.051282,4119.487179
10,4428.717948,4553.333333,4569.743589,4343.589743,4502.051282,4229.230769,4462.051282,4248.205128,4265.128205,4533.333333,4262.051282,4675.384615,4052.307692,4139.487179
11,4433.846153,4550.769230,4571.282051,4342.051282,4502.564102,4224.615384,4462.564102,4255.384615,4279.487179,4549.743589,4276.410256,4683.076923,4060.000000,4145.128205
12,4424.102564,4541.025641,4561.025641,4337.435897,4504.102564,4220.000000,4459.487179,4250.256410,4277.948717,4553.333333,4278.461538,4674.358974,4051.282051,4136.410256
13,4407.179487,4532.307692,4542.051282,4320.512820,4496.923076,4222.051282,4456.923076,4239.487179,4258.974358,4535.897435,4258.461538,4656.923076,4039.487179,4122.564102
14,4393.846153,4522.051282,4533.846153,4308.717948,4490.256410,4216.410256,4448.205128,4224.615384,4245.641025,4521.538461,4238.974358,4647.179487,4021.538461,4109.743589
15,4391.794871,4517.948717,4538.461538,4310.256410,4494.358974,4212.307692,4443.076923,4212.820512,4245.128205,4516.410256,4236.410256,4646.153846,4009.743589,4106.666666
16,4399.487179,4528.717948,4540.000000,4316.410256,4501.538461,4218.461538,4444.102564,4211.282051,4239.487179,4511.282051,4237.435897,4648.205128,4016.410256,4111.794871
17,4406.153846,4537.948717,4540.000000,4318.974358,4501.538461,4218.974358,4441.538461,4212.307692,4233.846153,4510.769230,4236.410256,4649.743589,4027.692307,4118.461538
18,4401.538461,4535.384615,4540.000000,4313.333333,4502.564102,4214.358974,4438.461538,4212.820512,4242.564102,4516.923076,4236.923076,4647.179487,4027.692307,4120.000000
19,4398.461538,4538.461538,4538.461538,4315.897435,4506.153846,4222.564102,4442.051282,4220.000000,4252.820512,4525.641025,4240.512820,4650.256410,4025.641025,4115.897435
20,4406.666666,4541.538461,4544.102564,4329.230769,4508.717948,4233.333333,4446.666666,4227.179487,4249.743589,4534.358974,4251.794871,4657.435897,4031.282051,4118.974358
21,4405.641025,4535.384615,4547.179487,4331.794871,4510.769230,4228.205128,4445.128205,4221.025641,4241.025641,4529.743589,4254.871794,4656.923076,4030.256410,4122.051282
22,4400.512820,4533.846153,4544.102564,4325.641025,4509.230769,4222.564102,4443.589743,4216.410256,4242.564102,4519.487179,4243.076923,4656.410256,4024.615384,4116.923076
23,4409.230769,4535.897435,4548.717948,4318.974358,4507.179487,4225.641025,4446.153846,4229.230769,4251.794871,4531.794871,4243.076923,4662.564102,4034.358974,4117.948717
24,4413.333333,4532.820512,4549.743589,4315.384615,4506.153846,4227.692307,4447.179487,4237.435897,4257.948717,4546.666666,4251.794871,4660.512820,4043.076923,4123.589743
25,4401.538461,4531.282051,4543.589743,4318.461538,4506.153846,4227.179487,4445.641025,4230.256410,4260.512820,4535.897435,4247.179487,4653.846153,4033.333333,4117.948717
26,4397.948717,4528.205128,4545.128205,4322.051282,4507.692307,4224.615384,4444.102564,4229.743589,4260.000000,4525.128205,4246.666666,4660.000000,4028.205128,4114.358974
27,4404.102564,4518.974358,4549.230769,4313.846153,4504.615384,4224.102564,4445.128205,4233.846153,4256.410256,4529.743589,4249.743589,4666.153846,4034.358974,4117.948717
28,4406.153846,4513.333333,4550.256410,4311.794871,4504.102564,4225.641025,4452.820512,4232.820512,4254.358974,4536.410256,4248.205128,4664.615384,4034.358974,4120.512820
29,4411.282051,4518.461538,4552.820512,4315.897435,4508.205128,4229.230769,4462.051282,4235.897435,4254.358974,4539.487179,4248.717948,4663.076923,4035.897435,4125.128205
30,4411.794871,4522.051282,4550.769230,4310.256410,4507.692307,4225.128205,4457.435897,4233.846153,4248.205128,4534.871794,4242.564102,4655.897435,4034.871794,4121.538461
31,4401.538461,4516.410256,4543.589743,4308.717948,4504.615384,4218.974358,4449.743589,4224.615384,4244.615384,4528.717948,4233.333333,4646.153846,4026.666666,4107.692307
32,4393.333333,4513.333333,4543.076923,4313.846153,4506.666666,4224.102564,4454.871794,4229.230769,4248.205128,4532.307692,4237.948717,4646.153846,4020.000000,4103.589743
33,4389.230769,4518.974358,4540.512820,4313.333333,4508.205128,4226.153846,4452.307692,4229.743589,4245.128205,4531.794871,4238.974358,4645.128205,4023.076923,4103.589743
34,4390.769230,4528.205128,4535.897435,4316.923076,4510.256410,4222.051282,4442.564102,4217.435897,4238.461538,4525.641025,4230.256410,4643.589743,4033.846153,4105.641025
35,4403.076923,4531.282051,4541.538461,4321.025641,4515.897435,4223.076923,4444.615384,4215.897435,4240.512820,4528.717948,4234.871794,4651.794871,4034.358974,4115.384615
36,4410.769230,4525.128205,4548.717948,4314.871794,4510.769230,4226.153846,4448.717948,4218.974358,4241.538461,4529.230769,4241.025641,4653.846153,4025.128205,4122.564102
37,4406.153846,4523.589743,4551.794871,4313.333333,4500.000000,4218.461538,4445.128205,4215.384615,4235.897435,4525.641025,4233.846153,4649.743589,4024.615384,4117.948717
38,4405.641025,4530.256410,4551.794871,4323.076923,4502.051282,4213.333333,4444.102564,4214.871794,4236.410256,4527.692307,4236.410256,4653.333333,4030.769230,4116.923076
39,4415.897435,4533.333333,4552.820512,4329.230769,4509.743589,4220.512820,4446.666666,4223.076923,4245.641025,4531.794871,4250.769230,4659.487179,4035.897435,4125.128205
40,4414.358974,4527.692307,4555.384615,4319.487179,4510.769230,4222.564102,4443.076923,4229.743589,4251.282051,4530.256410,4253.333333,4659.487179,4037.435897,4126.153846
41,4402.564102,4524.102564,4553.333333,4308.717948,4499.487179,4214.871794,4439.487179,4227.179487,4250.769230,4527.692307,4248.205128,4656.923076,4031.794871,4116.923076
42,4404.102564,4525.128205,4552.307692,4310.256410,4492.307692,4210.769230,4444.615384,4228.717948,4252.307692,4531.282051,4249.230769,4660.000000,4033.333333,4119.487179
43,4410.769230,4520.000000,4556.410256,4312.307692,4494.358974,4213.333333,4458.461538,4234.871794,4256.410256,4533.846153,4249.743589,4665.128205,4048.717948,4130.256410
44,4406.153846,4513.333333,4556.410256,4311.282051,4496.923076,4218.461538,4462.564102,4231.794871,4254.871794,4532.820512,4250.769230,4662.051282,4049.743589,4127.179487
45,4403.076923,4515.384615,4551.794871,4317.948717,4496.923076,4221.538461,4452.820512,4224.102564,4247.692307,4532.820512,4251.794871,4655.384615,4030.769230,4118.461538
46,4404.102564,4516.410256,4547.179487,4320.000000,4500.512820,4221.538461,4445.128205,4222.564102,4245.641025,4529.230769,4243.076923,4651.282051,4021.025641,4119.487179
47,4401.025641,4517.435897,4539.487179,4309.230769,4507.692307,4218.461538,4445.641025,4226.153846,4246.666666,4524.102564,4237.435897,4647.692307,4025.641025,4117.948717
48,4401.538461,4526.666666,4540.512820,4311.794871,4506.153846,4215.384615,4447.692307,4233.333333,4251.794871,4530.256410,4245.128205,4650.256410,4030.256410,4115.384615
49,4407.179487,4530.769230,4549.743589,4327.692307,4496.410256,4210.769230,4446.153846,4233.846153,4255.897435,4536.410256,4247.179487,4660.000000,4033.333333,4122.051282
50,4406.153846,4528.205128,4546.666666,4330.256410,4494.358974,4204.102564,4442.051282,4223.589743,4247.692307,4524.615384,4239.487179,4658.461538,4033.846153,4124.102564
51,4404.615384,4531.794871,4541.538461,4321.538461,4497.435897,4202.051282,4439.487179,4221.025641,4241.538461,4524.102564,4238.461538,4651.282051,4034.358974,4118.974358
52,4410.769230,4535.384615,4550.769230,4323.589743,4497.435897,4208.717948,4445.641025,4229.743589,4249.230769,4541.025641,4244.615384,4654.871794,4035.384615,4120.000000
53,4411.282051,4530.769230,4558.974358,4327.179487,4495.384615,4214.871794,4457.948717,4230.769230,4250.256410,4539.487179,4242.564102,4659.487179,4031.794871,4124.102564
54,4404.102564,4524.615384,4554.358974,4318.974358,4497.948717,4216.410256,4459.487179,4224.615384,4240.512820,4523.589743,4234.358974,4657.435897,4026.153846,4121.025641
55,4402.051282,4522.564102,4551.794871,4319.487179,4500.512820,4220.000000,4453.846153,4220.512820,4241.025641,4525.128205,4236.923076,4655.897435,4026.153846,4117.948717
56,4406.153846,4527.179487,4554.871794,4331.282051,4500.000000,4225.641025,4455.897435,4226.666666,4245.641025,4535.384615,4246.666666,4659.487179,4030.769230,4117.948717
57,4407.179487,4534.871794,4552.307692,4330.769230,4502.051282,4224.102564,4460.512820,4237.435897,4247.692307,4533.846153,4243.076923,4661.538461,4032.307692,4116.410256
58,4403.076923,4533.846153,4544.615384,4324.102564,4499.487179,4216.410256,4452.820512,4234.358974,4247.692307,4525.641025,4228.717948,4658.974358,4029.230769,4115.384615
59,4400.512820,4525.128205,4541.538461,4323.589743,4492.820512,4208.205128,4443.589743,4223.589743,4241.538461,4521.025641,4225.128205,4652.820512,4024.102564,4112.820512
60,4402.051282,4523.589743,4543.076923,4324.102564,4489.230769,4206.666666,4445.128205,4223.589743,4237.948717,4518.974358,4229.230769,4648.717948,4021.538461,4111.794871
61,4402.564102,4529.230769,4538.974358,4324.615384,4489.230769,4211.794871,4444.615384,4226.153846,4241.025641,4515.897435,4225.641025,4647.692307,4023.076923,4111.282051
62,4401.025641,4534.871794,4536.410256,4330.256410,4495.384615,4218.461538,4443.589743,4225.128205,4247.179487,4517.435897,4226.666666,4648.717948,4025.641025,4114.871794
63,4400.000000,4535.384615,4540.000000,4326.153846,4501.025641,4221.538461,4450.769230,4224.615384,4247.692307,4522.564102,4230.256410,4648.205128,4029.743589,4116.410256
64,4399.487179,4532.307692,4538.974358,4316.923076,4500.000000,4221.538461,4457.948717,4223.589743,4241.538461,4524.102564,4224.615384,4646.153846,4029.743589,4109.230769
65,4399.487179,4533.846153,4536.923076,4324.615384,4496.410256,4222.051282,4459.487179,4226.153846,4240.512820,4521.025641,4221.538461,4647.179487,4025.641025,4108.205128
66,4406.153846,4544.615384,4541.025641,4332.307692,4498.461538,4221.538461,4456.410256,4229.230769,4244.102564,4518.461538,4227.692307,4649.230769,4025.641025,4117.435897
67,4413.333333,4548.205128,4539.487179,4328.717948,4498.461538,4218.974358,4451.282051,4228.205128,4247.179487,4520.512820,4232.307692,4650.256410,4030.769230,4122.051282
68,4411.794871,4538.974358,4538.461538,4328.717948,4490.256410,4214.358974,4450.769230,4231.282051,4252.820512,4523.589743,4232.307692,4655.897435,4031.794871,4118.461538
69,4410.256410,4531.282051,4547.692307,4327.179487,4488.717948,4214.358974,4456.410256,4237.948717,4253.846153,4527.179487,4230.769230,4664.615384,4033.333333,4122.051282
70,4411.282051,4530.256410,4552.820512,4321.025641,4491.282051,4215.384615,4458.974358,4236.923076,4246.666666,4526.666666,4227.179487,4665.641025,4036.923076,4125.641025
71,4409.743589,4527.692307,4550.256410,4325.128205,4491.794871,4215.384615,4459.487179,4230.769230,4238.974358,4521.025641,4227.179487,4663.589743,4034.358974,4123.076923
72,4408.205128,4529.743589,4549.743589,4332.820512,4493.333333,4218.461538,4455.897435,4227.179487,4235.897435,4515.384615,4231.282051,4663.076923,4029.230769,4123.589743
73,4407.692307,4537.948717,4545.128205,4326.666666,4490.769230,4217.435897,4445.641025,4223.589743,4237.948717,4511.794871,4229.230769,4657.948717,4028.717948,4121.538461
74,4409.743589,4544.102564,4538.974358,4323.589743,4487.692307,4213.333333,4441.025641,4220.000000,4238.974358,4513.846153,4225.641025,4653.846153,4028.717948,4117.948717
75,4413.846153,4554.358974,4541.538461,4330.769230,4496.923076,4213.846153,4443.076923,4218.461538,4240.512820,4519.487179,4228.205128,4654.871794,4034.358974,4120.000000
76,4414.871794,4565.128205,4544.102564,4338.461538,4503.589743,4218.461538,4443.076923,4221.538461,4242.564102,4518.461538,4229.230769,4654.358974,4045.641025,4125.641025
77,4407.692307,4560.512820,4538.974358,4338.974358,4494.358974,4218.461538,4443.076923,4225.641025,4243.076923,4513.846153,4226.153846,4650.769230,4043.589743,4123.076923
78,4401.538461,4545.641025,4533.846153,4333.846153,4493.846153,4218.974358,4443.076923,4220.000000,4242.051282,4509.743589,4218.461538,4647.692307,4030.769230,4112.307692
79,4401.538461,4543.076923,4533.846153,4331.794871,4502.564102,4221.025641,4441.025641,4212.820512,4242.564102,4505.128205,4211.794871,4646.153846,4027.692307,4111.282051
80,4408.717948,4556.923076,4536.410256,4332.307692,4501.538461,4222.564102,4442.051282,4214.871794,4239.487179,4505.641025,4220.512820,4647.692307,4035.384615,4124.102564
81,4419.487179,4566.153846,4540.512820,4338.461538,4499.487179,4225.128205,4444.102564,4218.974358,4239.487179,4513.846153,4236.410256,4655.897435,4040.000000,4131.794871
82,4421.538461,4563.589743,4544.615384,4341.538461,4501.538461,4224.102564,4443.589743,4222.564102,4250.769230,4520.512820,4234.358974,4662.051282,4043.076923,4128.205128
83,4414.871794,4552.307692,4544.615384,4333.846153,4496.923076,4220.512820,4446.153846,4223.589743,4250.256410,4520.000000,4221.538461,4660.000000,4044.102564,4129.743589
84,4411.282051,4544.102564,4538.974358,4328.717948,4486.666666,4214.871794,4450.256410,4218.974358,4240.512820,4515.384615,4228.205128,4656.410256,4039.487179,4131.282051
85,4407.179487,4540.000000,4536.410256,4324.615384,4483.076923,4212.820512,4448.717948,4216.923076,4244.102564,4512.307692,4238.461538,4656.923076,4033.846153,4126.666666
86,4401.025641,4533.846153,4537.948717,4317.435897,4485.128205,4214.358974,4446.153846,4215.384615,4247.179487,4509.230769,4228.717948,4657.948717,4032.820512,4120.000000
87,4407.692307,4537.948717,4542.564102,4324.615384,4490.769230,4213.333333,4447.692307,4216.410256,4245.641025,4512.307692,4226.153846,4662.564102,4038.461538,4124.102564
88,4423.589743,4552.307692,4548.205128,4343.076923,4490.256410,4211.282051,4447.179487,4223.589743,4249.743589,4519.487179,4236.923076,4666.666666,4042.564102,4135.897435
89,4422.564102,4553.333333,4545.128205,4343.076923,4488.205128,4212.307692,4446.153846,4226.153846,4248.717948,4517.948717,4231.794871,4660.512820,4037.948717,4135.897435
90,4410.769230,4543.589743,4537.435897,4334.871794,4490.769230,4210.256410,4446.153846,4222.564102,4237.948717,4510.769230,4217.435897,4651.794871,4031.282051,4127.692307
91,4405.641025,4542.564102,4534.358974,4335.384615,4488.717948,4202.051282,4443.076923,4216.410256,4235.384615,4508.205128,4218.461538,4649.230769,4025.641025,4123.076923
92,4403.076923,4544.615384,4534.358974,4324.102564,4486.666666,4197.435897,4439.487179,4210.256410,4239.487179,4506.153846,4221.025641,4645.641025,4023.589743,4118.461538
93,4400.000000,4544.615384,4529.743589,4315.384615,4491.282051,4206.666666,4440.512820,4207.179487,4236.410256,4501.538461,4218.461538,4642.564102,4022.564102,4112.820512
94,4401.025641,4547.692307,4527.692307,4327.692307,4491.282051,4214.358974,4442.051282,4211.282051,4233.333333,4504.102564,4220.000000,4644.102564,4023.589743,4114.871794
95,4401.538461,4541.538461,4532.820512,4337.435897,4482.564102,4208.205128,4441.538461,4216.923076,4236.923076,4512.307692,4220.512820,4644.615384,4025.128205,4118.461538
96,4397.435897,4537.435897,4531.794871,4327.179487,4482.564102,4204.615384,4441.538461,4216.410256,4240.512820,4508.205128,4218.974358,4643.589743,4024.615384,4116.923076
97,4403.589743,4545.641025,4533.846153,4320.000000,4490.769230,4213.333333,4442.564102,4213.846153,4241.538461,4504.102564,4220.512820,4646.666666,4027.179487,4116.923076
98,4414.358974,4552.307692,4542.051282,4327.692307,4491.282051,4217.948717,4446.153846,4223.076923,4246.153846,4513.846153,4226.666666,4653.333333,4036.923076,4127.179487
99,4412.820512,4548.717948,4548.717948,4332.307692,4487.179487,4214.358974,4448.205128,4230.256410,4248.205128,4517.948717,4231.282051,4661.538461,4041.538461,4132.820512
100,4411.794871,4545.641025,4550.256410,4331.794871,4487.692307,4214.871794,4446.666666,4225.641025,4247.692307,4513.333333,4236.410256,4666.153846,4040.000000,4130.256410
101,4420.512820,4547.179487,4550.256410,4332.307692,4490.256410,4216.923076,4450.256410,4224.102564,4252.820512,4518.974358,4236.923076,4665.641025,4045.128205,4133.846153
102,4421.538461,4548.205128,4549.743589,4331.282051,4491.282051,4213.333333,4449.743589,4227.179487,4252.820512,4522.051282,4225.641025,4665.641025,4042.051282,4136.923076
103,4414.358974,4550.256410,4548.205128,4327.179487,4491.282051,4212.820512,4447.692307,4222.051282,4240.000000,4511.794871,4223.589743,4660.512820,4029.230769,4128.205128
104,4411.794871,4551.282051,4545.128205,4322.564102,4490.256410,4213.333333,4451.282051,4214.871794,4230.769230,4503.076923,4231.282051,4649.743589,4027.179487,4121.538461
105,4410.256410,4548.205128,4537.435897,4323.076923,4488.205128,4208.205128,4450.256410,4212.307692,4231.282051,4494.871794,4224.102564,4646.153846,4028.717948,4123.076923
106,4409.230769,4547.692307,4536.923076,4330.256410,4489.230769,4206.153846,4443.589743,4213.333333,4233.846153,4491.794871,4217.435897,4650.769230,4025.641025,4123.076923
107,4416.410256,4556.923076,4544.615384,4337.948717,4486.666666,4207.692307,4441.025641,4217.435897,4239.487179,4502.564102,4229.230769,4656.410256,4027.179487,4128.717948
108,4416.923076,4557.435897,4540.000000,4335.384615,4478.974358,4204.102564,4434.358974,4212.820512,4238.974358,4507.179487,4229.230769,4655.384615,4028.205128,4128.717948
109,4404.615384,4537.435897,4526.666666,4321.538461,4479.487179,4201.538461,4424.102564,4198.461538,4223.589743,4492.820512,4212.307692,4645.128205,4021.025641,4117.435897
110,4400.512820,4532.307692,4524.102564,4314.871794,4485.128205,4204.102564,4431.282051,4195.384615,4210.769230,4485.128205,4211.794871,4640.000000,4020.000000,4115.384615
111,4411.794871,4551.794871,4529.743589,4325.641025,4483.076923,4208.205128,4444.615384,4207.179487,4223.076923,4495.897435,4224.102564,4646.666666,4028.717948,4125.128205
112,4413.846153,4558.974358,4532.307692,4333.333333,4483.076923,4211.794871,4444.615384,4216.410256,4242.564102,4505.641025,4232.307692,4651.794871,4030.256410,4129.230769
113,4404.102564,4549.230769,4529.230769,4320.512820,4490.256410,4212.820512,4442.564102,4210.769230,4238.974358,4500.512820,4229.743589,4647.179487,4025.641025,4121.538461
114,4401.025641,4548.717948,4524.615384,4309.743589,4491.794871,4211.282051,4447.179487,4206.153846,4225.128205,4495.897435,4217.435897,4640.000000,4021.538461,4115.897435
115,4403.076923,4553.846153,4525.128205,4315.897435,4490.769230,4216.923076,4451.794871,4211.282051,4223.589743,4500.000000,4211.282051,4636.923076,4020.512820,4115.384615
116,4403.589743,4547.692307,4530.256410,4326.153846,4493.846153,4220.512820,4448.205128,4215.384615,4231.794871,4505.128205,4216.923076,4642.051282,4025.128205,4116.410256
117,4407.692307,4546.666666,4531.794871,4329.743589,4495.384615,4214.871794,4443.076923,4213.333333,4239.487179,4510.256410,4225.641025,4649.743589,4032.820512,4117.948717
118,4414.871794,4557.435897,4532.820512,4332.307692,4495.384615,4214.871794,4447.179487,4217.435897,4242.051282,4514.871794,4234.871794,4658.461538,4040.000000,4123.589743
119,4414.871794,4557.948717,4538.974358,4332.820512,4492.307692,4217.948717,4453.333333,4226.153846,4236.410256,4510.769230,4236.410256,4664.102564,4043.076923,4130.769230
120,4409.743589,4550.769230,4540.512820,4328.717948,4486.666666,4212.307692,4445.128205,4219.487179,4230.256410,4498.974358,4223.076923,4662.564102,4040.000000,4129.743589
121,4414.358974,4558.461538,4534.871794,4323.589743,4489.743589,4207.692307,4440.000000,4210.256410,4231.794871,4498.974358,4221.025641,4661.538461,4036.410256,4127.692307
122,4426.666666,4571.794871,4541.025641,4324.102564,4499.487179,4213.846153,4451.794871,4217.435897,4238.461538,4508.717948,4240.512820,4668.717948,4040.512820,4135.384615
123,4429.743589,4567.692307,4551.794871,4323.589743,4499.487179,4221.538461,4457.948717,4226.153846,4240.512820,4514.358974,4246.666666,4675.384615,4046.666666,4142.564102
124,4421.538461,4551.794871,4547.179487,4320.512820,4497.435897,4217.435897,4448.205128,4220.000000,4233.846153,4508.205128,4230.256410,4668.717948,4040.512820,4134.871794
125,4417.435897,4546.153846,4539.487179,4321.025641,4496.410256,4211.282051,4438.974358,4214.871794,4233.846153,4500.512820,4225.641025,4662.051282,4026.666666,4130.769230
126,4425.128205,4554.871794,4545.128205,4323.076923,4498.461538,4215.384615,4445.641025,4222.564102,4249.230769,4505.641025,4236.923076,4664.615384,4030.769230,4140.000000
127,4429.230769,4561.025641,4549.230769,4322.564102,4500.512820,4220.000000,4457.435897,4227.692307,4253.846153,4516.923076,4237.435897,4667.692307,4050.769230,4142.564102
128,4420.512820,4551.794871,4542.051282,4322.051282,4497.948717,4214.358974,4456.410256,4225.128205,4242.051282,4512.307692,4227.179487,4665.128205,4051.794871,4134.871794
129,4411.794871,4541.538461,4537.435897,4321.025641,4495.384615,4210.256410,4450.769230,4222.564102,4240.000000,4494.871794,4223.589743,4655.384615,4030.256410,4125.641025
130,4411.282051,4542.564102,4540.000000,4318.974358,4502.564102,4215.897435,4454.358974,4223.589743,4242.564102,4493.333333,4228.205128,4650.256410,4024.102564,4118.974358
131,4416.410256,4549.743589,4545.128205,4326.153846,4511.282051,4221.025641,4461.538461,4229.230769,4242.564102,4513.333333,4236.923076,4659.487179,4040.512820,4125.641025
132,4420.512820,4549.743589,4545.641025,4325.128205,4506.666666,4219.487179,4458.974358,4231.282051,4244.102564,4520.512820,4240.512820,4664.615384,4046.153846,4132.820512
133,4418.461538,4541.538461,4537.435897,4313.333333,4504.102564,4214.871794,4456.923076,4226.666666,4240.512820,4506.666666,4230.769230,4653.846153,4032.307692,4124.102564
134,4414.358974,4543.076923,4536.410256,4317.948717,4507.179487,4218.461538,4458.974358,4225.641025,4239.487179,4504.615384,4222.564102,4650.769230,4030.769230,4117.948717
135,4415.897435,4546.666666,4543.589743,4330.769230,4507.179487,4223.589743,4460.000000,4231.794871,4245.128205,4516.923076,4229.743589,4658.974358,4041.538461,4123.589743
136,4415.384615,4539.487179,4540.512820,4327.179487,4500.000000,4218.974358,4462.564102,4230.256410,4241.538461,4512.307692,4232.820512,4656.410256,4036.923076,4122.564102
137,4406.153846,4529.743589,4532.820512,4315.384615,4492.820512,4212.820512,4456.923076,4218.974358,4227.692307,4490.256410,4222.564102,4647.179487,4018.974358,4110.769230
138,4402.564102,4529.230769,4537.948717,4311.794871,4492.307692,4210.256410,4445.641025,4216.410256,4226.666666,4484.102564,4214.871794,4645.641025,4016.410256,4105.128205
139,4411.282051,4536.410256,4548.205128,4318.461538,4497.435897,4210.769230,4448.205128,4225.641025,4234.871794,4502.051282,4222.051282,4652.307692,4026.666666,4115.897435
140,4415.897435,4533.846153,4547.179487,4325.128205,4498.461538,4210.769230,4458.974358,4228.205128,4232.307692,4504.102564,4225.128205,4652.820512,4024.615384,4121.025641
141,4409.230769,4525.641025,4545.128205,4317.948717,4494.871794,4212.820512,4459.487179,4218.974358,4222.564102,4491.282051,4215.897435,4646.153846,4018.461538,4110.769230
142,4414.358974,4534.871794,4551.794871,4314.871794,4498.461538,4218.461538,4457.948717,4221.025641,4229.230769,4502.051282,4225.641025,4653.333333,4028.717948,4116.923076
143,4429.743589,4553.846153,4560.000000,4327.692307,4503.076923,4223.589743,4462.564102,4237.435897,4246.153846,4521.538461,4252.820512,4670.769230,4044.102564,4135.897435
144,4426.666666,4545.641025,4554.871794,4326.153846,4503.076923,4222.564102,4463.076923,4241.538461,4245.128205,4515.897435,4250.769230,4672.820512,4045.128205,4134.871794
145,4413.333333,4528.205128,4544.615384,4313.846153,4498.974358,4214.871794,4458.461538,4229.743589,4231.282051,4503.589743,4228.717948,4662.051282,4037.435897,4124.615384
146,4412.820512,4535.384615,4544.615384,4317.948717,4493.846153,4213.333333,4457.948717,4224.615384,4223.589743,4498.461538,4230.256410,4655.897435,4032.820512,4123.076923
147,4420.512820,4543.589743,4545.641025,4327.179487,4496.410256,4220.512820,4460.000000,4229.230769,4230.256410,4493.333333,4236.923076,4658.461538,4034.871794,4126.666666
148,4418.974358,4533.333333,4546.153846,4324.615384,4503.589743,4222.051282,4462.564102,4232.307692,4241.025641,4501.538461,4229.743589,4663.589743,4035.897435,4128.717948
149,4412.307692,4524.102564,4545.128205,4318.974358,4498.974358,4214.358974,4460.512820,4231.282051,4239.487179,4513.333333,4229.743589,4661.025641,4029.230769,4124.615384
150,4411.282051,4527.692307,4542.564102,4319.487179,4489.230769,4211.794871,4458.974358,4228.205128,4228.717948,4504.615384,4236.410256,4654.871794,4023.589743,4118.974358
151,4410.256410,4531.794871,4537.435897,4315.384615,4490.256410,4213.846153,4459.487179,4228.717948,4230.256410,4494.358974,4235.384615,4655.384615,4029.743589,4118.974358
152,4407.692307,4532.820512,4535.897435,4312.307692,4494.358974,4216.923076,4460.000000,4229.230769,4237.948717,4501.025641,4231.794871,4658.461538,4036.410256,4116.410256
153,4415.384615,4542.564102,4543.589743,4327.179487,4501.025641,4224.102564,4464.102564,4231.282051,4241.025641,4509.230769,4237.948717,4660.512820,4038.974358,4117.948717
154,4428.717948,4550.256410,4552.307692,4341.025641,4509.230769,4229.230769,4468.717948,4237.948717,4251.794871,4514.358974,4242.564102,4666.666666,4046.666666,4131.282051
155,4420.512820,4543.076923,4547.179487,4329.230769,4505.641025,4224.615384,4463.076923,4235.384615,4254.871794,4515.897435,4232.820512,4662.051282,4044.102564,4131.794871
156,4404.615384,4534.871794,4533.333333,4314.871794,4495.384615,4217.435897,4455.897435,4227.179487,4238.974358,4509.230769,4227.179487,4648.717948,4032.307692,4116.923076
157,4412.307692,4541.025641,4533.333333,4322.564102,4495.897435,4221.538461,4460.512820,4233.846153,4233.846153,4510.769230,4236.923076,4651.794871,4040.000000,4117.435897
158,4425.641025,4548.717948,4541.025641,4336.410256,4502.564102,4228.717948,4465.641025,4244.615384,4248.717948,4518.461538,4238.461538,4665.128205,4051.282051,4131.282051
159,4420.000000,4546.153846,4537.948717,4341.538461,4501.025641,4224.615384,4460.512820,4239.487179,4253.846153,4514.358974,4237.435897,4665.641025,4046.666666,4130.769230
160,4415.897435,4542.051282,4531.794871,4335.897435,4498.461538,4218.974358,4456.923076,4234.358974,4244.615384,4511.282051,4247.692307,4660.512820,4046.153846,4125.128205
161,4420.512820,4550.769230,4535.384615,4329.230769,4501.538461,4218.974358,4459.487179,4238.974358,4246.153846,4517.435897,4246.666666,4662.564102,4052.307692,4128.717948
162,4418.461538,4559.487179,4536.923076,4329.230769,4503.589743,4224.102564,4467.692307,4243.076923,4252.820512,4516.410256,4234.871794,4663.589743,4050.769230,4129.743589
163,4412.820512,4551.794871,4529.230769,4331.282051,4503.589743,4226.153846,4471.794871,4244.102564,4248.717948,4509.743589,4233.333333,4657.948717,4045.641025,4121.538461
164,4409.743589,4540.000000,4522.051282,4328.717948,4505.128205,4224.615384,4464.102564,4240.000000,4240.000000,4512.307692,4236.923076,4653.333333,4044.102564,4118.461538
165,4409.743589,4539.487179,4521.538461,4325.128205,4504.615384,4222.564102,4458.461538,4235.384615,4238.974358,4508.717948,4238.974358,4652.820512,4049.230769,4123.076923
166,4417.435897,4544.615384,4527.179487,4325.128205,4500.512820,4222.051282,4458.974358,4238.461538,4244.615384,4503.076923,4242.564102,4658.974358,4053.333333,4125.641025
167,4425.641025,4548.205128,4532.820512,4332.307692,4502.051282,4224.615384,4461.538461,4244.102564,4253.846153,4514.358974,4246.153846,4664.615384,4045.641025,4128.717948
168,4424.615384,4550.256410,4529.743589,4336.410256,4504.102564,4224.102564,4462.564102,4243.589743,4258.461538,4522.051282,4247.692307,4664.615384,4044.102564,4130.769230
169,4416.923076,4548.205128,4523.589743,4332.307692,4500.512820,4222.564102,4461.025641,4242.051282,4249.743589,4508.717948,4242.051282,4661.025641,4056.410256,4126.666666
170,4409.743589,4539.487179,4520.512820,4324.102564,4498.461538,4220.000000,4457.948717,4235.384615,4240.512820,4497.948717,4230.769230,4657.435897,4053.846153,4120.512820
171,4408.205128,4535.384615,4520.000000,4322.051282,4497.948717,4217.948717,4457.435897,4228.717948,4235.384615,4497.435897,4228.717948,4654.358974,4038.461538,4116.410256
172,4412.820512,4541.538461,4519.487179,4332.307692,4495.384615,4220.000000,4461.025641,4234.358974,4240.000000,4497.948717,4236.410256,4656.923076,4035.384615,4115.897435
173,4418.974358,4544.615384,4521.538461,4338.974358,4496.923076,4223.589743,4460.512820,4241.025641,4249.230769,4501.538461,4239.487179,4663.076923,4037.948717,4118.461538
174,4422.564102,4544.102564,4524.615384,4331.794871,4498.974358,4223.076923,4459.487179,4243.589743,4252.307692,4506.153846,4241.538461,4665.641025,4041.538461,4124.102564
175,4420.000000,4543.076923,4528.717948,4328.717948,4496.410256,4223.589743,4467.179487,4252.820512,4256.923076,4509.230769,4248.205128,4664.615384,4043.076923,4127.692307
176,4413.846153,4536.410256,4526.153846,4334.358974,4496.410256,4225.641025,4471.794871,4260.000000,4258.974358,4512.307692,4242.564102,4662.564102,4037.948717,4124.615384
177,4413.846153,4534.358974,4521.025641,4327.692307,4498.974358,4225.128205,4467.179487,4256.410256,4255.384615,4513.333333,4232.820512,4664.615384,4041.538461,4122.564102
178,4414.871794,4535.384615,4523.076923,4315.384615,4492.307692,4223.076923,4462.051282,4248.205128,4252.307692,4507.179487,4235.897435,4664.615384,4046.666666,4120.000000
179,4409.230769,4530.256410,4521.538461,4311.794871,4486.153846,4221.025641,4461.025641,4241.025641,4253.333333,4498.461538,4238.461538,4657.435897,4037.948717,4114.358974
180,4413.333333,4530.769230,4520.512820,4321.538461,4488.717948,4216.410256,4457.435897,4237.948717,4248.717948,4499.487179,4240.000000,4658.974358,4035.897435,4118.461538
181,4424.615384,4537.948717,4524.102564,4337.948717,4489.743589,4211.794871,4454.871794,4241.538461,4243.076923,4508.717948,4243.076923,4668.205128,4047.692307,4129.743589
182,4424.615384,4543.589743,4525.128205,4343.076923,4491.282051,4216.410256,4458.974358,4247.179487,4249.230769,4513.846153,4240.512820,4670.769230,4054.358974,4130.256410
183,4420.000000,4547.692307,4520.000000,4336.923076,4496.410256,4225.128205,4462.564102,4252.820512,4256.410256,4511.794871,4234.358974,4669.743589,4054.358974,4124.615384
184,4417.435897,4541.538461,4513.846153,4326.153846,4497.948717,4227.179487,4462.564102,4249.743589,4255.384615,4504.615384,4235.384615,4668.205128,4048.205128,4122.051282
185,4410.256410,4529.230769,4503.076923,4314.871794,4491.282051,4218.974358,4458.974358,4235.384615,4247.692307,4500.512820,4234.871794,4658.461538,4032.307692,4112.820512
186,4405.641025,4525.641025,4498.974358,4312.820512,4487.179487,4213.333333,4456.410256,4229.230769,4241.538461,4499.487179,4228.205128,4653.333333,4027.179487,4105.641025
187,4411.794871,4531.282051,4507.179487,4322.564102,4488.717948,4218.461538,4459.487179,4241.538461,4245.128205,4497.948717,4233.333333,4663.589743,4040.000000,4114.358974
188,4419.487179,4535.897435,4511.794871,4328.717948,4492.820512,4226.153846,4461.538461,4253.846153,4253.846153,4504.102564,4241.538461,4672.307692,4049.743589,4123.076923
189,4421.025641,4544.102564,4509.743589,4329.743589,4498.461538,4227.179487,4461.538461,4251.794871,4254.871794,4516.410256,4239.487179,4671.282051,4053.333333,4120.000000
190,4414.358974,4543.589743,4503.589743,4330.769230,4496.410256,4225.128205,4460.000000,4246.153846,4250.769230,4516.923076,4232.307692,4667.179487,4047.692307,4116.410256
191,4405.128205,4533.333333,4494.358974,4322.564102,4488.717948,4224.102564,4456.410256,4241.538461,4248.205128,4505.128205,4229.230769,4660.000000,4030.769230,4110.769230
192,4409.743589,4534.871794,4492.820512,4322.051282,4490.256410,4224.615384,4455.897435,4237.435897,4243.076923,4498.974358,4232.820512,4655.897435,4028.205128,4108.717948
193,4417.435897,4545.641025,4495.897435,4326.666666,4494.871794,4223.076923,4457.948717,4235.897435,4236.923076,4499.487179,4233.333333,4659.487179,4040.512820,4116.923076
194,4415.897435,4551.282051,4495.384615,4324.615384,4489.743589,4220.000000,4457.948717,4233.846153,4234.871794,4499.487179,4227.179487,4664.615384,4038.461538,4120.000000
195,4413.333333,4546.666666,4490.256410,4329.743589,4483.076923,4218.461538,4456.923076,4229.743589,4234.358974,4495.897435,4227.179487,4661.538461,4029.743589,4114.358974
196,4410.769230,4536.410256,4484.615384,4327.692307,4484.615384,4215.384615,4458.461538,4226.666666,4233.846153,4493.333333,4230.769230,4655.897435,4035.384615,4111.794871
197,4410.769230,4536.923076,4484.102564,4315.897435,4489.230769,4216.410256,4460.512820,4231.794871,4237.435897,4497.435897,4225.641025,4657.948717,4042.051282,4112.820512
198,4414.871794,4549.230769,4484.615384,4320.000000,4491.794871,4224.102564,4461.538461,4237.948717,4244.102564,4498.461538,4224.102564,4664.615384,4036.923076,4114.871794
199,4413.846153,4553.333333,4481.025641,4325.128205,4489.743589,4226.153846,4461.025641,4231.794871,4239.487179,4492.307692,4229.743589,4664.102564,4026.666666,4114.871794
200,4406.153846,4539.487179,4474.358974,4314.358974,4486.153846,4218.461538,4456.410256,4221.025641,4223.589743,4486.153846,4223.589743,4655.384615,4016.923076,4106.153846
201,4399.487179,4530.256410,4466.153846,4314.358974,4486.153846,4216.923076,4449.743589,4219.487179,4218.974358,4482.051282,4211.794871,4647.179487,4012.307692,4096.923076
202,4398.461538,4537.948717,4466.666666,4325.641025,4487.692307,4223.076923,4445.128205,4222.564102,4226.666666,4485.641025,4211.794871,4647.692307,4015.897435,4096.923076
203,4402.564102,4542.564102,4470.256410,4324.615384,4488.717948,4221.025641,4448.205128,4224.615384,4228.717948,4495.897435,4216.923076,4652.820512,4024.615384,4102.564102
204,4408.205128,4536.923076,4467.179487,4321.025641,4483.589743,4217.435897,4455.897435,4231.282051,4227.179487,4497.435897,4221.025641,4657.435897,4035.384615,4109.230769
205,4413.846153,4538.974358,4468.205128,4322.051282,4481.025641,4221.025641,4459.487179,4239.487179,4241.025641,4498.974358,4231.282051,4662.051282,4044.615384,4120.000000
206,4420.000000,4543.589743,4475.384615,4317.435897,4485.641025,4224.615384,4460.512820,4243.589743,4253.333333,4504.102564,4239.487179,4667.692307,4044.102564,4123.076923
207,4414.871794,4536.410256,4468.717948,4310.769230,4490.769230,4222.051282,4458.461538,4235.384615,4237.948717,4494.358974,4233.846153,4665.641025,4030.769230,4111.282051
208,4399.487179,4531.282051,4451.794871,4306.153846,4489.230769,4218.974358,4449.743589,4223.076923,4215.384615,4476.410256,4220.000000,4652.820512,4012.307692,4096.923076
209,4397.435897,4536.410256,4449.743589,4309.743589,4487.692307,4218.461538,4445.128205,4218.974358,4218.461538,4473.846153,4207.692307,4644.615384,4003.076923,4091.794871
210,4407.179487,4539.487179,4453.846153,4319.487179,4491.282051,4220.000000,4451.794871,4223.076923,4233.333333,4481.538461,4203.589743,4648.205128,4008.205128,4096.923076
211,4413.846153,4545.128205,4458.461538,4328.717948,4492.820512,4226.153846,4458.974358,4229.743589,4236.410256,4490.256410,4220.000000,4656.410256,4022.564102,4106.666666
212,4423.076923,4550.769230,4469.743589,4333.333333,4491.282051,4228.205128,4460.512820,4242.051282,4238.974358,4500.000000,4248.717948,4667.179487,4041.025641,4122.051282
213,4428.205128,4549.743589,4477.948717,4327.692307,4491.794871,4224.615384,4462.051282,4251.794871,4247.692307,4504.102564,4255.897435,4674.871794,4052.307692,4129.743589
214,4420.512820,4548.717948,4471.282051,4321.538461,4492.820512,4223.589743,4462.564102,4248.205128,4246.666666,4503.076923,4241.538461,4669.743589,4044.615384,4121.538461
215,4412.307692,4549.743589,4460.000000,4319.487179,4488.205128,4225.128205,4461.538461,4243.589743,4242.051282,4503.076923,4231.794871,4657.948717,4029.743589,4111.794871
216,4407.692307,4543.076923,4453.333333,4314.358974,4483.076923,4217.435897,4460.512820,4235.384615,4234.358974,4494.871794,4222.564102,4649.230769,4019.487179,4102.051282
217,4398.461538,4531.282051,4445.641025,4306.666666,4482.564102,4212.307692,4456.410256,4222.051282,4220.512820,4480.000000,4211.794871,4640.512820,4008.205128,4091.282051
218,4393.846153,4529.230769,4441.538461,4307.692307,4480.512820,4217.948717,4452.307692,4221.538461,4218.461538,4477.435897,4214.871794,4638.461538,4006.153846,4090.769230
219,4398.974358,4533.846153,4444.102564,4314.871794,4482.564102,4217.435897,4452.307692,4228.205128,4227.179487,4482.564102,4220.512820,4643.589743,4014.871794,4096.923076
220,4403.589743,4537.435897,4447.692307,4321.538461,4489.230769,4214.358974,4455.384615,4227.179487,4227.179487,4481.025641,4219.487179,4647.179487,4011.794871,4095.384615
221,4409.743589,4547.692307,4452.307692,4332.307692,4491.794871,4223.076923,4457.948717,4229.743589,4229.230769,4485.128205,4226.666666,4652.820512,4010.256410,4098.461538
222,4419.487179,4557.948717,4456.923076,4342.051282,4490.256410,4229.230769,4460.000000,4240.000000,4241.025641,4495.384615,4234.358974,4662.564102,4026.153846,4114.871794
223,4426.153846,4562.051282,4457.948717,4336.410256,4491.794871,4222.564102,4463.589743,4242.564102,4247.179487,4505.641025,4236.923076,4669.230769,4036.410256,4125.128205
224,4433.333333,4565.641025,4460.000000,4326.666666,4492.820512,4224.102564,4471.794871,4247.692307,4249.743589,4513.846153,4249.743589,4675.384615,4040.000000,4130.256410
225,4432.307692,4559.487179,4463.076923,4326.666666,4486.666666,4233.846153,4478.461538,4256.410256,4255.384615,4517.435897,4259.487179,4680.000000,4045.128205,4129.230769
226,4414.358974,4532.820512,4454.358974,4313.333333,4484.102564,4225.641025,4473.333333,4254.358974,4255.897435,4513.846153,4245.641025,4673.846153,4027.692307,4111.282051
227,4395.897435,4509.743589,4440.000000,4289.230769,4482.564102,4213.846153,4461.538461,4244.102564,4248.717948,4502.564102,4226.666666,4661.538461,4004.102564,4090.769230
228,4396.410256,4513.846153,4435.384615,4296.410256,4481.025641,4216.410256,4451.794871,4233.333333,4234.358974,4485.641025,4221.025641,4652.820512,4005.641025,4087.692307
229,4399.487179,4525.128205,4436.923076,4312.820512,4483.589743,4217.948717,4449.743589,4225.128205,4221.538461,4476.410256,4214.871794,4650.769230,4009.230769,4088.205128
230,4395.897435,4527.179487,4437.948717,4309.743589,4491.282051,4215.384615,4455.897435,4224.102564,4225.128205,4487.179487,4212.820512,4653.333333,4003.076923,4086.153846
231,4402.564102,4531.282051,4441.025641,4313.846153,4492.820512,4217.948717,4460.000000,4227.692307,4232.820512,4496.923076,4224.102564,4654.871794,4008.205128,4092.820512
232,4412.307692,4540.512820,4446.666666,4318.461538,4490.769230,4218.974358,4458.461538,4232.820512,4234.871794,4496.923076,4230.769230,4656.410256,4021.538461,4101.538461
233,4414.871794,4538.461538,4452.307692,4314.871794,4493.333333,4218.461538,4462.051282,4245.641025,4243.076923,4506.153846,4231.794871,4663.589743,4027.692307,4103.589743
234,4416.410256,4526.666666,4453.333333,4321.025641,4494.871794,4220.512820,4465.641025,4253.846153,4253.846153,4517.948717,4243.076923,4670.256410,4030.256410,4104.615384
235,4416.410256,4518.461538,4452.307692,4321.025641,4489.230769,4217.948717,4460.000000,4245.641025,4251.794871,4508.717948,4243.589743,4668.205128,4025.128205,4104.102564
236,4410.256410,4514.358974,4448.717948,4307.692307,4485.128205,4210.256410,4455.384615,4238.461538,4245.128205,4493.333333,4227.179487,4663.589743,4015.384615,4099.487179
237,4406.666666,4516.410256,4447.179487,4311.794871,4486.666666,4210.769230,4456.923076,4240.512820,4243.589743,4496.410256,4224.102564,4660.512820,4013.846153,4094.871794
238,4411.282051,4525.128205,4450.256410,4326.153846,4492.307692,4217.948717,4458.974358,4240.512820,4241.025641,4504.615384,4232.307692,4660.000000,4017.435897,4096.410256
239,4411.794871,4524.102564,4451.282051,4326.666666,4493.333333,4218.974358,4461.538461,4232.820512,4236.410256,4502.051282,4228.717948,4658.461538,4016.410256,4101.538461
240,4406.153846,4517.435897,4445.641025,4316.923076,4492.307692,4214.871794,4460.512820,4227.179487,4231.794871,4495.384615,4224.615384,4654.358974,4012.307692,4097.948717
241,4405.641025,4524.615384,4442.051282,4313.333333,4493.846153,4213.846153,4460.512820,4236.410256,4237.948717,4501.025641,4237.435897,4653.846153,4017.948717,4094.358974
242,4417.435897,4538.461538,4450.256410,4321.025641,4496.410256,4216.923076,4466.153846,4248.717948,4253.846153,4516.410256,4249.230769,4660.512820,4030.769230,4104.102564
243,4423.589743,4538.461538,4456.923076,4329.230769,4495.897435,4218.461538,4466.153846,4249.743589,4256.923076,4518.974358,4243.589743,4665.641025,4032.307692,4113.333333
244,4417.948717,4529.743589,4452.820512,4331.282051,4491.282051,4215.384615,4465.128205,4250.256410,4252.820512,4508.717948,4242.051282,4663.589743,4025.128205,4107.692307
245,4415.897435,4525.128205,4446.666666,4329.743589,4489.230769,4215.384615,4475.384615,4250.769230,4254.871794,4511.282051,4248.717948,4660.000000,4026.153846,4102.051282
246,4417.435897,4524.615384,4442.564102,4320.512820,4489.743589,4217.948717,4476.923076,4241.025641,4248.717948,4516.923076,4247.179487,4657.948717,4025.641025,4103.076923
247,4413.846153,4526.153846,4440.000000,4309.743589,4488.205128,4217.948717,4465.128205,4234.871794,4236.923076,4507.692307,4240.000000,4656.410256,4017.435897,4098.974358
248,4408.205128,4525.641025,4437.948717,4313.846153,4491.794871,4216.410256,4459.487179,4234.358974,4237.435897,4501.538461,4239.487179,4652.307692,4014.358974,4092.820512
249,4406.666666,4523.589743,4433.846153,4325.128205,4493.333333,4217.435897,4452.820512,4225.641025,4234.358974,4499.487179,4233.846153,4646.153846,4012.820512,4088.717948
250,4408.717948,4530.256410,4433.333333,4329.230769,4488.717948,4211.282051,4440.512820,4218.461538,4227.692307,4498.974358,4226.666666,4648.205128,4012.307692,4093.846153
251,4417.435897,4541.538461,4439.487179,4334.871794,4488.205128,4207.179487,4446.153846,4229.743589,4235.384615,4508.717948,4233.333333,4658.461538,4022.564102,4108.717948
252,4422.564102,4542.051282,4445.128205,4337.435897,4492.307692,4213.333333,4460.000000,4238.461538,4240.000000,4509.743589,4241.538461,4661.025641,4026.666666,4110.769230
253,4415.897435,4533.333333,4441.025641,4321.538461,4490.769230,4213.333333,4457.948717,4235.897435,4233.333333,4503.589743,4242.051282,4653.333333,4020.512820,4103.076923
254,4412.307692,4530.256410,4438.974358,4312.307692,4488.717948,4211.794871,4455.897435,4240.512820,4240.512820,4509.230769,4244.615384,4654.871794,4025.641025,4103.076923
255,4421.538461,4531.282051,4447.692307,4328.717948,4491.282051,4220.000000,4468.717948,4249.230769,4255.384615,4522.564102,4251.794871,4666.153846,4034.871794,4111.282051
256,4426.666666,4529.743589,4449.230769,4331.794871,4491.282051,4217.435897,4471.794871,4245.641025,4250.256410,4523.076923,4251.794871,4663.589743,4026.666666,4111.282051
257,4413.846153,4527.692307,4439.487179,4319.487179,4489.743589,4205.641025,4456.410256,4232.307692,4235.384615,4512.820512,4235.384615,4649.743589,4007.179487,4098.461538
258,4407.692307,4535.384615,4435.897435,4326.666666,4486.153846,4205.128205,4445.641025,4217.948717,4228.717948,4497.948717,4217.948717,4645.128205,3999.487180,4084.615384
259,4414.358974,4542.564102,4435.384615,4338.461538,4482.564102,4211.282051,4443.076923,4209.743589,4220.512820,4484.102564,4216.923076,4643.076923,4003.076923,4084.615384
