,AF3,F7,F3,FC5,T7,P7,O1,O2,P8,T8,FC6,F4,F8,AF4
0,4310.256410,4483.076923,4471.282051,4251.794871,4417.435897,4192.307692,4398.974358,4203.589743,4218.461538,4445.128205,4152.307692,4624.615384,3953.333334,4005.128205
1,4305.128205,4471.794871,4464.615384,4242.051282,4421.538461,4189.230769,4392.820512,4201.538461,4208.205128,4434.871794,4146.153846,4618.974358,3940.000000,4000.512820
2,4306.153846,4474.871794,4469.230769,4243.076923,4421.538461,4188.717948,4392.307692,4205.128205,4207.179487,4432.820512,4145.641025,4616.923076,3935.384616,4000.000000
3,4306.153846,4479.487179,4469.743589,4249.230769,4424.102564,4195.384615,4395.384615,4213.333333,4221.025641,4444.615384,4146.153846,4623.076923,3935.897436,3998.974359
4,4310.256410,4481.538461,4471.282051,4252.820512,4429.743589,4201.538461,4404.615384,4217.435897,4228.717948,4449.743589,4146.666666,4632.307692,3941.538462,4004.615384
5,4314.358974,4486.666666,4475.897435,4254.358974,4430.769230,4201.538461,4410.769230,4217.435897,4228.717948,4451.794871,4150.256410,4633.333333,3949.743590,4007.692307
6,4312.820512,4485.641025,4474.871794,4251.794871,4427.692307,4198.974358,4410.256410,4214.871794,4229.230769,4455.897435,4154.871794,4632.307692,3950.769231,4004.615384
7,4312.820512,4480.512820,4472.307692,4250.256410,4427.179487,4198.461538,4410.769230,4213.846153,4223.589743,4456.410256,4156.923076,4636.410256,3951.282052,4010.769230
8,4319.487179,4484.102564,4476.410256,4251.794871,4425.641025,4197.435897,4409.743589,4214.358974,4216.923076,4457.948717,4157.948717,4641.025641,3958.461539,4017.948717
9,4325.128205,4490.256410,4484.102564,4254.871794,4423.589743,4192.307692,4401.025641,4210.256410,4214.871794,4460.512820,4157.435897,4641.538461,3959.487180,4012.820512
10,4324.102564,4491.794871,4485.128205,4258.974358,4425.128205,4185.641025,4394.871794,4203.076923,4210.256410,4451.282051,4151.794871,4638.461538,3947.692308,4005.128205
11,4317.435897,4486.153846,4476.410256,4256.923076,4422.564102,4184.615384,4396.410256,4201.025641,4201.538461,4440.000000,4144.102564,4632.820512,3935.897436,4006.153846
12,4313.333333,4481.025641,4473.846153,4252.820512,4421.025641,4188.717948,4399.487179,4204.615384,4204.102564,4442.051282,4144.102564,4627.692307,3929.743590,4005.641025
13,4314.871794,4484.615384,4477.435897,4253.846153,4423.076923,4193.333333,4400.000000,4209.230769,4210.769230,4446.153846,4150.256410,4626.666666,3924.102565,4001.025641
14,4320.000000,4491.282051,4476.410256,4255.897435,4421.025641,4191.794871,4401.538461,4214.871794,4215.384615,4442.051282,4149.230769,4624.102564,3926.153847,4003.076923
15,4320.512820,4489.230769,4472.820512,4253.846153,4420.000000,4185.641025,4401.538461,4216.923076,4217.435897,4444.102564,4145.641025,4620.512820,3935.384616,4006.666666
16,4318.974358,4487.692307,4477.948717,4254.358974,4420.000000,4185.641025,4398.461538,4214.871794,4217.948717,4452.820512,4150.256410,4623.076923,3937.435898,4004.615384
17,4325.128205,4493.846153,4484.102564,4260.512820,4417.435897,4189.743589,4400.512820,4217.435897,4217.948717,4454.871794,4159.487179,4630.769230,3936.410257,4009.230769
18,4328.717948,4495.384615,4483.589743,4263.589743,4415.897435,4187.692307,4403.076923,4215.384615,4217.435897,4451.794871,4155.897435,4636.410256,3941.538462,4015.897435
19,4321.538461,4491.794871,4482.564102,4259.487179,4416.923076,4184.102564,4395.897435,4203.589743,4215.897435,4447.692307,4144.102564,4632.820512,3937.948718,4010.769230
20,4318.461538,4491.282051,4483.589743,4257.948717,4421.538461,4186.666666,4393.333333,4199.487179,4212.307692,4447.692307,4145.641025,4629.743589,3934.358975,4003.589743
21,4318.974358,4492.820512,4478.461538,4260.512820,4423.589743,4189.743589,4397.435897,4202.051282,4212.307692,4451.794871,4152.307692,4633.333333,3943.589744,4005.641025
22,4314.871794,4489.743589,4471.282051,4255.897435,4417.948717,4187.692307,4394.358974,4203.076923,4215.384615,4449.743589,4144.615384,4631.282051,3946.153847,4005.641025
23,4310.256410,4486.666666,4470.256410,4248.717948,4416.410256,4187.692307,4393.846153,4206.666666,4215.897435,4443.589743,4133.333333,4621.025641,3943.076924,4002.564102
24,4309.230769,4484.615384,4472.307692,4250.769230,4427.692307,4190.769230,4398.974358,4206.666666,4213.846153,4441.025641,4133.846153,4619.487179,3950.769231,4003.589743
25,4312.820512,4484.102564,4473.333333,4252.307692,4429.743589,4188.717948,4396.923076,4203.589743,4211.794871,4446.153846,4140.512820,4629.230769,3962.051283,4002.564102
26,4317.948717,4488.205128,4477.948717,4251.282051,4424.615384,4185.128205,4394.358974,4208.205128,4214.358974,4453.846153,4145.641025,4635.384615,3967.692308,4002.564102
27,4315.897435,4488.205128,4477.948717,4251.282051,4428.205128,4186.153846,4402.051282,4214.871794,4217.948717,4454.871794,4145.641025,4635.897435,3968.205129,4005.641025
28,4310.256410,4483.589743,4475.384615,4246.153846,4429.743589,4191.794871,4405.128205,4213.333333,4216.923076,4447.692307,4146.666666,4636.410256,3968.205129,4006.153846
29,4311.794871,4487.179487,4482.051282,4246.666666,4430.256410,4198.974358,4405.641025,4214.871794,4216.410256,4449.743589,4152.820512,4641.538461,3974.871795,4002.051282
30,4313.846153,4494.358974,4486.153846,4253.333333,4432.820512,4201.538461,4411.282051,4220.512820,4220.512820,4454.871794,4149.230769,4646.153846,3978.974359,4001.025641
31,4310.769230,4490.256410,4482.051282,4250.256410,4429.743589,4196.923076,4411.282051,4214.358974,4216.410256,4441.538461,4136.923076,4642.051282,3974.871795,4005.128205
32,4308.205128,4484.615384,4482.564102,4246.666666,4427.179487,4196.923076,4408.717948,4204.102564,4203.589743,4425.128205,4135.897435,4637.435897,3973.846154,4003.589743
33,4308.717948,4487.179487,4482.564102,4252.307692,4433.333333,4201.025641,4410.256410,4206.666666,4203.589743,4428.717948,4138.974358,4639.487179,3974.871795,3998.974359
34,4308.205128,4490.256410,4480.000000,4253.846153,4442.051282,4200.000000,4408.717948,4211.282051,4208.717948,4435.384615,4132.307692,4636.410256,3971.794872,3995.897436
35,4306.666666,4491.794871,4478.461538,4249.230769,4445.641025,4199.487179,4407.692307,4212.820512,4210.256410,4430.256410,4129.230769,4629.230769,3965.128206,3993.333334
36,4307.692307,4490.256410,4480.000000,4248.717948,4442.564102,4202.051282,4411.282051,4214.871794,4213.333333,4423.076923,4136.923076,4632.820512,3958.461539,3994.871795
37,4309.743589,4487.692307,4482.564102,4247.179487,4433.846153,4194.871794,4405.641025,4209.230769,4211.282051,4425.641025,4138.974358,4635.897435,3953.846154,3994.871795
38,4310.256410,4491.794871,4483.076923,4249.230769,4432.820512,4188.717948,4396.923076,4204.615384,4206.153846,4433.846153,4137.435897,4633.846153,3947.692308,3993.333334
39,4309.230769,4497.948717,4482.564102,4254.871794,4442.051282,4194.871794,4399.487179,4211.282051,4208.717948,4438.974358,4141.025641,4633.846153,3944.102565,3996.410257
40,4308.717948,4496.923076,4485.641025,4252.820512,4446.666666,4196.410256,4400.512820,4215.897435,4215.897435,4439.487179,4143.076923,4632.820512,3949.743590,3999.487180
41,4316.410256,4498.974358,4491.794871,4252.820512,4443.076923,4194.358974,4401.538461,4213.846153,4216.410256,4441.025641,4146.666666,4634.871794,3960.000000,4003.589743
42,4323.589743,4503.076923,4490.769230,4259.487179,4443.076923,4197.948717,4409.230769,4215.897435,4215.384615,4444.102564,4153.333333,4641.538461,3960.000000,4011.794871
43,4323.076923,4507.692307,4490.769230,4263.076923,4452.820512,4205.128205,4412.820512,4220.000000,4222.051282,4446.666666,4158.974358,4644.102564,3961.538462,4016.923076
44,4329.230769,4515.384615,4496.410256,4266.153846,4462.051282,4208.205128,4413.333333,4223.589743,4230.256410,4452.307692,4164.615384,4645.641025,3969.230770,4017.435897
45,4335.897435,4516.410256,4502.051282,4269.743589,4460.000000,4207.179487,4416.410256,4224.102564,4230.769230,4458.461538,4168.205128,4646.666666,3969.743590,4021.538461
46,4331.282051,4511.282051,4504.615384,4267.692307,4455.384615,4207.179487,4417.948717,4224.102564,4229.743589,4457.948717,4166.666666,4643.589743,3968.205129,4026.153846
47,4330.256410,4512.307692,4504.615384,4264.615384,4454.358974,4208.717948,4417.435897,4229.743589,4234.871794,4458.461538,4167.692307,4646.153846,3973.846154,4026.666666
48,4334.358974,4512.307692,4510.256410,4267.179487,4455.897435,4211.282051,4417.435897,4234.871794,4236.410256,4466.153846,4173.333333,4650.256410,3976.923077,4027.179487
49,4328.717948,4505.641025,4509.743589,4266.153846,4456.923076,4210.256410,4417.948717,4230.769230,4233.846153,4466.153846,4166.666666,4643.589743,3966.153847,4020.512820
50,4321.025641,4505.128205,4503.076923,4263.589743,4456.923076,4207.692307,4422.564102,4224.102564,4234.358974,4451.282051,4154.871794,4637.435897,3956.923077,4010.769230
51,4322.051282,4507.692307,4504.102564,4268.717948,4457.948717,4208.717948,4427.692307,4224.102564,4231.794871,4445.128205,4157.948717,4643.076923,3963.076924,4014.871794
52,4321.538461,4506.153846,4509.743589,4272.307692,4456.923076,4211.282051,4425.128205,4224.102564,4229.743589,4451.794871,4162.564102,4645.128205,3963.589744,4021.025641
53,4319.487179,4506.666666,4503.076923,4267.179487,4448.717948,4207.179487,4420.000000,4220.512820,4230.256410,4448.717948,4156.923076,4638.461538,3951.282052,4013.846153
54,4317.435897,4507.179487,4495.897435,4261.538461,4442.051282,4199.487179,4416.923076,4215.897435,4229.230769,4438.974358,4154.358974,4635.897435,3948.205129,4005.128205
55,4315.384615,4502.564102,4496.923076,4262.564102,4445.641025,4200.000000,4412.820512,4216.410256,4230.769230,4445.641025,4153.846153,4639.487179,3957.435898,4006.153846
56,4312.307692,4496.923076,4495.384615,4261.538461,4447.692307,4204.615384,4411.282051,4220.000000,4231.794871,4458.461538,4149.743589,4637.948717,3959.487180,4011.794871
57,4313.333333,4499.487179,4496.410256,4260.000000,4443.589743,4210.256410,4418.461538,4227.179487,4231.282051,4460.512820,4157.948717,4637.948717,3963.076924,4013.846153
58,4321.538461,4507.692307,4503.076923,4265.641025,4448.205128,4218.461538,4434.358974,4235.384615,4235.897435,4462.564102,4173.333333,4645.641025,3973.846154,4014.358974
59,4321.538461,4508.205128,4499.487179,4265.128205,4457.435897,4218.974358,4442.051282,4234.358974,4237.948717,4463.589743,4169.743589,4646.666666,3973.846154,4012.307692
60,4309.230769,4497.948717,4489.743589,4257.435897,4457.948717,4217.435897,4436.923076,4230.256410,4227.179487,4454.871794,4155.384615,4637.435897,3966.666667,4006.153846
61,4307.179487,4496.410256,4490.769230,4259.487179,4453.846153,4216.410256,4433.333333,4229.230769,4225.128205,4448.717948,4154.871794,4635.384615,3972.820513,4007.692307
62,4315.897435,4505.641025,4497.948717,4267.179487,4455.384615,4215.384615,4434.871794,4232.820512,4236.410256,4451.282051,4161.538461,4641.025641,3986.666667,4015.897435
63,4315.897435,4509.230769,4497.948717,4266.666666,4460.512820,4216.410256,4440.000000,4234.871794,4240.000000,4454.871794,4162.564102,4640.512820,3990.769231,4014.358974
64,4308.717948,4506.666666,4492.820512,4261.538461,4461.025641,4218.461538,4441.538461,4233.846153,4238.974358,4454.871794,4158.974358,4634.871794,3987.179488,4004.615384
65,4301.538461,4501.025641,4487.179487,4256.923076,4454.871794,4216.923076,4436.410256,4233.333333,4238.461538,4453.846153,4154.871794,4632.307692,3985.641026,4001.025641
66,4297.435897,4498.974358,4488.205128,4253.333333,4452.307692,4217.435897,4431.794871,4233.333333,4240.000000,4451.794871,4149.743589,4634.358974,3989.743590,4000.512820
67,4302.564102,4497.948717,4494.358974,4250.769230,4452.820512,4215.384615,4430.769230,4233.333333,4245.128205,4455.897435,4151.282051,4641.025641,3994.358975,4004.102564
68,4309.743589,4496.923076,4499.487179,4249.230769,4448.717948,4207.692307,4431.282051,4234.871794,4244.102564,4461.538461,4155.384615,4647.179487,3995.384616,4009.743589
69,4306.666666,4501.538461,4497.435897,4253.846153,4448.717948,4208.205128,4429.743589,4233.846153,4235.384615,4458.974358,4153.846153,4646.153846,3996.923077,4006.666666
70,4299.487179,4503.076923,4491.794871,4260.512820,4450.769230,4212.820512,4429.230769,4232.820512,4233.846153,4452.307692,4151.794871,4641.538461,3994.358975,4002.564102
71,4296.410256,4495.897435,4491.282051,4253.846153,4446.153846,4206.153846,4427.692307,4230.769230,4236.923076,4448.717948,4147.179487,4638.461538,3985.641026,4001.025641
72,4293.846153,4489.230769,4491.794871,4244.615384,4442.051282,4198.461538,4422.564102,4222.051282,4225.641025,4442.564102,4136.923076,4633.846153,3976.923077,3993.333334
73,4291.794871,4491.794871,4489.743589,4248.205128,4444.615384,4200.512820,4415.897435,4214.358974,4215.384615,4437.948717,4132.820512,4629.743589,3976.923077,3991.794872
74,4295.897435,4495.384615,4490.256410,4250.769230,4444.102564,4202.564102,4413.846153,4215.897435,4219.487179,4444.102564,4142.051282,4632.307692,3986.666667,4001.025641
75,4299.487179,4500.000000,4497.435897,4246.666666,4442.564102,4201.538461,4415.897435,4217.435897,4223.076923,4450.256410,4150.769230,4637.435897,3995.897436,4004.615384
76,4299.487179,4506.666666,4501.538461,4253.846153,4448.205128,4204.615384,4422.051282,4220.512820,4223.076923,4448.717948,4154.358974,4636.923076,3995.384616,4003.589743
77,4303.589743,4508.205128,4499.487179,4264.615384,4453.333333,4210.769230,4427.692307,4229.230769,4229.743589,4453.333333,4161.025641,4634.358974,3995.897436,4009.743589
78,4305.128205,4504.615384,4501.025641,4257.948717,4449.743589,4210.769230,4422.564102,4234.358974,4237.948717,4464.615384,4161.538461,4633.846153,4003.589743,4012.820512
79,4300.000000,4500.512820,4502.564102,4250.769230,4447.692307,4202.564102,4416.410256,4232.307692,4240.512820,4463.076923,4157.948717,4633.846153,3995.897436,4005.128205
80,4298.974358,4498.974358,4501.025641,4256.923076,4453.333333,4201.538461,4417.435897,4228.717948,4237.435897,4456.923076,4153.846153,4626.153846,3975.384616,4003.076923
81,4300.000000,4500.512820,4496.923076,4255.384615,4449.743589,4205.128205,4415.384615,4222.564102,4226.666666,4458.461538,4147.179487,4617.948717,3963.589744,4007.692307
82,4297.435897,4500.512820,4495.384615,4248.717948,4440.000000,4201.025641,4410.256410,4215.897435,4220.000000,4458.974358,4144.102564,4617.948717,3963.076924,4004.102564
83,4304.102564,4504.102564,4503.589743,4256.410256,4443.076923,4200.512820,4414.358974,4216.410256,4224.102564,4456.410256,4153.846153,4625.641025,3967.179488,4008.717948
84,4314.358974,4510.256410,4506.153846,4264.102564,4449.743589,4206.666666,4421.025641,4222.564102,4229.230769,4456.410256,4160.512820,4631.794871,3965.641026,4016.923076
85,4303.589743,4506.153846,4496.410256,4255.384615,4443.589743,4204.102564,4417.435897,4222.564102,4226.666666,4452.307692,4149.230769,4631.794871,3954.871795,4005.128205
86,4293.846153,4498.461538,4493.333333,4251.282051,4443.076923,4200.000000,4414.358974,4218.461538,4223.076923,4447.692307,4141.538461,4628.205128,3951.794872,3994.871795
87,4304.102564,4500.512820,4506.153846,4258.461538,4451.794871,4209.230769,4423.076923,4224.102564,4229.230769,4453.846153,4151.282051,4631.794871,3963.589744,4005.641025
88,4311.282051,4507.692307,4509.230769,4257.948717,4451.794871,4214.358974,4428.205128,4231.282051,4238.461538,4459.487179,4161.025641,4642.564102,3973.333334,4016.923076
89,4307.179487,4506.153846,4501.025641,4253.333333,4447.179487,4206.153846,4420.000000,4232.307692,4236.923076,4460.512820,4158.461538,4646.666666,3974.871795,4018.974358
90,4307.692307,4502.564102,4501.025641,4256.923076,4454.358974,4201.538461,4412.820512,4227.692307,4231.282051,4466.666666,4153.333333,4641.538461,3968.717949,4019.487179
91,4305.641025,4505.128205,4500.512820,4262.564102,4462.564102,4202.051282,4413.333333,4221.538461,4231.282051,4465.641025,4153.846153,4636.410256,3957.948718,4015.384615
92,4304.102564,4506.153846,4496.923076,4262.564102,4459.487179,4206.153846,4422.051282,4223.076923,4235.897435,4460.512820,4158.974358,4642.564102,3958.974359,4015.384615
93,4312.307692,4508.205128,4502.564102,4265.641025,4461.025641,4215.897435,4430.256410,4234.871794,4245.128205,4469.230769,4164.102564,4650.769230,3966.666667,4020.000000
94,4308.717948,4510.769230,4504.102564,4263.076923,4464.102564,4215.384615,4423.076923,4235.897435,4244.102564,4473.333333,4158.974358,4643.076923,3955.897436,4014.871794
95,4298.461538,4506.153846,4493.333333,4255.384615,4458.461538,4202.564102,4411.282051,4219.487179,4231.282051,4459.487179,4151.282051,4631.282051,3938.461539,4008.205128
96,4306.153846,4503.589743,4494.358974,4260.512820,4456.923076,4199.487179,4412.820512,4212.307692,4228.717948,4450.769230,4153.846153,4631.794871,3938.461539,4011.282051
97,4314.871794,4510.769230,4507.692307,4267.692307,4461.538461,4209.230769,4418.974358,4223.076923,4232.820512,4458.461538,4158.461538,4636.923076,3949.743590,4018.461538
98,4313.333333,4516.410256,4508.205128,4266.153846,4458.974358,4211.794871,4417.435897,4231.794871,4233.333333,4470.769230,4165.641025,4636.923076,3957.435898,4026.666666
99,4312.820512,4510.256410,4503.076923,4261.538461,4453.333333,4204.102564,4413.333333,4229.743589,4233.846153,4470.769230,4173.846153,4635.897435,3962.051283,4028.205128
100,4312.307692,4504.615384,4506.153846,4260.000000,4456.410256,4197.948717,4410.256410,4221.025641,4232.820512,4460.000000,4167.179487,4634.871794,3967.179488,4020.000000
101,4309.743589,4506.153846,4504.615384,4263.076923,4455.384615,4199.487179,4403.589743,4205.641025,4223.589743,4453.333333,4152.820512,4630.256410,3970.256411,4015.384615
102,4314.358974,4515.897435,4502.564102,4265.128205,4450.256410,4200.512820,4401.025641,4204.615384,4217.435897,4455.897435,4156.410256,4630.769230,3976.410257,4023.076923
103,4316.923076,4520.000000,4504.615384,4265.128205,4454.871794,4200.000000,4408.717948,4214.358974,4216.923076,4455.384615,4165.128205,4632.820512,3983.076924,4025.128205
104,4310.769230,4510.769230,4501.025641,4263.589743,4462.051282,4202.564102,4413.333333,4212.307692,4217.435897,4449.230769,4157.948717,4628.717948,3985.128206,4017.435897
105,4311.794871,4511.282051,4498.461538,4263.076923,4458.974358,4204.102564,4413.333333,4205.128205,4220.000000,4450.769230,4150.256410,4632.307692,3986.666667,4013.333333
106,4318.974358,4519.487179,4505.641025,4265.128205,4452.820512,4204.102564,4411.794871,4205.641025,4223.589743,4463.076923,4156.923076,4643.589743,3990.769231,4020.000000
107,4316.410256,4513.846153,4505.128205,4265.641025,4452.307692,4201.025641,4408.205128,4208.205128,4225.641025,4465.641025,4158.974358,4641.025641,3994.358975,4021.538461
108,4309.743589,4507.179487,4496.410256,4263.076923,4450.256410,4198.461538,4406.153846,4208.717948,4227.692307,4457.948717,4150.256410,4633.333333,3995.897436,4016.923076
109,4316.410256,4511.282051,4500.000000,4263.076923,4446.153846,4201.538461,4409.743589,4214.358974,4233.846153,4461.025641,4156.923076,4641.025641,4002.051282,4025.128205
110,4324.615384,4507.692307,4510.769230,4265.128205,4442.564102,4203.076923,4411.794871,4216.923076,4233.846153,4465.641025,4170.256410,4645.641025,4005.128205,4033.846153
111,4316.923076,4501.538461,4508.717948,4260.512820,4442.051282,4201.025641,4409.230769,4212.307692,4221.538461,4456.923076,4163.076923,4637.948717,3997.948718,4023.589743
112,4308.717948,4507.692307,4502.051282,4258.461538,4447.179487,4201.538461,4407.179487,4209.230769,4218.461538,4451.282051,4156.923076,4633.333333,3992.307693,4012.307692
113,4311.794871,4508.205128,4500.512820,4262.051282,4449.230769,4202.564102,4408.205128,4211.794871,4225.641025,4457.948717,4164.615384,4633.846153,3996.410257,4016.410256
114,4318.974358,4507.692307,4504.102564,4265.128205,4450.769230,4202.564102,4409.743589,4216.923076,4226.666666,4464.102564,4165.641025,4633.846153,4005.641025,4022.564102
115,4325.641025,4516.923076,4507.692307,4270.256410,4456.410256,4204.615384,4408.205128,4215.384615,4225.128205,4463.076923,4163.076923,4637.948717,4013.846153,4022.051282
116,4323.076923,4515.897435,4505.128205,4271.282051,4455.897435,4204.615384,4403.076923,4212.820512,4226.666666,4459.487179,4164.102564,4637.948717,4012.820512,4018.461538
117,4315.384615,4506.666666,4504.615384,4265.128205,4445.641025,4201.025641,4402.051282,4213.846153,4226.153846,4458.974358,4158.461538,4631.794871,3997.948718,4017.435897
118,4315.897435,4507.692307,4506.153846,4261.538461,4442.051282,4200.512820,4404.102564,4213.846153,4227.179487,4460.512820,4157.435897,4633.846153,3986.153847,4021.538461
119,4325.128205,4511.794871,4505.128205,4264.102564,4446.153846,4202.051282,4406.153846,4215.384615,4233.333333,4458.974358,4168.717948,4641.538461,3987.179488,4024.102564
120,4330.769230,4509.743589,4506.666666,4264.615384,4448.205128,4205.641025,4408.717948,4216.923076,4232.307692,4463.076923,4170.769230,4644.102564,3983.589744,4025.641025
121,4332.307692,4515.384615,4508.717948,4264.615384,4444.102564,4209.230769,4411.794871,4216.923076,4230.769230,4471.282051,4169.743589,4645.128205,3973.846154,4028.205128
122,4334.871794,4518.461538,4508.717948,4267.692307,4441.538461,4206.153846,4412.307692,4218.461538,4235.897435,4468.717948,4170.256410,4649.230769,3974.358975,4029.230769
123,4326.666666,4507.692307,4507.179487,4263.589743,4441.538461,4200.000000,4408.205128,4214.871794,4232.307692,4456.923076,4158.461538,4646.153846,3973.333334,4018.974358
124,4316.410256,4501.025641,4503.589743,4252.820512,4440.512820,4197.948717,4405.641025,4206.153846,4221.538461,4453.846153,4148.717948,4637.948717,3958.974359,4008.717948
125,4320.512820,4504.615384,4503.589743,4252.307692,4438.461538,4201.538461,4410.256410,4199.487179,4217.948717,4460.512820,4156.410256,4637.948717,3952.820513,4014.358974
126,4326.153846,4506.666666,4505.641025,4262.051282,4442.051282,4205.128205,4412.820512,4197.948717,4216.410256,4454.871794,4155.384615,4634.871794,3960.512821,4020.000000
127,4322.051282,4507.692307,4503.076923,4263.076923,4445.641025,4204.615384,4409.743589,4202.051282,4214.871794,4446.153846,4142.564102,4627.692307,3966.666667,4015.384615
128,4325.641025,4513.333333,4505.641025,4263.076923,4444.615384,4207.179487,4414.871794,4213.846153,4226.666666,4460.512820,4144.615384,4631.794871,3974.871795,4015.897435
129,4334.871794,4516.923076,4515.384615,4269.230769,4445.641025,4215.897435,4424.615384,4220.512820,4239.487179,4475.897435,4155.384615,4644.102564,3987.179488,4022.051282
130,4334.871794,4513.846153,4517.948717,4267.692307,4446.666666,4217.435897,4421.538461,4216.923076,4237.435897,4464.615384,4161.025641,4646.153846,3994.358975,4026.153846
131,4333.333333,4510.256410,4517.948717,4259.487179,4444.102564,4212.307692,4420.512820,4216.410256,4234.358974,4453.846153,4162.051282,4645.128205,3996.923077,4031.282051
132,4339.487179,4513.846153,4525.128205,4263.589743,4446.666666,4216.410256,4428.717948,4222.051282,4237.948717,4465.128205,4162.564102,4650.769230,3999.487180,4031.794871
133,4337.435897,4520.512820,4525.128205,4272.820512,4455.897435,4221.025641,4424.615384,4219.487179,4237.948717,4468.717948,4160.512820,4648.717948,4003.589743,4025.128205
134,4324.615384,4517.948717,4516.410256,4267.692307,4453.846153,4212.820512,4413.333333,4213.333333,4230.256410,4453.333333,4153.846153,4636.923076,4004.102564,4019.487179
135,4320.512820,4513.333333,4514.358974,4263.076923,4448.717948,4210.256410,4421.538461,4212.307692,4227.692307,4450.256410,4157.435897,4635.897435,4000.512820,4021.538461
136,4327.179487,4517.948717,4518.974358,4270.256410,4453.846153,4221.538461,4433.333333,4215.897435,4232.307692,4458.974358,4165.641025,4647.179487,3997.435898,4027.179487
137,4330.769230,4521.025641,4521.025641,4272.307692,4452.820512,4224.102564,4429.230769,4217.948717,4234.871794,4459.487179,4163.076923,4649.230769,3998.461539,4024.615384
138,4327.179487,4516.923076,4520.512820,4269.743589,4448.205128,4217.435897,4427.179487,4216.923076,4232.820512,4453.333333,4161.538461,4642.564102,4001.538461,4019.487179
139,4325.641025,4521.538461,4523.589743,4271.794871,4455.384615,4221.025641,4430.769230,4216.410256,4233.846153,4458.461538,4165.128205,4644.102564,4004.102564,4026.153846
140,4329.230769,4530.769230,4521.025641,4270.769230,4461.025641,4225.128205,4428.717948,4226.153846,4242.051282,4464.615384,4163.076923,4645.128205,4006.153846,4029.743589
141,4326.666666,4520.512820,4513.846153,4262.051282,4453.333333,4218.974358,4427.692307,4233.846153,4244.615384,4460.000000,4158.461538,4639.487179,4002.051282,4018.974358
142,4321.025641,4507.179487,4516.410256,4255.384615,4447.179487,4211.282051,4427.692307,4224.615384,4237.435897,4457.948717,4161.025641,4638.461538,3994.871795,4016.410256
143,4318.974358,4511.794871,4519.487179,4258.461538,4444.102564,4211.794871,4421.025641,4215.384615,4230.769230,4463.589743,4162.051282,4640.512820,3985.641026,4025.128205
144,4315.897435,4518.461538,4516.410256,4263.076923,4443.589743,4212.307692,4415.897435,4216.923076,4230.769230,4456.923076,4155.384615,4636.410256,3974.358975,4020.000000
145,4310.769230,4508.717948,4511.794871,4259.487179,4445.641025,4209.743589,4417.948717,4215.897435,4227.692307,4444.102564,4148.205128,4628.717948,3963.589744,4007.179487
146,4306.666666,4496.923076,4507.692307,4252.307692,4442.564102,4208.717948,4417.435897,4214.358974,4225.641025,4448.205128,4144.615384,4624.615384,3954.358975,4005.641025
147,4309.230769,4502.051282,4512.307692,4255.897435,4440.512820,4215.384615,4421.538461,4220.000000,4231.794871,4458.461538,4153.333333,4629.230769,3953.846154,4009.743589
148,4313.333333,4511.794871,4519.487179,4261.538461,4447.179487,4220.512820,4427.692307,4223.589743,4234.358974,4456.410256,4165.128205,4635.897435,3956.923077,4012.820512
149,4309.230769,4506.666666,4516.410256,4258.461538,4448.717948,4215.384615,4423.589743,4216.410256,4230.256410,4447.692307,4162.051282,4630.769230,3952.820513,4009.230769
150,4305.641025,4500.000000,4510.256410,4257.435897,4444.102564,4213.846153,4419.487179,4211.282051,4229.230769,4448.205128,4153.333333,4623.589743,3946.666667,4003.589743
151,4314.358974,4512.307692,4516.923076,4260.512820,4447.692307,4217.435897,4425.641025,4217.948717,4231.794871,4462.051282,4158.461538,4631.794871,3954.871795,4011.794871
152,4321.538461,4521.538461,4525.641025,4263.589743,4452.820512,4218.461538,4429.230769,4222.051282,4235.384615,4468.205128,4172.820512,4643.076923,3971.794872,4028.205128
153,4318.461538,4512.820512,4522.564102,4264.615384,4446.666666,4215.897435,4428.205128,4224.102564,4235.897435,4464.102564,4172.307692,4640.512820,3978.974359,4029.743589
154,4313.333333,4511.794871,4514.871794,4265.128205,4443.076923,4215.384615,4428.205128,4227.692307,4233.846153,4463.076923,4161.538461,4633.846153,3977.435898,4018.461538
155,4313.333333,4517.948717,4511.794871,4267.179487,4447.179487,4218.461538,4427.692307,4225.641025,4231.282051,4465.641025,4158.461538,4633.846153,3975.897436,4015.384615
156,4311.794871,4510.769230,4511.794871,4265.641025,4446.666666,4217.435897,4427.692307,4217.435897,4227.179487,4460.512820,4158.974358,4635.384615,3976.410257,4015.897435
157,4304.615384,4503.076923,4504.102564,4261.538461,4443.076923,4214.871794,4427.179487,4210.769230,4219.487179,4451.282051,4154.871794,4627.692307,3973.846154,4007.692307
158,4301.538461,4509.743589,4501.025641,4260.000000,4445.641025,4213.846153,4426.153846,4215.897435,4219.487179,4450.769230,4150.769230,4624.615384,3971.794872,3998.974359
159,4310.769230,4517.948717,4512.820512,4269.230769,4449.230769,4216.923076,4430.256410,4227.692307,4229.230769,4460.512820,4160.512820,4637.948717,3982.564103,4008.717948
160,4315.897435,4514.358974,4521.025641,4273.846153,4447.692307,4218.974358,4429.743589,4228.717948,4232.307692,4470.256410,4172.307692,4648.717948,3999.487180,4023.076923
161,4310.256410,4508.717948,4517.948717,4266.153846,4442.051282,4216.410256,4425.128205,4218.974358,4228.205128,4470.256410,4171.794871,4644.102564,4005.128205,4023.589743
162,4313.846153,4512.307692,4518.461538,4263.076923,4442.051282,4212.307692,4425.128205,4216.410256,4225.128205,4465.128205,4163.589743,4643.076923,4003.076923,4024.102564
163,4323.076923,4521.025641,4520.512820,4269.743589,4445.128205,4214.358974,4422.051282,4217.435897,4222.564102,4464.102564,4162.564102,4646.666666,4003.589743,4029.230769
164,4321.025641,4518.974358,4515.384615,4271.794871,4444.102564,4214.358974,4413.333333,4212.307692,4223.589743,4466.153846,4165.128205,4644.102564,4003.076923,4023.076923
165,4311.794871,4510.256410,4512.820512,4264.615384,4443.589743,4208.205128,4414.871794,4213.846153,4230.769230,4465.128205,4162.051282,4641.025641,4000.000000,4016.410256
166,4311.282051,4510.256410,4518.461538,4266.666666,4446.666666,4208.205128,4424.615384,4220.000000,4233.333333,4464.102564,4164.102564,4639.487179,4004.615384,4022.051282
167,4320.512820,4517.948717,4524.102564,4273.333333,4445.128205,4217.435897,4429.743589,4228.205128,4237.435897,4472.820512,4174.871794,4643.076923,4010.769230,4025.641025
168,4328.205128,4523.076923,4529.230769,4272.307692,4445.128205,4220.512820,4432.820512,4241.538461,4248.717948,4483.589743,4181.538461,4650.256410,4009.743589,4029.743589
169,4327.179487,4522.564102,4531.282051,4268.717948,4451.794871,4218.974358,4434.871794,4243.076923,4248.717948,4480.512820,4181.025641,4654.871794,4006.153846,4036.410256
170,4319.487179,4517.435897,4523.076923,4266.666666,4452.307692,4217.435897,4429.743589,4228.717948,4233.846153,4468.717948,4175.897435,4647.692307,3995.897436,4030.256410
171,4311.794871,4513.846153,4513.333333,4262.051282,4446.666666,4214.871794,4423.076923,4222.564102,4227.692307,4462.051282,4167.179487,4636.923076,3981.025642,4016.923076
172,4311.794871,4513.333333,4513.846153,4256.410256,4443.589743,4214.871794,4426.153846,4231.794871,4232.307692,4467.692307,4165.128205,4638.461538,3977.948718,4019.487179
173,4323.589743,4516.923076,4522.564102,4262.051282,4445.641025,4218.461538,4435.897435,4236.923076,4237.435897,4478.974358,4173.846153,4650.769230,3989.743590,4034.358974
174,4334.871794,4520.512820,4528.717948,4274.358974,4452.820512,4219.487179,4436.410256,4233.333333,4240.000000,4482.564102,4178.461538,4654.358974,3997.435898,4039.487179
175,4332.307692,4521.538461,4525.128205,4275.384615,4454.358974,4217.948717,4427.179487,4230.769230,4236.410256,4480.512820,4177.435897,4647.692307,3989.230770,4034.871794
176,4328.205128,4521.025641,4522.051282,4269.230769,4448.717948,4216.923076,4426.666666,4231.794871,4235.897435,4480.000000,4177.948717,4646.153846,3977.948718,4033.846153
177,4331.794871,4519.487179,4524.102564,4270.256410,4445.128205,4217.948717,4429.230769,4232.307692,4240.000000,4477.435897,4176.923076,4644.102564,3977.435898,4033.333333
178,4329.230769,4514.358974,4518.461538,4270.769230,4446.153846,4214.358974,4422.051282,4224.102564,4237.948717,4468.205128,4170.769230,4633.333333,3976.923077,4023.589743
179,4322.564102,4511.282051,4507.179487,4262.051282,4443.076923,4209.743589,4412.307692,4214.358974,4230.769230,4461.025641,4164.615384,4623.589743,3969.230770,4017.435897
180,4324.102564,4513.333333,4506.666666,4259.487179,4442.564102,4206.666666,4410.256410,4214.358974,4230.256410,4465.641025,4167.692307,4627.692307,3965.128206,4023.076923
181,4330.769230,4514.871794,4517.435897,4267.179487,4443.589743,4208.205128,4412.820512,4224.102564,4234.358974,4471.282051,4170.769230,4637.435897,3967.692308,4027.692307
182,4332.820512,4517.435897,4523.076923,4269.743589,4442.051282,4212.820512,4416.923076,4231.282051,4238.974358,4472.307692,4170.769230,4638.974358,3971.794872,4028.717948
183,4331.282051,4521.538461,4523.589743,4267.692307,4444.615384,4215.384615,4421.025641,4230.769230,4242.051282,4475.897435,4170.256410,4638.974358,3973.846154,4030.256410
184,4326.153846,4519.487179,4523.589743,4267.179487,4444.102564,4214.358974,4418.974358,4230.769230,4235.384615,4477.948717,4168.717948,4638.461538,3964.102565,4024.615384
185,4324.615384,4515.897435,4523.076923,4267.179487,4441.025641,4214.358974,4418.461538,4229.230769,4226.666666,4468.717948,4167.179487,4637.435897,3955.384616,4018.461538
186,4325.641025,4517.435897,4518.461538,4268.205128,4443.076923,4216.410256,4420.000000,4222.564102,4225.641025,4461.538461,4163.589743,4636.410256,3958.974359,4024.615384
187,4322.051282,4517.948717,4515.384615,4271.282051,4446.153846,4215.384615,4416.410256,4221.025641,4228.205128,4464.615384,4160.512820,4636.410256,3956.410257,4028.717948
188,4320.000000,4515.897435,4518.461538,4272.820512,4444.615384,4215.384615,4416.923076,4228.205128,4229.230769,4467.179487,4165.641025,4637.948717,3951.282052,4023.589743
189,4322.051282,4517.435897,4516.923076,4269.230769,4444.615384,4215.384615,4420.000000,4230.769230,4230.256410,4468.205128,4170.769230,4640.512820,3960.512821,4022.564102
190,4318.974358,4515.384615,4510.769230,4266.666666,4445.641025,4215.384615,4417.435897,4227.692307,4230.256410,4470.769230,4168.205128,4640.000000,3971.282052,4027.179487
191,4312.307692,4509.743589,4508.205128,4266.666666,4447.692307,4216.923076,4420.000000,4227.179487,4233.333333,4478.461538,4171.794871,4638.461538,3973.333334,4024.102564
192,4314.871794,4511.794871,4511.282051,4264.615384,4448.205128,4216.923076,4425.128205,4229.230769,4238.461538,4485.128205,4180.512820,4642.564102,3982.564103,4021.025641
193,4320.000000,4520.000000,4517.435897,4265.128205,4445.641025,4217.435897,4421.538461,4233.333333,4240.000000,4484.615384,4180.000000,4648.717948,3994.358975,4025.641025
194,4316.410256,4520.512820,4518.461538,4268.205128,4444.615384,4217.435897,4417.948717,4234.358974,4240.512820,4482.564102,4176.410256,4652.307692,3996.923077,4030.256410
195,4311.282051,4516.923076,4513.846153,4267.179487,4445.641025,4214.358974,4417.435897,4231.794871,4243.076923,4480.512820,4174.358974,4652.820512,3997.435898,4031.794871
196,4311.794871,4516.410256,4513.846153,4265.641025,4444.615384,4215.384615,4414.871794,4233.333333,4241.538461,4476.410256,4174.871794,4647.692307,3999.487180,4029.230769
197,4310.769230,4509.743589,4514.358974,4264.615384,4443.589743,4216.410256,4414.871794,4231.282051,4232.307692,4470.256410,4171.282051,4642.051282,3995.897436,4024.615384
198,4306.666666,4503.589743,4507.179487,4256.923076,4443.589743,4205.641025,4413.333333,4223.589743,4220.000000,4462.564102,4157.948717,4640.000000,3988.205129,4017.435897
199,4307.179487,4504.615384,4505.128205,4254.358974,4444.102564,4204.102564,4409.230769,4217.948717,4221.025641,4460.512820,4152.820512,4639.487179,3987.179488,4011.794871
200,4306.666666,4506.153846,4507.692307,4258.461538,4444.102564,4212.307692,4406.666666,4217.948717,4230.769230,4467.692307,4165.128205,4637.435897,3987.179488,4013.846153
201,4298.461538,4507.692307,4502.564102,4257.435897,4443.589743,4207.179487,4406.153846,4216.923076,4225.128205,4467.692307,4164.102564,4635.897435,3982.051283,4018.461538
202,4298.461538,4505.641025,4503.076923,4253.846153,4448.717948,4203.589743,4408.717948,4214.358974,4215.897435,4460.512820,4149.230769,4635.897435,3982.051283,4014.358974
203,4307.692307,4502.564102,4508.205128,4253.333333,4449.743589,4211.794871,4412.820512,4217.948717,4228.205128,4464.102564,4156.410256,4637.435897,3991.794872,4012.820512
204,4314.358974,4505.641025,4508.205128,4254.871794,4446.153846,4211.794871,4412.820512,4225.641025,4239.487179,4470.256410,4173.846153,4647.692307,4005.641025,4025.641025
205,4314.358974,4509.743589,4509.743589,4258.461538,4450.769230,4209.230769,4412.307692,4231.282051,4232.307692,4471.794871,4171.794871,4654.871794,4012.307692,4034.871794
206,4312.820512,4510.769230,4513.846153,4263.589743,4458.974358,4215.384615,4411.794871,4233.333333,4230.769230,4474.358974,4165.128205,4644.615384,4012.820512,4030.256410
207,4317.948717,4517.948717,4511.794871,4268.717948,4465.641025,4216.410256,4411.282051,4230.769230,4233.846153,4480.000000,4172.820512,4632.307692,4006.153846,4029.743589
208,4324.102564,4523.589743,4507.692307,4272.820512,4469.230769,4213.333333,4411.794871,4229.230769,4232.307692,4484.102564,4178.974358,4632.307692,3997.435898,4034.871794
209,4323.589743,4518.974358,4507.692307,4271.282051,4465.641025,4213.846153,4414.871794,4231.282051,4232.307692,4480.000000,4170.256410,4634.358974,3990.769231,4029.743589
210,4326.153846,4516.923076,4509.743589,4266.666666,4464.102564,4214.871794,4419.487179,4232.307692,4232.307692,4475.897435,4164.102564,4634.358974,3985.128206,4023.589743
211,4332.820512,4523.589743,4516.410256,4271.794871,4472.820512,4217.948717,4424.102564,4232.307692,4232.307692,4479.487179,4168.205128,4637.435897,3984.102565,4028.205128
212,4333.846153,4526.153846,4520.000000,4277.435897,4477.948717,4219.487179,4424.102564,4237.948717,4237.948717,4483.076923,4172.307692,4645.641025,3987.179488,4033.333333
213,4332.307692,4518.974358,4517.948717,4274.871794,4473.846153,4217.435897,4420.000000,4240.512820,4242.564102,4482.564102,4176.410256,4648.205128,3985.641026,4033.333333
214,4330.769230,4510.769230,4514.358974,4266.153846,4471.794871,4215.384615,4416.923076,4232.820512,4235.897435,4485.128205,4174.871794,4640.512820,3974.871795,4028.717948
215,4325.128205,4506.666666,4512.307692,4260.000000,4471.282051,4215.384615,4419.487179,4230.769230,4230.256410,4486.153846,4171.282051,4633.846153,3968.717949,4021.538461
216,4317.948717,4505.128205,4509.230769,4264.102564,4473.846153,4216.923076,4425.128205,4236.923076,4232.307692,4483.076923,4169.743589,4632.307692,3966.153847,4019.487179
217,4310.256410,4501.538461,4503.076923,4264.615384,4474.871794,4215.897435,4425.641025,4236.410256,4234.358974,4477.435897,4160.512820,4626.666666,3960.000000,4016.410256
218,4304.615384,4501.025641,4500.512820,4257.948717,4471.282051,4213.333333,4423.589743,4227.179487,4230.769230,4473.846153,4151.282051,4616.410256,3958.974359,4009.230769
219,4307.692307,4507.179487,4500.000000,4261.538461,4475.384615,4215.897435,4418.974358,4218.974358,4225.128205,4477.948717,4155.897435,4613.846153,3967.179488,4011.282051
220,4307.179487,4509.230769,4497.435897,4267.692307,4481.025641,4219.487179,4411.282051,4215.384615,4222.051282,4476.923076,4156.923076,4618.461538,3973.333334,4016.410256
221,4295.897435,4499.487179,4490.256410,4255.897435,4474.358974,4211.282051,4407.179487,4216.923076,4221.025641,4470.256410,4147.179487,4615.897435,3971.794872,4011.794871
222,4297.948717,4494.871794,4489.230769,4248.717948,4468.717948,4205.641025,4413.333333,4224.615384,4227.692307,4479.487179,4154.358974,4613.333333,3978.461539,4012.820512
223,4311.282051,4503.076923,4500.512820,4260.512820,4473.846153,4213.846153,4422.564102,4233.846153,4235.384615,4491.794871,4168.205128,4618.974358,3984.102565,4022.564102
224,4307.692307,4506.153846,4505.128205,4261.538461,4476.923076,4214.871794,4422.051282,4235.897435,4235.384615,4485.641025,4161.538461,4620.000000,3980.000000,4024.615384
225,4295.384615,4503.076923,4498.461538,4253.846153,4475.384615,4209.743589,4414.871794,4231.794871,4231.282051,4478.461538,4155.897435,4613.846153,3985.128206,4017.948717
226,4297.435897,4504.615384,4496.410256,4257.948717,4475.897435,4214.358974,4411.794871,4229.230769,4225.641025,4483.076923,4161.025641,4614.871794,3995.384616,4016.410256
227,4303.076923,4511.794871,4503.589743,4264.102564,4481.025641,4220.000000,4412.307692,4230.769230,4224.102564,4487.692307,4162.564102,4624.615384,3994.358975,4023.076923
228,4305.641025,4520.512820,4509.230769,4264.615384,4485.641025,4216.923076,4411.794871,4232.307692,4227.179487,4484.615384,4164.615384,4631.282051,4000.000000,4032.307692
229,4309.743589,4520.512820,4515.384615,4267.179487,4481.538461,4211.282051,4409.743589,4231.794871,4231.794871,4480.512820,4175.897435,4641.025641,4018.461538,4037.435897
230,4309.743589,4512.820512,4522.564102,4266.666666,4472.307692,4203.076923,4408.717948,4233.333333,4235.384615,4484.102564,4183.589743,4647.692307,4021.538461,4036.410256
231,4308.205128,4516.923076,4525.641025,4263.076923,4471.794871,4197.948717,4414.358974,4241.025641,4243.589743,4493.333333,4183.076923,4648.717948,4016.410256,4038.974358
232,4312.820512,4527.179487,4531.794871,4270.256410,4475.897435,4206.666666,4424.615384,4249.230769,4251.794871,4499.487179,4188.717948,4653.333333,4022.564102,4045.641025
233,4313.846153,4526.666666,4534.358974,4275.384615,4474.871794,4217.435897,4431.282051,4251.282051,4250.256410,4493.333333,4195.384615,4657.435897,4028.205128,4048.717948
234,4308.205128,4520.512820,4526.666666,4269.230769,4474.871794,4219.487179,4428.717948,4246.153846,4242.051282,4485.641025,4188.717948,4653.333333,4017.435897,4041.025641
235,4295.384615,4511.794871,4518.461538,4262.564102,4477.435897,4220.000000,4420.512820,4242.051282,4235.384615,4480.000000,4172.820512,4643.076923,3988.205129,4027.692307
236,4279.487179,4505.128205,4515.384615,4260.512820,4475.384615,4215.384615,4412.307692,4236.923076,4229.743589,4468.205128,4163.076923,4636.410256,3967.692308,4020.512820
237,4276.410256,4508.205128,4514.358974,4258.461538,4473.333333,4210.256410,4410.769230,4231.282051,4226.153846,4459.487179,4166.666666,4638.974358,3975.384616,4023.076923
238,4287.179487,4508.205128,4515.384615,4259.487179,4474.358974,4214.358974,4413.333333,4234.871794,4228.717948,4465.641025,4175.384615,4643.589743,3981.538462,4026.153846
239,4292.307692,4503.589743,4518.461538,4261.538461,4469.230769,4213.333333,4418.461538,4238.461538,4232.820512,4474.358974,4179.487179,4644.102564,3971.794872,4026.666666
240,4289.743589,4509.230769,4520.000000,4262.051282,4461.025641,4205.128205,4424.615384,4238.461538,4236.410256,4474.871794,4178.974358,4647.692307,3969.743590,4031.282051
241,4298.461538,4520.000000,4527.179487,4265.641025,4465.128205,4209.743589,4427.692307,4249.230769,4249.230769,4484.102564,4188.717948,4660.512820,3982.564103,4042.564102
242,4308.205128,4525.128205,4534.871794,4270.256410,4474.358974,4220.000000,4427.179487,4264.102564,4265.641025,4498.974358,4202.564102,4668.717948,3990.769231,4055.897435
243,4305.641025,4525.641025,4531.794871,4270.769230,4481.538461,4218.461538,4428.205128,4263.589743,4267.179487,4500.000000,4200.000000,4664.102564,3990.769231,4055.897435
244,4297.435897,4518.461538,4525.128205,4269.743589,4484.102564,4213.846153,4430.256410,4255.384615,4252.820512,4490.769230,4188.205128,4658.461538,3982.051283,4044.102564
245,4285.641025,4509.743589,4521.025641,4266.666666,4481.538461,4220.000000,4430.256410,4250.769230,4243.076923,4480.512820,4181.025641,4655.897435,3976.410257,4034.871794
246,4275.384615,4506.153846,4516.923076,4261.025641,4483.589743,4227.179487,4431.282051,4246.666666,4242.564102,4469.743589,4178.974358,4648.205128,3982.051283,4030.769230
247,4278.461538,4509.230769,4517.435897,4261.538461,4491.794871,4226.153846,4436.410256,4247.179487,4240.000000,4474.871794,4183.589743,4646.153846,3992.307693,4032.307692
248,4286.666666,4515.384615,4524.102564,4270.256410,4491.794871,4224.102564,4433.333333,4250.769230,4237.948717,4488.205128,4185.128205,4654.871794,3999.487180,4038.974358
249,4284.102564,4520.512820,4528.717948,4274.871794,4487.179487,4221.025641,4426.153846,4249.743589,4242.564102,4484.102564,4183.076923,4661.538461,4000.512820,4041.025641
250,4284.615384,4524.102564,4535.384615,4274.871794,4490.256410,4221.538461,4430.769230,4256.410256,4253.333333,4481.538461,4192.820512,4664.615384,4004.615384,4042.051282
251,4294.358974,4524.615384,4543.076923,4276.923076,4491.794871,4225.641025,4440.000000,4267.692307,4263.076923,4500.000000,4201.538461,4672.820512,4018.461538,4052.820512
252,4292.307692,4524.102564,4541.025641,4280.512820,4489.743589,4223.589743,4438.974358,4269.743589,4267.692307,4506.153846,4201.025641,4676.923076,4026.153846,4056.923076
253,4285.128205,4523.589743,4541.025641,4278.974358,4490.769230,4223.076923,4435.897435,4265.641025,4264.615384,4497.948717,4201.538461,4673.846153,4022.564102,4050.769230
254,4283.076923,4523.589743,4542.564102,4277.948717,4490.769230,4228.717948,4435.897435,4265.128205,4257.435897,4500.000000,4193.846153,4666.666666,4017.948717,4048.717948
255,4278.461538,4523.589743,4534.358974,4278.461538,4492.307692,4229.230769,4430.769230,4256.923076,4250.256410,4495.897435,4180.000000,4658.461538,4012.307692,4040.512820
256,4270.769230,4521.538461,4524.102564,4277.435897,4500.512820,4226.666666,4427.179487,4247.179487,4244.102564,4484.102564,4178.461538,4655.384615,4005.641025,4032.820512
257,4270.256410,4518.974358,4521.538461,4274.871794,4503.076923,4228.717948,4428.717948,4248.205128,4240.512820,4484.102564,4178.974358,4656.923076,4005.641025,4033.333333
258,4268.717948,4520.000000,4524.102564,4270.256410,4494.871794,4228.205128,4428.717948,4250.256410,4242.564102,4490.769230,4177.948717,4656.410256,4005.641025,4028.717948
259,4262.564102,4517.435897,4522.564102,4264.615384,4490.256410,4225.641025,4426.153846,4247.179487,4240.512820,4485.641025,4180.000000,4655.384615,4000.000000,4020.512820
