,AF3,F7,F3,FC5,T7,P7,O1,O2,P8,T8,FC6,F4,F8,AF4
0,4390.769230,4526.666666,4550.769230,4277.948717,4516.923076,4220.512820,4447.179487,4230.769230,4235.897435,4513.333333,4220.512820,4662.051282,4011.282051,4076.923076
1,4383.589743,4519.487179,4546.153846,4278.461538,4510.256410,4223.589743,4447.692307,4229.230769,4240.512820,4516.923076,4213.333333,4663.076923,4013.333333,4067.692307
2,4386.666666,4515.897435,4547.179487,4273.333333,4511.282051,4221.025641,4452.307692,4230.256410,4238.974358,4522.051282,4218.461538,4663.076923,4019.487179,4068.205128
3,4398.974358,4518.461538,4554.358974,4272.820512,4513.333333,4225.128205,4458.461538,4229.743589,4238.461538,4522.051282,4224.102564,4664.102564,4023.589743,4079.487179
4,4400.000000,4524.615384,4554.871794,4280.000000,4519.487179,4233.846153,4460.512820,4232.307692,4240.000000,4517.948717,4221.538461,4667.692307,4019.487179,4084.102564
5,4394.871794,4527.179487,4548.717948,4281.025641,4524.615384,4227.179487,4454.358974,4234.358974,4236.410256,4522.564102,4217.948717,4667.692307,4017.948717,4080.512820
6,4396.410256,4525.641025,4550.256410,4276.923076,4522.564102,4215.384615,4445.641025,4230.256410,4230.769230,4520.000000,4215.384615,4662.564102,4018.461538,4076.410256
7,4398.461538,4521.025641,4555.384615,4278.461538,4521.025641,4218.974358,4445.128205,4228.717948,4232.820512,4506.666666,4218.974358,4659.487179,4016.410256,4075.384615
8,4394.871794,4513.333333,4549.743589,4283.076923,4520.512820,4221.538461,4446.666666,4230.256410,4236.923076,4502.051282,4221.538461,4660.000000,4011.794871,4073.846153
9,4391.282051,4514.871794,4543.589743,4277.948717,4521.025641,4213.846153,4444.615384,4228.205128,4232.820512,4507.179487,4208.717948,4658.974358,4002.051282,4065.641025
10,4389.230769,4523.076923,4547.692307,4270.256410,4521.025641,4214.871794,4442.564102,4229.743589,4231.282051,4505.641025,4199.487179,4656.410256,3998.974359,4061.025641
11,4387.179487,4521.538461,4548.717948,4273.846153,4510.256410,4219.487179,4444.102564,4231.794871,4236.923076,4507.179487,4207.692307,4656.923076,4007.692307,4065.128205
12,4391.282051,4518.461538,4545.128205,4277.435897,4501.538461,4218.974358,4446.666666,4224.615384,4238.974358,4514.358974,4220.512820,4661.025641,4009.230769,4069.230769
13,4397.435897,4521.538461,4550.769230,4272.307692,4511.794871,4220.512820,4449.230769,4222.564102,4233.333333,4510.256410,4223.076923,4661.538461,4006.666666,4072.307692
14,4398.974358,4521.025641,4554.871794,4273.846153,4517.435897,4223.076923,4448.205128,4227.692307,4231.282051,4503.589743,4212.820512,4660.000000,4011.282051,4073.846153
15,4401.025641,4524.102564,4553.846153,4280.512820,4510.769230,4221.025641,4451.282051,4230.769230,4232.820512,4506.153846,4214.358974,4666.666666,4018.461538,4076.410256
16,4400.512820,4531.282051,4554.358974,4283.076923,4517.948717,4221.025641,4456.410256,4231.282051,4237.948717,4511.794871,4231.282051,4669.230769,4018.974358,4075.897435
17,4390.256410,4518.461538,4545.128205,4277.435897,4521.538461,4217.948717,4449.743589,4225.641025,4238.461538,4504.102564,4220.000000,4656.410256,4005.641025,4068.205128
18,4382.564102,4505.641025,4534.358974,4270.769230,4507.692307,4209.230769,4441.025641,4213.846153,4229.230769,4492.820512,4197.435897,4646.153846,3992.820513,4063.589743
19,4391.794871,4521.025641,4540.512820,4270.256410,4506.666666,4211.282051,4444.615384,4212.307692,4228.717948,4500.512820,4213.846153,4655.897435,3994.871795,4066.666666
20,4397.435897,4527.692307,4546.666666,4272.307692,4517.435897,4218.974358,4449.230769,4220.512820,4234.358974,4507.179487,4223.076923,4662.564102,4001.538461,4066.153846
21,4387.179487,4508.205128,4538.461538,4268.717948,4508.717948,4216.923076,4444.102564,4217.948717,4227.179487,4494.358974,4197.435897,4652.307692,4002.051282,4056.410256
22,4385.128205,4505.128205,4538.974358,4271.794871,4500.512820,4212.820512,4443.589743,4212.820512,4225.128205,4492.820512,4194.871794,4653.846153,4009.743589,4058.461538
23,4393.846153,4516.923076,4549.743589,4281.025641,4508.717948,4215.384615,4446.153846,4222.051282,4235.897435,4516.923076,4219.487179,4664.615384,4014.871794,4073.333333
24,4396.923076,4511.282051,4549.230769,4275.897435,4506.666666,4216.410256,4444.102564,4229.230769,4233.333333,4521.025641,4230.769230,4663.589743,4001.538461,4076.410256
25,4397.435897,4506.153846,4542.564102,4267.179487,4504.102564,4214.871794,4444.615384,4223.076923,4230.769230,4498.461538,4225.641025,4660.512820,3998.461539,4068.205128
26,4394.871794,4511.282051,4542.564102,4266.153846,4511.282051,4211.794871,4444.102564,4215.897435,4237.948717,4495.384615,4206.666666,4658.974358,4007.179487,4062.051282
27,4381.538461,4507.692307,4538.974358,4265.128205,4505.128205,4202.564102,4434.871794,4210.769230,4228.717948,4499.487179,4191.282051,4650.769230,3993.846154,4054.871794
28,4380.000000,4510.769230,4535.897435,4264.102564,4499.487179,4202.564102,4434.871794,4213.333333,4223.076923,4501.025641,4209.230769,4652.307692,3981.025642,4055.384615
29,4390.769230,4516.923076,4540.512820,4263.589743,4509.230769,4210.256410,4443.076923,4217.435897,4229.743589,4501.025641,4225.641025,4660.512820,3988.717949,4061.025641
30,4384.615384,4508.205128,4537.435897,4262.564102,4506.153846,4206.666666,4438.461538,4208.205128,4223.589743,4496.410256,4205.128205,4650.769230,3989.743590,4051.794871
31,4378.974358,4509.743589,4533.846153,4262.051282,4497.435897,4204.615384,4433.846153,4206.666666,4223.589743,4498.974358,4200.000000,4648.717948,3990.769231,4048.717948
32,4392.307692,4520.512820,4539.487179,4265.641025,4504.102564,4213.333333,4444.102564,4219.487179,4237.435897,4505.128205,4218.974358,4660.512820,4005.128205,4063.589743
33,4395.384615,4515.384615,4540.000000,4269.743589,4510.769230,4214.871794,4445.641025,4214.871794,4237.435897,4503.076923,4212.820512,4657.435897,4004.615384,4067.179487
34,4384.615384,4508.205128,4534.871794,4267.692307,4506.666666,4209.743589,4435.897435,4203.076923,4230.256410,4494.871794,4198.461538,4649.743589,3991.282052,4055.897435
35,4381.025641,4510.769230,4533.846153,4261.538461,4503.589743,4214.358974,4437.435897,4205.128205,4229.230769,4490.769230,4203.589743,4649.743589,3991.794872,4051.282051
36,4380.000000,4507.179487,4530.769230,4258.461538,4507.692307,4216.410256,4441.538461,4204.615384,4222.564102,4491.282051,4206.666666,4644.102564,3989.743590,4053.333333
37,4383.589743,4505.641025,4528.717948,4264.615384,4513.333333,4212.820512,4442.564102,4206.666666,4223.076923,4501.025641,4205.641025,4642.564102,3983.589744,4059.487179
38,4391.794871,4512.307692,4536.923076,4268.717948,4513.846153,4216.410256,4444.615384,4218.461538,4234.358974,4501.025641,4207.692307,4651.282051,3991.794872,4064.615384
39,4390.256410,4511.282051,4542.051282,4265.641025,4506.666666,4217.435897,4444.102564,4216.410256,4229.743589,4490.769230,4201.538461,4652.820512,3994.358975,4057.948717
40,4385.641025,4509.743589,4538.974358,4263.589743,4498.461538,4210.769230,4442.051282,4212.307692,4225.641025,4499.487179,4196.923076,4649.230769,3987.692308,4054.871794
41,4387.692307,4509.230769,4537.435897,4265.641025,4502.051282,4208.717948,4442.564102,4217.948717,4234.358974,4505.128205,4203.589743,4650.256410,3992.307693,4059.487179
42,4387.692307,4506.153846,4540.000000,4265.641025,4512.820512,4213.333333,4443.589743,4217.435897,4230.256410,4489.230769,4209.743589,4651.794871,3996.923077,4058.974358
43,4382.564102,4506.666666,4537.948717,4263.076923,4512.307692,4215.384615,4442.051282,4211.794871,4222.564102,4483.589743,4210.769230,4646.153846,3988.205129,4057.435897
44,4382.564102,4511.794871,4536.410256,4261.538461,4502.564102,4215.384615,4444.102564,4217.948717,4236.410256,4505.641025,4205.641025,4646.153846,3989.230770,4059.487179
45,4391.282051,4512.820512,4546.153846,4264.102564,4504.615384,4217.435897,4447.692307,4230.256410,4247.179487,4522.051282,4198.461538,4657.435897,4004.102564,4062.051282
46,4392.307692,4508.717948,4550.769230,4267.692307,4510.256410,4218.461538,4447.179487,4227.179487,4237.435897,4512.820512,4207.692307,4658.461538,3998.461539,4060.000000
47,4382.564102,4506.153846,4540.512820,4263.589743,4505.641025,4214.358974,4444.102564,4215.897435,4227.692307,4495.897435,4217.435897,4648.205128,3981.025642,4056.923076
48,4376.923076,4505.128205,4533.846153,4260.512820,4503.076923,4210.769230,4443.589743,4215.384615,4225.641025,4493.846153,4206.153846,4647.692307,3985.128206,4059.487179
49,4382.051282,4509.230769,4536.923076,4267.179487,4507.692307,4211.794871,4445.641025,4219.487179,4226.153846,4501.025641,4198.974358,4653.846153,3993.333334,4060.512820
50,4386.153846,4515.897435,4540.512820,4270.256410,4504.102564,4214.871794,4445.641025,4216.410256,4227.179487,4497.948717,4211.282051,4654.871794,3981.025642,4053.846153
51,4383.589743,4512.307692,4544.102564,4265.128205,4498.461538,4216.923076,4443.589743,4214.871794,4229.230769,4491.282051,4212.820512,4655.897435,3972.307693,4051.282051
52,4379.487179,4504.102564,4545.128205,4263.076923,4498.974358,4216.410256,4442.564102,4214.358974,4228.717948,4491.794871,4198.461538,4658.461538,3982.051283,4056.923076
53,4381.025641,4506.666666,4539.487179,4262.051282,4494.358974,4211.794871,4441.538461,4213.846153,4230.256410,4494.871794,4197.435897,4656.923076,3989.743590,4059.487179
54,4389.743589,4514.358974,4538.461538,4262.564102,4493.333333,4209.743589,4442.564102,4222.051282,4232.820512,4500.512820,4208.717948,4656.923076,3991.794872,4059.487179
55,4385.128205,4506.666666,4540.000000,4262.564102,4496.923076,4208.717948,4442.051282,4224.102564,4230.769230,4502.051282,4205.641025,4655.897435,3986.666667,4056.410256
56,4374.358974,4494.871794,4535.384615,4255.897435,4495.384615,4204.615384,4441.025641,4218.461538,4230.769230,4493.846153,4201.025641,4653.333333,3976.410257,4046.666666
57,4378.974358,4498.974358,4533.846153,4246.153846,4491.794871,4206.153846,4449.230769,4222.051282,4233.846153,4490.256410,4205.128205,4656.410256,3981.025642,4047.692307
58,4387.179487,4504.615384,4543.589743,4246.666666,4495.897435,4216.923076,4459.487179,4234.871794,4237.435897,4504.615384,4205.641025,4661.538461,3997.435898,4060.000000
59,4383.589743,4504.615384,4547.692307,4261.538461,4504.102564,4222.051282,4460.512820,4238.461538,4242.051282,4511.282051,4204.102564,4661.025641,3998.974359,4062.051282
60,4382.564102,4513.333333,4544.102564,4271.282051,4505.128205,4216.923076,4456.410256,4232.820512,4247.692307,4505.128205,4209.230769,4658.461538,3988.205129,4057.435897
61,4392.307692,4526.666666,4550.769230,4270.769230,4504.102564,4217.948717,4458.461538,4233.846153,4247.179487,4505.128205,4216.410256,4664.615384,3988.717949,4059.487179
62,4394.871794,4525.641025,4553.846153,4271.282051,4507.692307,4222.051282,4455.897435,4235.384615,4239.487179,4509.230769,4209.230769,4667.692307,3995.897436,4061.025641
63,4384.102564,4514.871794,4541.538461,4265.128205,4505.641025,4213.846153,4444.102564,4224.102564,4228.205128,4505.128205,4190.256410,4653.846153,3992.307693,4051.794871
64,4374.871794,4509.230769,4529.743589,4252.307692,4496.410256,4205.128205,4437.948717,4211.282051,4217.948717,4490.256410,4179.487179,4642.051282,3985.128206,4041.538461
65,4376.923076,4506.666666,4531.794871,4253.333333,4493.333333,4211.282051,4442.051282,4213.333333,4221.025641,4481.025641,4189.230769,4646.666666,3985.641026,4044.615384
66,4380.512820,4506.666666,4535.897435,4266.666666,4496.923076,4218.974358,4445.128205,4218.461538,4231.282051,4490.769230,4204.615384,4654.871794,3989.743590,4052.307692
67,4380.512820,4511.282051,4535.384615,4264.615384,4501.538461,4214.358974,4443.076923,4219.487179,4234.871794,4505.128205,4205.641025,4660.512820,3997.435898,4051.794871
68,4383.589743,4513.846153,4542.051282,4260.000000,4505.128205,4213.333333,4443.589743,4225.128205,4233.846153,4506.153846,4198.461538,4666.153846,4004.102564,4051.794871
69,4387.179487,4516.923076,4549.743589,4268.205128,4503.076923,4217.435897,4444.615384,4232.307692,4236.923076,4510.769230,4197.948717,4665.641025,3997.435898,4059.487179
70,4385.128205,4521.025641,4546.153846,4267.692307,4505.128205,4217.435897,4444.102564,4232.820512,4239.487179,4517.435897,4205.128205,4663.589743,3992.820513,4058.974358
71,4382.564102,4523.076923,4540.512820,4257.435897,4505.641025,4216.923076,4444.102564,4230.256410,4236.410256,4506.666666,4207.179487,4662.051282,4001.538461,4051.282051
72,4387.179487,4521.538461,4545.641025,4265.641025,4497.435897,4216.410256,4444.102564,4236.923076,4238.461538,4505.641025,4209.230769,4663.589743,4010.769230,4058.461538
73,4394.358974,4523.589743,4550.769230,4276.923076,4501.538461,4217.435897,4444.102564,4244.102564,4244.615384,4516.410256,4211.794871,4668.717948,4009.743589,4068.205128
74,4390.256410,4525.128205,4547.692307,4268.205128,4511.794871,4218.461538,4443.589743,4236.923076,4244.615384,4513.846153,4204.615384,4669.743589,3998.974359,4062.051282
75,4385.641025,4521.538461,4548.717948,4266.666666,4504.102564,4218.461538,4443.589743,4230.256410,4243.076923,4506.666666,4197.435897,4669.743589,3996.410257,4056.923076
76,4391.282051,4523.589743,4553.846153,4277.435897,4501.538461,4218.461538,4445.128205,4232.307692,4244.615384,4507.692307,4202.564102,4670.769230,4004.102564,4061.025641
77,4392.307692,4522.564102,4552.307692,4268.717948,4506.666666,4216.923076,4442.051282,4227.179487,4234.358974,4505.641025,4200.512820,4667.692307,4005.128205,4060.000000
78,4391.794871,4516.923076,4552.307692,4258.461538,4501.538461,4214.871794,4440.512820,4223.589743,4226.666666,4500.512820,4201.025641,4672.307692,4001.025641,4062.564102
79,4404.102564,4528.205128,4564.615384,4276.410256,4502.564102,4219.487179,4450.256410,4235.897435,4243.076923,4508.717948,4219.487179,4686.666666,4012.820512,4078.974358
80,4407.179487,4539.487179,4569.230769,4284.102564,4508.717948,4225.128205,4455.384615,4239.487179,4250.769230,4516.923076,4214.358974,4685.641025,4018.974358,4080.512820
81,4389.230769,4527.179487,4554.871794,4263.589743,4505.128205,4221.025641,4446.153846,4224.615384,4232.307692,4507.179487,4187.179487,4669.743589,3998.461539,4063.076923
82,4381.025641,4515.897435,4548.205128,4263.589743,4502.051282,4213.846153,4440.000000,4215.384615,4221.538461,4493.333333,4189.743589,4663.076923,3984.615385,4054.871794
83,4392.307692,4522.564102,4554.358974,4278.974358,4504.615384,4214.871794,4445.128205,4224.102564,4230.769230,4500.000000,4212.820512,4671.794871,3994.871795,4060.512820
84,4397.435897,4524.102564,4555.384615,4271.282051,4506.666666,4219.487179,4446.666666,4233.333333,4239.487179,4509.230769,4220.512820,4679.487179,4008.717948,4069.230769
85,4390.769230,4522.051282,4553.846153,4262.051282,4508.717948,4219.487179,4444.102564,4231.794871,4238.974358,4506.666666,4215.384615,4674.871794,4009.230769,4069.230769
86,4384.615384,4524.615384,4554.358974,4269.743589,4504.615384,4217.948717,4443.076923,4227.692307,4236.410256,4512.820512,4203.076923,4668.717948,4002.051282,4062.564102
87,4384.102564,4525.641025,4550.256410,4273.333333,4496.923076,4218.974358,4442.564102,4227.179487,4233.333333,4520.000000,4188.717948,4668.205128,3991.282052,4057.435897
88,4388.717948,4529.743589,4547.692307,4273.846153,4500.512820,4218.974358,4443.589743,4228.717948,4230.256410,4511.794871,4197.948717,4667.692307,3986.153847,4058.974358
89,4394.358974,4532.820512,4552.820512,4280.000000,4508.717948,4217.435897,4443.076923,4230.769230,4231.282051,4504.615384,4218.974358,4668.205128,3998.974359,4066.666666
90,4397.435897,4532.820512,4555.384615,4276.923076,4508.205128,4222.051282,4444.615384,4231.794871,4236.410256,4506.666666,4220.512820,4671.282051,4009.743589,4071.794871
91,4391.794871,4526.666666,4546.666666,4266.666666,4502.564102,4222.564102,4444.102564,4228.717948,4231.794871,4503.589743,4207.692307,4667.692307,3997.435898,4058.461538
92,4380.512820,4517.435897,4539.487179,4263.076923,4500.000000,4210.769230,4433.846153,4216.923076,4218.974358,4492.820512,4192.307692,4657.948717,3982.051283,4042.564102
93,4380.000000,4519.487179,4543.589743,4267.179487,4498.461538,4206.666666,4431.282051,4210.769230,4221.025641,4492.307692,4185.641025,4658.461538,3985.128206,4050.769230
94,4389.743589,4525.641025,4552.307692,4272.307692,4501.538461,4216.923076,4442.564102,4222.051282,4235.384615,4508.205128,4198.974358,4667.692307,3991.282052,4065.128205
95,4395.384615,4527.179487,4555.897435,4278.974358,4509.230769,4220.512820,4447.179487,4234.871794,4241.025641,4516.923076,4216.923076,4674.358974,3995.384616,4063.589743
96,4395.384615,4529.743589,4555.897435,4279.487179,4511.282051,4216.923076,4443.076923,4231.282051,4237.948717,4502.564102,4216.410256,4677.435897,4003.076923,4060.000000
97,4394.358974,4533.846153,4555.897435,4269.230769,4505.641025,4218.461538,4444.102564,4225.128205,4235.897435,4493.846153,4209.230769,4676.923076,4000.512820,4062.564102
98,4388.205128,4522.564102,4554.871794,4263.589743,4502.564102,4216.923076,4442.564102,4223.076923,4232.307692,4503.076923,4201.025641,4668.717948,3990.769231,4060.512820
99,4387.692307,4518.461538,4553.846153,4270.256410,4505.128205,4214.871794,4440.000000,4221.538461,4229.743589,4514.358974,4195.897435,4667.179487,3991.282052,4061.538461
100,4394.358974,4528.205128,4554.358974,4275.897435,4507.179487,4217.948717,4444.615384,4227.692307,4235.897435,4513.846153,4208.717948,4673.846153,3994.871795,4067.692307
101,4388.205128,4527.179487,4553.846153,4273.846153,4506.666666,4217.948717,4445.641025,4232.307692,4235.384615,4502.564102,4221.025641,4671.282051,3991.794872,4060.512820
102,4379.487179,4522.051282,4552.820512,4271.282051,4509.230769,4214.871794,4443.076923,4223.589743,4225.128205,4495.897435,4212.307692,4665.128205,3991.282052,4050.256410
103,4381.025641,4524.615384,4549.230769,4264.615384,4514.358974,4216.923076,4443.076923,4215.384615,4220.000000,4499.487179,4201.025641,4664.615384,3990.256411,4050.256410
104,4373.846153,4520.000000,4545.641025,4260.000000,4511.282051,4216.923076,4440.512820,4214.871794,4220.000000,4498.461538,4197.948717,4659.487179,3986.153847,4046.666666
105,4367.692307,4516.410256,4547.179487,4267.179487,4508.717948,4215.897435,4437.435897,4215.897435,4220.000000,4489.230769,4191.794871,4653.333333,3987.179488,4042.564102
106,4382.051282,4528.717948,4550.256410,4274.358974,4514.871794,4219.487179,4441.538461,4218.461538,4225.128205,4491.794871,4193.846153,4657.948717,3983.076924,4051.282051
107,4396.923076,4540.512820,4550.256410,4281.025641,4519.487179,4226.666666,4451.794871,4229.230769,4234.871794,4505.128205,4214.358974,4666.666666,3978.461539,4057.948717
108,4392.307692,4541.025641,4552.307692,4283.589743,4518.461538,4231.282051,4455.384615,4232.307692,4232.820512,4508.717948,4219.487179,4669.230769,3987.692308,4054.358974
109,4383.076923,4533.846153,4554.358974,4274.871794,4510.256410,4225.128205,4447.692307,4223.589743,4221.538461,4504.615384,4202.051282,4664.615384,3994.358975,4047.692307
110,4380.000000,4525.641025,4547.692307,4264.615384,4507.692307,4217.948717,4441.538461,4218.974358,4218.974358,4500.512820,4201.538461,4660.000000,3990.769231,4045.128205
111,4379.487179,4525.128205,4544.102564,4269.743589,4512.820512,4216.410256,4443.076923,4222.564102,4226.153846,4500.512820,4216.923076,4664.102564,3994.871795,4054.358974
112,4381.538461,4527.692307,4550.769230,4280.512820,4511.794871,4217.948717,4445.128205,4228.717948,4233.846153,4507.179487,4212.820512,4666.666666,3998.461539,4058.461538
113,4384.615384,4530.769230,4555.897435,4282.051282,4507.179487,4224.102564,4449.230769,4232.820512,4239.487179,4512.820512,4204.102564,4664.615384,3992.307693,4054.358974
114,4381.538461,4526.153846,4546.666666,4273.846153,4515.384615,4225.128205,4448.717948,4228.205128,4235.384615,4502.051282,4209.230769,4664.102564,3986.666667,4050.256410
115,4373.846153,4517.435897,4534.358974,4263.076923,4517.948717,4214.358974,4436.410256,4213.846153,4218.974358,4489.743589,4207.692307,4657.435897,3987.179488,4043.589743
116,4381.538461,4524.615384,4541.538461,4265.641025,4505.641025,4214.871794,4434.358974,4212.820512,4217.435897,4508.205128,4209.743589,4656.923076,3995.384616,4046.153846
117,4398.461538,4542.051282,4557.435897,4279.487179,4505.128205,4232.820512,4446.666666,4230.256410,4234.358974,4529.743589,4224.102564,4674.871794,4002.051282,4063.076923
118,4393.333333,4540.000000,4554.358974,4279.487179,4509.230769,4233.846153,4448.717948,4236.410256,4236.923076,4514.358974,4222.051282,4680.000000,3996.410257,4065.128205
119,4383.076923,4529.743589,4544.102564,4272.307692,4503.589743,4216.410256,4441.538461,4227.179487,4226.153846,4495.897435,4207.179487,4666.153846,3994.871795,4056.410256
120,4390.256410,4536.410256,4549.743589,4279.487179,4507.179487,4218.461538,4442.564102,4228.717948,4229.743589,4504.102564,4215.897435,4666.666666,4007.179487,4059.487179
121,4393.333333,4537.435897,4555.384615,4280.512820,4515.897435,4229.743589,4445.128205,4234.871794,4242.051282,4506.666666,4227.179487,4673.846153,4003.589743,4056.410256
122,4383.589743,4526.666666,4548.205128,4265.641025,4509.230769,4224.102564,4442.564102,4227.179487,4243.076923,4504.102564,4222.051282,4666.666666,3989.230770,4047.692307
123,4383.076923,4525.128205,4548.205128,4264.102564,4505.128205,4220.000000,4441.538461,4223.589743,4240.000000,4519.487179,4225.641025,4665.641025,3995.897436,4058.974358
124,4389.743589,4532.307692,4553.846153,4277.435897,4511.282051,4228.205128,4443.589743,4229.230769,4236.923076,4525.128205,4227.692307,4674.358974,4010.256410,4071.282051
125,4386.666666,4539.487179,4557.435897,4284.615384,4515.384615,4225.641025,4445.641025,4231.794871,4231.794871,4508.205128,4222.564102,4674.358974,4010.769230,4064.615384
126,4381.538461,4540.512820,4553.333333,4278.461538,4514.871794,4213.846153,4438.974358,4229.230769,4230.256410,4500.512820,4225.128205,4669.743589,4002.051282,4056.410256
127,4378.974358,4531.794871,4545.128205,4266.153846,4506.153846,4212.820512,4431.282051,4218.974358,4230.256410,4502.564102,4224.615384,4667.692307,3992.820513,4058.974358
128,4376.923076,4525.641025,4544.615384,4264.615384,4497.435897,4215.384615,4435.897435,4218.974358,4230.769230,4506.153846,4221.025641,4666.666666,3992.307693,4060.000000
129,4382.051282,4536.923076,4552.307692,4279.487179,4501.025641,4214.871794,4444.615384,4229.230769,4235.897435,4516.410256,4224.615384,4669.743589,4005.128205,4060.000000
130,4391.282051,4546.666666,4555.384615,4292.307692,4507.179487,4217.948717,4443.589743,4226.666666,4237.435897,4516.410256,4222.564102,4674.871794,4015.897435,4065.641025
131,4395.897435,4538.461538,4554.358974,4292.307692,4503.589743,4216.923076,4438.461538,4219.487179,4230.256410,4503.589743,4215.897435,4678.461538,4009.230769,4068.205128
132,4393.846153,4536.923076,4556.410256,4283.589743,4504.102564,4214.358974,4440.000000,4227.179487,4231.794871,4508.717948,4231.282051,4681.025641,4006.153846,4067.179487
133,4385.128205,4542.051282,4553.846153,4267.692307,4506.153846,4216.923076,4436.923076,4227.692307,4234.871794,4514.871794,4242.051282,4676.923076,4005.641025,4063.589743
134,4381.025641,4536.923076,4549.743589,4261.025641,4502.051282,4216.923076,4434.358974,4216.923076,4229.230769,4506.153846,4223.076923,4669.743589,3992.820513,4055.384615
135,4382.051282,4533.846153,4549.743589,4271.282051,4506.666666,4207.692307,4433.333333,4216.410256,4229.743589,4506.666666,4206.153846,4668.205128,3984.615385,4051.282051
136,4384.615384,4539.487179,4552.820512,4286.153846,4510.256410,4203.076923,4432.307692,4222.051282,4235.384615,4511.794871,4216.410256,4672.307692,4001.538461,4060.000000
137,4389.743589,4535.897435,4557.948717,4283.589743,4498.461538,4207.692307,4436.410256,4226.666666,4233.846153,4505.641025,4232.307692,4678.974358,4021.538461,4066.153846
138,4388.205128,4530.256410,4551.794871,4267.179487,4490.769230,4210.256410,4438.974358,4222.051282,4229.230769,4504.102564,4224.102564,4675.897435,4008.717948,4056.410256
139,4381.025641,4532.820512,4545.128205,4266.666666,4501.538461,4211.282051,4437.435897,4215.384615,4229.743589,4506.666666,4214.871794,4666.666666,3986.153847,4049.230769
140,4385.128205,4531.794871,4548.717948,4279.487179,4504.615384,4215.384615,4438.974358,4218.461538,4231.794871,4505.128205,4224.102564,4667.179487,3991.794872,4053.846153
141,4392.307692,4522.051282,4555.384615,4277.435897,4496.410256,4214.871794,4442.564102,4219.487179,4229.230769,4504.615384,4219.487179,4669.230769,4005.641025,4058.974358
142,4388.717948,4519.487179,4553.333333,4270.256410,4500.512820,4212.820512,4440.512820,4218.974358,4226.153846,4503.589743,4210.256410,4666.153846,4005.641025,4058.461538
143,4394.358974,4531.794871,4552.307692,4280.512820,4508.717948,4217.948717,4443.076923,4229.230769,4235.897435,4507.692307,4226.666666,4672.307692,4007.692307,4062.564102
144,4406.153846,4543.589743,4556.923076,4280.512820,4512.820512,4222.051282,4449.230769,4237.948717,4249.743589,4517.948717,4240.512820,4680.000000,4015.384615,4068.717948
145,4400.512820,4539.487179,4554.358974,4265.641025,4521.538461,4218.461538,4444.102564,4230.769230,4243.076923,4519.487179,4230.769230,4670.769230,4010.769230,4063.076923
146,4398.461538,4536.410256,4551.282051,4272.307692,4525.641025,4220.000000,4440.000000,4229.230769,4238.461538,4521.538461,4230.256410,4666.153846,4010.256410,4061.025641
147,4412.820512,4547.179487,4556.410256,4287.179487,4516.410256,4228.717948,4449.743589,4242.051282,4255.384615,4534.871794,4243.589743,4681.538461,4024.615384,4074.358974
148,4420.000000,4551.794871,4562.051282,4285.641025,4509.743589,4227.692307,4456.923076,4245.128205,4266.153846,4536.923076,4245.128205,4690.769230,4032.307692,4085.128205
149,4408.205128,4540.512820,4554.358974,4282.564102,4508.205128,4218.974358,4448.205128,4235.384615,4257.948717,4523.589743,4234.871794,4677.948717,4020.000000,4073.846153
150,4395.384615,4528.205128,4542.051282,4277.435897,4507.179487,4216.923076,4440.000000,4230.769230,4250.256410,4514.871794,4226.666666,4665.641025,4003.076923,4056.410256
151,4397.948717,4527.179487,4542.564102,4264.615384,4508.205128,4216.923076,4442.051282,4233.846153,4249.230769,4516.410256,4225.641025,4673.333333,4004.615384,4057.948717
152,4407.179487,4531.794871,4549.230769,4266.666666,4507.179487,4214.358974,4443.589743,4231.282051,4245.641025,4518.974358,4230.769230,4681.538461,4014.358974,4070.769230
153,4408.205128,4536.923076,4550.256410,4273.846153,4504.102564,4218.974358,4444.615384,4230.769230,4246.153846,4524.102564,4234.871794,4676.923076,4014.358974,4072.820512
154,4401.538461,4536.923076,4545.128205,4263.076923,4507.179487,4221.538461,4446.666666,4233.846153,4250.256410,4525.641025,4228.717948,4672.307692,4008.717948,4063.076923
155,4390.769230,4522.564102,4538.974358,4259.487179,4511.794871,4210.769230,4442.564102,4224.615384,4242.564102,4512.820512,4217.948717,4668.717948,4000.000000,4051.794871
156,4379.487179,4513.333333,4537.948717,4267.692307,4510.256410,4203.589743,4438.974358,4214.358974,4232.307692,4506.153846,4215.897435,4660.512820,3988.717949,4041.025641
157,4375.384615,4520.512820,4540.512820,4265.641025,4499.487179,4211.282051,4441.025641,4221.025641,4233.846153,4514.871794,4216.923076,4662.564102,3988.205129,4039.487179
158,4379.487179,4525.128205,4539.487179,4261.025641,4490.256410,4218.461538,4445.128205,4232.307692,4240.000000,4517.948717,4215.897435,4670.256410,3996.923077,4050.256410
159,4382.564102,4524.102564,4535.384615,4266.153846,4496.923076,4216.410256,4445.641025,4231.794871,4240.000000,4508.205128,4215.384615,4663.589743,3996.923077,4049.743589
160,4383.589743,4532.820512,4537.435897,4271.282051,4509.230769,4215.897435,4444.615384,4228.205128,4237.435897,4501.538461,4210.769230,4656.923076,3994.871795,4037.435897
161,4382.051282,4535.384615,4540.512820,4272.307692,4511.282051,4221.538461,4445.641025,4227.179487,4238.974358,4511.794871,4208.205128,4662.564102,3997.435898,4039.487179
162,4371.794871,4514.871794,4534.871794,4264.102564,4506.153846,4216.923076,4441.538461,4218.974358,4237.435897,4518.461538,4212.307692,4661.025641,3989.230770,4042.051282
163,4366.666666,4502.564102,4537.948717,4260.512820,4503.076923,4211.282051,4437.435897,4212.820512,4230.256410,4509.230769,4213.846153,4655.384615,3986.666667,4042.051282
164,4381.025641,4522.564102,4551.282051,4271.794871,4508.717948,4220.512820,4443.589743,4222.564102,4232.820512,4509.743589,4220.512820,4668.717948,4006.153846,4056.923076
165,4387.179487,4535.384615,4551.282051,4273.333333,4515.897435,4223.076923,4445.128205,4232.820512,4241.538461,4522.051282,4215.384615,4678.974358,4013.333333,4063.589743
166,4376.410256,4526.153846,4546.153846,4264.615384,4509.230769,4218.974358,4445.128205,4231.794871,4244.102564,4524.615384,4200.512820,4669.743589,4002.564102,4050.256410
167,4377.435897,4526.666666,4551.794871,4268.717948,4502.051282,4226.153846,4454.358974,4232.820512,4246.666666,4525.641025,4222.564102,4670.769230,4010.769230,4050.769230
168,4382.564102,4527.692307,4550.769230,4273.333333,4509.743589,4229.743589,4454.358974,4233.846153,4248.717948,4525.128205,4247.692307,4680.000000,4030.256410,4063.076923
169,4370.769230,4513.333333,4536.410256,4264.615384,4508.205128,4217.948717,4441.538461,4223.589743,4233.846153,4512.820512,4225.128205,4670.256410,4024.102564,4055.384615
170,4361.538461,4511.282051,4533.333333,4257.948717,4499.487179,4212.307692,4439.487179,4220.000000,4229.230769,4509.743589,4203.076923,4657.435897,4007.692307,4041.538461
171,4366.666666,4521.025641,4541.025641,4261.538461,4505.641025,4215.897435,4447.179487,4231.282051,4248.205128,4527.692307,4216.410256,4663.076923,4008.717948,4048.717948
172,4374.358974,4520.000000,4544.615384,4268.717948,4510.769230,4216.410256,4446.153846,4234.871794,4251.794871,4534.871794,4226.153846,4672.820512,4018.461538,4059.487179
173,4377.948717,4522.051282,4542.564102,4270.769230,4503.076923,4217.435897,4443.076923,4230.769230,4245.641025,4529.230769,4224.615384,4673.846153,4020.512820,4055.384615
174,4374.871794,4529.230769,4538.974358,4267.692307,4506.666666,4219.487179,4444.615384,4234.871794,4250.769230,4520.000000,4226.666666,4668.717948,4013.333333,4049.230769
175,4366.666666,4521.025641,4536.923076,4261.538461,4515.897435,4212.820512,4441.025641,4229.230769,4244.615384,4502.564102,4215.897435,4658.461538,4005.128205,4045.641025
176,4364.102564,4510.256410,4534.358974,4254.871794,4509.230769,4206.153846,4434.358974,4213.846153,4228.205128,4503.589743,4205.128205,4653.333333,4003.076923,4037.948717
177,4367.692307,4513.333333,4535.897435,4256.410256,4498.974358,4210.769230,4437.435897,4218.461538,4231.282051,4522.564102,4212.307692,4658.974358,4006.153846,4042.051282
178,4369.230769,4522.051282,4540.512820,4264.615384,4503.589743,4217.948717,4445.641025,4229.230769,4240.512820,4523.589743,4216.410256,4665.128205,4011.282051,4052.820512
179,4371.282051,4525.641025,4542.051282,4267.179487,4509.743589,4217.948717,4444.102564,4227.692307,4235.897435,4513.333333,4210.769230,4664.102564,4009.230769,4047.179487
180,4373.846153,4520.000000,4541.538461,4268.205128,4505.128205,4215.897435,4442.564102,4225.641025,4230.256410,4515.384615,4216.410256,4665.641025,4002.051282,4042.564102
181,4369.743589,4507.179487,4541.025641,4271.282051,4505.641025,4210.256410,4443.589743,4225.128205,4233.333333,4516.410256,4226.153846,4666.153846,4001.538461,4047.179487
182,4360.512820,4505.641025,4535.897435,4266.153846,4511.282051,4205.128205,4436.923076,4218.974358,4237.948717,4506.153846,4216.410256,4656.410256,4001.538461,4040.512820
183,4358.974358,4515.897435,4532.307692,4257.948717,4504.615384,4211.794871,4434.871794,4215.384615,4235.897435,4503.076923,4208.205128,4651.794871,3999.487180,4033.846153
184,4364.102564,4517.435897,4535.384615,4257.435897,4497.435897,4218.974358,4442.051282,4222.051282,4233.333333,4511.282051,4214.358974,4660.000000,4001.025641,4040.512820
185,4370.256410,4517.948717,4542.051282,4269.743589,4508.205128,4216.923076,4447.692307,4232.307692,4242.051282,4526.666666,4222.564102,4669.230769,4009.743589,4048.717948
186,4373.333333,4523.076923,4545.128205,4277.948717,4523.589743,4216.410256,4447.692307,4232.820512,4247.692307,4530.256410,4229.230769,4669.743589,4021.025641,4052.820512
187,4370.769230,4518.974358,4542.051282,4266.153846,4526.153846,4220.000000,4444.102564,4226.666666,4238.974358,4518.974358,4225.641025,4663.589743,4024.615384,4052.820512
188,4368.205128,4513.333333,4537.948717,4256.410256,4518.974358,4214.871794,4438.974358,4222.564102,4230.256410,4512.820512,4213.333333,4659.487179,4017.435897,4047.179487
189,4370.256410,4513.846153,4536.410256,4265.641025,4508.205128,4207.179487,4437.435897,4224.615384,4231.282051,4518.461538,4216.923076,4664.615384,4008.717948,4045.641025
190,4375.384615,4519.487179,4541.538461,4275.384615,4501.538461,4210.256410,4443.076923,4229.743589,4240.000000,4534.871794,4231.282051,4670.769230,4009.743589,4052.820512
191,4374.358974,4521.538461,4545.128205,4273.333333,4505.128205,4215.384615,4443.589743,4226.666666,4240.512820,4533.333333,4229.230769,4667.179487,4009.743589,4052.820512
192,4364.615384,4513.846153,4541.538461,4264.102564,4506.153846,4206.153846,4432.820512,4217.435897,4223.589743,4503.076923,4213.846153,4657.948717,4002.051282,4047.692307
193,4364.615384,4508.717948,4538.461538,4260.000000,4502.564102,4197.435897,4426.666666,4212.307692,4211.794871,4487.179487,4211.282051,4655.384615,3999.487180,4043.076923
194,4371.794871,4514.871794,4538.974358,4265.641025,4505.641025,4203.589743,4430.769230,4209.230769,4216.410256,4496.923076,4218.974358,4658.461538,3998.461539,4038.974358
195,4368.205128,4511.794871,4537.435897,4264.102564,4509.230769,4204.102564,4430.256410,4205.128205,4219.487179,4507.692307,4213.846153,4653.846153,3990.769231,4037.948717
196,4365.128205,4505.641025,4535.384615,4258.461538,4505.128205,4195.384615,4427.179487,4211.282051,4224.102564,4515.384615,4208.717948,4649.230769,3991.282052,4040.000000
197,4374.358974,4515.897435,4538.461538,4263.589743,4503.076923,4205.128205,4435.384615,4221.025641,4235.384615,4518.974358,4219.487179,4655.384615,4002.564102,4046.153846
198,4378.461538,4524.102564,4541.538461,4266.153846,4514.358974,4217.435897,4444.102564,4218.974358,4233.333333,4505.641025,4223.076923,4659.487179,4007.179487,4051.794871
199,4371.282051,4521.025641,4540.512820,4265.641025,4521.025641,4209.743589,4438.461538,4215.384615,4220.000000,4494.358974,4210.256410,4653.846153,4003.589743,4048.205128
200,4364.615384,4518.974358,4536.923076,4271.282051,4508.205128,4203.589743,4431.794871,4214.871794,4218.974358,4500.000000,4206.153846,4649.743589,3997.948718,4042.564102
201,4367.179487,4522.051282,4540.000000,4271.794871,4500.000000,4211.794871,4435.897435,4217.435897,4229.230769,4505.128205,4215.897435,4652.307692,3993.846154,4045.128205
202,4375.897435,4523.076923,4545.128205,4270.256410,4508.717948,4218.461538,4443.589743,4220.000000,4234.871794,4513.333333,4221.538461,4655.897435,3997.435898,4050.256410
203,4377.435897,4522.051282,4546.666666,4275.897435,4512.307692,4212.307692,4442.051282,4216.923076,4233.333333,4522.051282,4223.076923,4658.974358,4001.538461,4049.230769
204,4372.307692,4522.051282,4551.794871,4278.974358,4506.153846,4206.666666,4432.820512,4215.897435,4229.743589,4515.384615,4224.102564,4660.512820,4004.615384,4049.743589
205,4369.743589,4521.538461,4552.820512,4273.846153,4506.153846,4208.205128,4426.666666,4216.923076,4225.128205,4497.948717,4218.461538,4661.025641,4007.692307,4051.794871
206,4371.794871,4518.974358,4547.692307,4267.692307,4506.153846,4207.179487,4426.153846,4213.333333,4223.076923,4497.948717,4212.820512,4659.487179,4005.641025,4049.743589
207,4374.358974,4520.512820,4547.692307,4267.179487,4506.153846,4206.153846,4427.692307,4215.897435,4232.820512,4515.384615,4221.025641,4658.461538,4004.615384,4051.282051
208,4377.948717,4527.692307,4552.307692,4271.282051,4506.666666,4210.769230,4429.743589,4224.615384,4244.615384,4522.564102,4230.256410,4663.589743,4008.205128,4055.384615
209,4382.051282,4529.230769,4555.897435,4281.025641,4506.666666,4216.923076,4433.846153,4222.564102,4242.564102,4525.128205,4232.820512,4668.717948,4012.820512,4059.487179
210,4383.589743,4526.153846,4558.974358,4287.692307,4513.333333,4214.358974,4438.974358,4218.974358,4239.487179,4523.076923,4232.307692,4670.769230,4018.974358,4065.641025
211,4382.051282,4527.179487,4561.538461,4276.923076,4520.000000,4212.307692,4442.564102,4224.615384,4242.564102,4512.307692,4228.717948,4671.794871,4016.410256,4065.641025
212,4386.153846,4533.333333,4562.564102,4267.179487,4519.487179,4218.461538,4442.564102,4230.769230,4245.641025,4514.871794,4229.743589,4675.384615,4008.205128,4062.564102
213,4394.358974,4538.974358,4569.230769,4282.051282,4521.538461,4219.487179,4441.538461,4232.307692,4247.692307,4523.076923,4240.000000,4681.538461,4017.948717,4068.205128
214,4395.384615,4537.948717,4573.333333,4292.820512,4517.948717,4216.410256,4442.564102,4228.717948,4251.282051,4523.589743,4248.205128,4683.076923,4029.743589,4076.923076
215,4389.230769,4533.333333,4563.076923,4283.589743,4507.179487,4212.820512,4437.948717,4226.666666,4248.717948,4531.282051,4249.230769,4677.948717,4017.948717,4074.358974
216,4388.717948,4527.179487,4556.410256,4276.410256,4507.179487,4211.794871,4431.794871,4228.717948,4244.615384,4531.794871,4246.153846,4675.897435,4011.282051,4069.743589
217,4393.846153,4532.307692,4563.076923,4273.846153,4513.846153,4216.923076,4437.948717,4234.871794,4250.256410,4514.358974,4238.974358,4676.923076,4025.128205,4071.794871
218,4388.205128,4531.794871,4558.974358,4265.641025,4510.769230,4217.435897,4440.512820,4232.307692,4249.743589,4509.743589,4229.230769,4670.769230,4023.076923,4064.102564
219,4374.871794,4513.333333,4545.128205,4264.615384,4505.128205,4206.153846,4431.794871,4218.974358,4237.948717,4518.974358,4225.128205,4664.102564,4003.589743,4050.256410
220,4378.974358,4512.307692,4546.153846,4272.820512,4506.666666,4203.076923,4434.358974,4218.974358,4237.435897,4518.461538,4230.769230,4668.205128,4002.051282,4053.846153
221,4397.948717,4535.897435,4555.384615,4276.923076,4506.153846,4215.384615,4446.153846,4231.282051,4251.282051,4518.974358,4244.102564,4674.871794,4016.410256,4069.743589
222,4396.410256,4538.974358,4554.871794,4272.820512,4509.230769,4217.435897,4445.128205,4229.743589,4251.282051,4526.666666,4244.615384,4672.307692,4018.974358,4068.205128
223,4383.076923,4520.000000,4546.666666,4264.102564,4515.897435,4209.743589,4438.974358,4219.487179,4233.333333,4522.564102,4225.128205,4662.564102,4008.205128,4053.333333
224,4381.025641,4518.974358,4544.102564,4263.589743,4514.358974,4209.230769,4443.076923,4221.025641,4230.769230,4509.230769,4216.410256,4660.000000,4000.000000,4049.743589
225,4380.512820,4525.641025,4546.153846,4266.666666,4509.230769,4209.230769,4442.564102,4221.025641,4235.384615,4499.487179,4222.564102,4659.487179,3995.897436,4051.282051
226,4377.948717,4521.025641,4549.743589,4266.153846,4506.666666,4208.205128,4436.410256,4216.410256,4230.256410,4496.410256,4223.076923,4660.512820,3992.820513,4048.205128
227,4387.179487,4520.512820,4553.333333,4272.820512,4505.641025,4214.871794,4439.487179,4225.641025,4234.871794,4509.743589,4223.076923,4667.179487,3997.435898,4051.794871
228,4401.538461,4532.307692,4560.000000,4284.615384,4509.743589,4221.025641,4446.666666,4235.384615,4249.230769,4523.589743,4234.358974,4674.871794,4010.769230,4066.666666
229,4403.589743,4536.923076,4562.564102,4286.153846,4516.923076,4217.948717,4447.179487,4232.307692,4249.230769,4517.948717,4243.076923,4678.461538,4017.948717,4072.307692
230,4392.820512,4528.717948,4555.384615,4281.538461,4511.282051,4209.743589,4437.435897,4223.076923,4240.000000,4511.282051,4241.538461,4673.333333,4009.230769,4063.589743
231,4387.179487,4528.717948,4550.256410,4276.410256,4503.589743,4204.102564,4431.282051,4215.384615,4236.410256,4515.897435,4232.307692,4660.512820,3998.974359,4055.897435
232,4390.256410,4533.846153,4553.333333,4268.717948,4507.179487,4202.564102,4437.435897,4218.461538,4236.923076,4511.282051,4221.025641,4657.948717,4003.076923,4051.282051
233,4389.743589,4530.769230,4552.307692,4271.794871,4508.717948,4208.717948,4445.641025,4230.256410,4241.538461,4505.128205,4223.589743,4667.179487,4010.256410,4053.333333
234,4385.641025,4523.589743,4546.153846,4277.948717,4508.205128,4211.794871,4441.538461,4227.692307,4240.000000,4505.641025,4227.692307,4665.641025,4003.076923,4057.948717
235,4388.205128,4525.641025,4545.641025,4272.307692,4509.743589,4206.153846,4433.846153,4216.410256,4232.820512,4504.102564,4224.615384,4657.435897,3994.871795,4058.461538
236,4396.923076,4534.358974,4552.820512,4266.666666,4505.128205,4206.153846,4436.410256,4218.974358,4234.358974,4504.102564,4230.256410,4663.076923,4003.076923,4062.051282
237,4402.564102,4537.435897,4556.410256,4270.769230,4498.974358,4211.282051,4440.000000,4224.615384,4240.000000,4509.743589,4240.512820,4672.307692,4016.410256,4069.230769
238,4396.410256,4525.128205,4552.820512,4273.846153,4503.076923,4213.846153,4442.051282,4225.641025,4243.589743,4520.000000,4237.435897,4671.282051,4012.307692,4062.564102
239,4386.153846,4514.358974,4548.205128,4272.307692,4504.102564,4209.230769,4442.564102,4223.589743,4237.435897,4520.000000,4228.205128,4665.128205,3995.897436,4050.256410
240,4386.666666,4522.051282,4549.230769,4269.743589,4497.948717,4207.692307,4443.076923,4224.102564,4234.871794,4503.076923,4230.256410,4664.615384,3994.871795,4056.410256
241,4388.205128,4526.666666,4549.743589,4262.564102,4493.846153,4208.205128,4444.102564,4229.230769,4244.102564,4494.358974,4232.820512,4665.641025,4007.179487,4060.000000
242,4386.153846,4521.538461,4542.051282,4261.025641,4494.871794,4203.589743,4442.564102,4231.794871,4246.666666,4507.692307,4232.307692,4663.589743,4004.102564,4049.743589
243,4389.743589,4524.102564,4537.948717,4268.205128,4503.076923,4205.641025,4435.384615,4222.564102,4233.846153,4513.846153,4233.333333,4660.000000,3995.897436,4049.230769
244,4389.743589,4531.282051,4541.538461,4270.256410,4508.205128,4210.256410,4431.282051,4214.871794,4227.179487,4502.051282,4227.179487,4655.384615,3994.358975,4053.333333
245,4378.461538,4527.179487,4538.974358,4266.153846,4505.128205,4206.666666,4436.923076,4215.897435,4232.307692,4493.846153,4207.692307,4650.256410,3987.692308,4042.051282
246,4376.923076,4518.461538,4535.384615,4263.076923,4505.641025,4206.153846,4442.564102,4216.410256,4232.307692,4495.897435,4198.974358,4654.358974,3984.615385,4035.384615
247,4389.743589,4522.051282,4544.615384,4263.076923,4504.102564,4211.794871,4443.076923,4219.487179,4236.410256,4505.128205,4221.025641,4662.564102,3993.333334,4047.692307
248,4392.820512,4525.128205,4552.820512,4268.205128,4496.923076,4209.743589,4440.000000,4222.051282,4240.000000,4509.230769,4239.487179,4663.076923,3999.487180,4054.871794
249,4392.820512,4519.487179,4545.128205,4271.794871,4495.897435,4205.641025,4431.794871,4217.948717,4233.333333,4507.179487,4235.897435,4658.461538,4002.564102,4049.743589
250,4397.948717,4521.025641,4542.051282,4269.230769,4500.000000,4206.666666,4426.666666,4215.384615,4228.717948,4503.589743,4223.589743,4660.000000,4007.179487,4049.230769
251,4395.897435,4526.153846,4549.230769,4270.256410,4496.923076,4202.051282,4432.820512,4217.948717,4232.307692,4494.358974,4213.333333,4662.051282,4001.538461,4052.307692
252,4388.205128,4521.538461,4548.717948,4271.282051,4492.307692,4199.487179,4435.897435,4218.461538,4231.282051,4487.692307,4213.846153,4656.923076,3989.743590,4046.153846
253,4390.256410,4520.000000,4541.538461,4264.615384,4491.282051,4203.076923,4428.717948,4215.384615,4225.128205,4494.358974,4228.205128,4653.846153,3993.846154,4045.641025
254,4392.820512,4528.205128,4543.589743,4267.692307,4492.307692,4201.538461,4432.307692,4216.410256,4229.230769,4502.564102,4236.923076,4660.000000,4002.051282,4052.820512
255,4388.717948,4527.179487,4542.564102,4271.794871,4501.538461,4201.538461,4443.076923,4217.435897,4235.384615,4493.333333,4227.179487,4661.025641,3995.384616,4048.717948
256,4393.846153,4523.589743,4536.410256,4268.717948,4507.179487,4209.230769,4442.564102,4219.487179,4235.384615,4495.384615,4221.538461,4656.923076,3995.384616,4048.205128
257,4405.128205,4530.256410,4543.589743,4272.820512,4500.512820,4213.846153,4440.000000,4228.205128,4237.948717,4517.948717,4227.692307,4661.538461,4007.179487,4061.025641
258,4402.051282,4530.256410,4551.282051,4272.307692,4500.512820,4208.717948,4442.564102,4228.205128,4236.923076,4513.846153,4229.743589,4664.102564,4002.051282,4057.948717
259,4396.410256,4523.076923,4549.230769,4266.666666,4503.589743,4203.076923,4442.564102,4217.948717,4231.794871,4487.179487,4226.666666,4658.461538,3993.333334,4048.717948
