,AF3,F7,F3,FC5,T7,P7,O1,O2,P8,T8,FC6,F4,F8,AF4
0,4366.666666,4512.820512,4517.948717,4182.564102,4503.589743,4181.538461,4435.897435,4198.461538,4220.000000,4474.871794,4214.358974,4624.615384,3953.333334,4007.179487
1,4369.230769,4513.333333,4517.435897,4183.589743,4504.615384,4177.948717,4435.384615,4194.871794,4210.256410,4478.974358,4224.615384,4632.307692,3953.333334,4010.769230
2,4370.256410,4507.179487,4519.487179,4176.410256,4504.102564,4177.948717,4430.769230,4185.128205,4206.666666,4477.948717,4216.410256,4632.307692,3968.717949,4010.256410
3,4372.307692,4506.666666,4519.487179,4169.230769,4501.538461,4180.000000,4427.179487,4182.564102,4213.333333,4470.256410,4197.435897,4627.692307,3975.897436,4009.230769
4,4366.153846,4507.179487,4513.333333,4167.179487,4497.435897,4173.846153,4427.179487,4186.666666,4212.307692,4464.102564,4201.025641,4624.102564,3965.128206,4004.615384
5,4361.025641,4503.076923,4513.333333,4168.717948,4499.487179,4173.333333,4431.282051,4190.769230,4210.769230,4467.692307,4216.923076,4624.615384,3956.410257,4004.102564
6,4369.743589,4505.128205,4517.948717,4171.794871,4506.666666,4184.615384,4431.794871,4192.820512,4214.358974,4479.487179,4212.820512,4628.717948,3968.717949,4008.717948
7,4377.435897,4512.307692,4521.025641,4173.333333,4507.692307,4185.641025,4429.230769,4191.282051,4213.846153,4479.487179,4201.025641,4630.256410,3985.128206,4008.717948
8,4380.000000,4514.871794,4525.128205,4176.923076,4504.615384,4179.487179,4430.769230,4196.410256,4214.871794,4472.307692,4207.692307,4630.769230,3990.769231,4012.820512
9,4385.128205,4520.512820,4529.230769,4178.461538,4507.179487,4187.179487,4435.897435,4204.615384,4222.051282,4477.435897,4227.692307,4635.384615,3990.256411,4023.589743
10,4383.589743,4522.564102,4527.692307,4171.794871,4509.230769,4189.230769,4433.846153,4202.051282,4224.102564,4487.692307,4234.358974,4637.435897,3988.205129,4023.589743
11,4380.000000,4511.794871,4525.128205,4169.230769,4502.051282,4174.358974,4426.666666,4195.384615,4222.564102,4488.205128,4217.435897,4634.871794,3986.153847,4015.897435
12,4381.025641,4509.230769,4527.179487,4171.282051,4495.384615,4170.256410,4424.102564,4193.333333,4220.000000,4478.974358,4202.051282,4631.282051,3989.743590,4016.410256
13,4380.512820,4516.923076,4526.666666,4168.205128,4499.487179,4178.461538,4426.153846,4196.923076,4216.410256,4473.846153,4210.769230,4630.256410,3994.871795,4016.410256
14,4380.000000,4515.384615,4525.641025,4168.205128,4506.153846,4177.948717,4429.230769,4203.076923,4218.461538,4477.435897,4222.564102,4633.846153,3991.794872,4010.769230
15,4382.051282,4507.179487,4526.666666,4168.205128,4505.128205,4175.384615,4428.717948,4202.564102,4221.538461,4481.538461,4218.461538,4635.897435,3982.564103,4009.230769
16,4380.512820,4503.589743,4523.589743,4161.538461,4503.589743,4178.974358,4426.153846,4201.538461,4221.538461,4487.179487,4208.717948,4633.333333,3981.538462,4009.743589
17,4381.025641,4511.282051,4522.051282,4161.025641,4505.128205,4181.538461,4427.179487,4202.564102,4226.153846,4494.358974,4211.282051,4634.358974,3993.846154,4011.282051
18,4385.641025,4517.948717,4526.666666,4166.666666,4504.102564,4180.000000,4431.794871,4202.564102,4224.615384,4487.179487,4225.128205,4640.000000,3997.435898,4013.846153
19,4387.179487,4515.384615,4531.282051,4169.230769,4504.615384,4180.512820,4437.435897,4203.076923,4216.923076,4477.435897,4227.692307,4640.512820,3989.743590,4014.871794
20,4388.205128,4513.846153,4531.282051,4170.256410,4507.179487,4181.025641,4440.000000,4206.153846,4222.051282,4484.615384,4216.410256,4637.948717,3993.333334,4016.410256
21,4387.179487,4516.410256,4524.615384,4166.666666,4501.025641,4176.410256,4433.846153,4203.076923,4226.153846,4483.076923,4211.794871,4636.923076,3992.307693,4015.384615
22,4378.461538,4507.692307,4514.358974,4156.923076,4495.384615,4171.794871,4422.051282,4191.282051,4213.846153,4468.205128,4209.743589,4631.794871,3980.512821,4007.179487
23,4370.769230,4498.974358,4508.717948,4151.794871,4498.974358,4170.769230,4417.435897,4182.051282,4202.051282,4465.128205,4200.512820,4621.538461,3978.974359,3998.461539
24,4371.794871,4504.102564,4505.128205,4152.820512,4499.487179,4172.820512,4421.025641,4180.512820,4202.564102,4468.205128,4198.461538,4617.948717,3982.051283,3998.461539
25,4376.923076,4508.717948,4503.589743,4153.846153,4497.948717,4176.410256,4425.641025,4182.051282,4206.153846,4467.179487,4200.000000,4620.512820,3975.384616,3997.435898
26,4378.974358,4508.717948,4510.256410,4156.410256,4504.615384,4181.538461,4429.743589,4189.743589,4213.846153,4472.307692,4198.974358,4622.564102,3975.384616,3998.461539
27,4382.051282,4509.743589,4517.435897,4157.948717,4509.743589,4182.564102,4432.820512,4201.025641,4220.000000,4481.538461,4207.179487,4625.128205,3989.230770,4006.153846
28,4389.743589,4511.794871,4517.435897,4161.025641,4505.128205,4180.512820,4432.307692,4202.564102,4217.435897,4480.000000,4216.410256,4631.794871,3995.384616,4010.256410
29,4395.897435,4519.487179,4516.923076,4168.717948,4504.615384,4183.589743,4428.717948,4197.948717,4218.974358,4479.487179,4216.923076,4633.846153,3998.461539,4010.256410
30,4394.871794,4525.128205,4523.589743,4172.820512,4509.230769,4185.641025,4427.179487,4200.512820,4222.564102,4488.205128,4214.358974,4631.794871,4007.692307,4013.846153
31,4392.820512,4523.589743,4525.641025,4171.282051,4510.769230,4184.615384,4429.230769,4198.974358,4217.435897,4489.230769,4213.846153,4632.307692,4005.128205,4015.384615
32,4390.256410,4520.000000,4522.051282,4170.256410,4510.256410,4184.615384,4430.769230,4189.743589,4210.256410,4478.461538,4213.333333,4631.282051,3989.743590,4009.230769
33,4387.692307,4520.000000,4522.564102,4166.666666,4508.205128,4182.564102,4427.179487,4189.743589,4209.743589,4470.256410,4207.179487,4629.743589,3987.179488,4005.128205
34,4390.256410,4522.564102,4523.589743,4168.205128,4508.205128,4184.102564,4428.717948,4198.461538,4215.897435,4475.897435,4204.102564,4631.794871,4001.025641,4008.717948
35,4395.384615,4528.205128,4522.051282,4179.487179,4513.846153,4189.743589,4439.487179,4201.538461,4224.102564,4485.641025,4214.358974,4634.358974,4008.717948,4013.846153
36,4398.461538,4534.871794,4525.128205,4184.102564,4521.025641,4189.743589,4440.000000,4197.435897,4224.102564,4489.743589,4221.025641,4636.410256,4012.307692,4017.948717
37,4404.615384,4538.461538,4530.769230,4183.076923,4522.564102,4188.717948,4431.282051,4198.461538,4224.615384,4491.794871,4220.512820,4642.564102,4014.871794,4022.564102
38,4409.230769,4539.487179,4530.256410,4182.051282,4522.051282,4193.846153,4433.846153,4203.589743,4231.794871,4493.333333,4225.128205,4648.205128,4009.230769,4023.589743
39,4404.102564,4536.410256,4531.282051,4173.333333,4517.948717,4193.846153,4440.000000,4197.435897,4222.564102,4487.179487,4227.692307,4647.179487,4000.512820,4021.025641
40,4402.051282,4527.692307,4532.820512,4171.282051,4515.384615,4187.179487,4439.487179,4189.743589,4206.153846,4476.923076,4224.102564,4642.564102,4006.153846,4022.051282
41,4404.615384,4521.538461,4529.230769,4181.025641,4513.846153,4186.153846,4439.487179,4193.333333,4208.205128,4475.384615,4222.051282,4636.923076,4014.358974,4020.512820
42,4400.000000,4522.051282,4523.076923,4177.435897,4514.358974,4187.179487,4438.461538,4199.487179,4217.948717,4478.461538,4219.487179,4633.846153,4002.051282,4011.794871
43,4402.051282,4527.179487,4523.589743,4171.282051,4517.435897,4189.230769,4431.794871,4202.051282,4226.153846,4486.666666,4220.000000,4639.487179,3992.820513,4012.307692
44,4418.974358,4535.897435,4534.358974,4183.589743,4523.589743,4196.410256,4430.256410,4211.794871,4239.487179,4505.641025,4231.282051,4651.282051,4015.384615,4028.717948
45,4426.153846,4541.025641,4537.435897,4190.769230,4525.128205,4201.025641,4429.230769,4220.000000,4242.051282,4516.410256,4239.487179,4653.846153,4034.358974,4035.384615
46,4417.435897,4535.384615,4533.846153,4185.128205,4521.538461,4194.871794,4423.589743,4214.871794,4229.743589,4506.153846,4238.461538,4649.230769,4014.358974,4026.666666
47,4408.717948,4525.128205,4534.358974,4181.025641,4518.461538,4190.256410,4429.230769,4206.153846,4222.564102,4487.692307,4223.589743,4644.615384,3990.256411,4021.025641
48,4400.512820,4522.051282,4528.717948,4174.358974,4517.948717,4188.717948,4440.512820,4200.000000,4215.384615,4476.410256,4203.589743,4636.923076,3988.717949,4016.410256
49,4391.794871,4518.974358,4521.025641,4169.230769,4515.384615,4186.153846,4444.102564,4194.358974,4201.538461,4472.820512,4198.461538,4630.256410,3983.076924,4006.153846
50,4393.333333,4511.794871,4525.641025,4177.435897,4512.820512,4187.179487,4443.589743,4193.846153,4200.000000,4475.384615,4201.025641,4629.230769,3973.846154,4002.051282
51,4400.512820,4508.717948,4529.230769,4184.615384,4515.384615,4191.282051,4442.564102,4198.461538,4211.794871,4482.051282,4202.564102,4631.282051,3983.589744,4010.256410
52,4404.615384,4511.282051,4525.128205,4182.051282,4520.512820,4189.743589,4441.025641,4200.000000,4218.974358,4489.743589,4210.769230,4634.358974,3996.923077,4018.974358
53,4408.717948,4507.179487,4532.307692,4188.717948,4523.076923,4192.307692,4443.076923,4207.179487,4225.128205,4499.487179,4226.153846,4638.974358,4004.102564,4023.589743
54,4414.358974,4505.128205,4538.461538,4196.923076,4521.025641,4197.948717,4443.589743,4216.410256,4231.282051,4503.076923,4228.205128,4643.589743,4014.358974,4029.230769
55,4415.897435,4508.205128,4537.435897,4191.282051,4516.923076,4191.794871,4435.384615,4211.282051,4226.153846,4497.948717,4221.025641,4645.641025,4018.974358,4032.307692
56,4413.333333,4507.179487,4541.025641,4190.769230,4517.435897,4188.717948,4434.871794,4206.153846,4219.487179,4495.897435,4221.025641,4646.666666,4013.333333,4033.333333
57,4412.820512,4505.641025,4540.512820,4197.948717,4521.025641,4196.923076,4442.564102,4212.307692,4217.948717,4495.384615,4222.564102,4645.641025,4006.153846,4030.769230
58,4412.820512,4507.692307,4535.897435,4199.487179,4525.128205,4200.512820,4446.666666,4223.589743,4225.641025,4500.000000,4223.589743,4646.153846,4003.076923,4029.743589
59,4412.820512,4507.692307,4542.051282,4198.461538,4529.743589,4200.000000,4454.358974,4234.871794,4242.564102,4514.871794,4227.692307,4650.769230,4005.128205,4035.384615
60,4413.846153,4505.128205,4547.179487,4201.025641,4528.205128,4203.076923,4462.564102,4240.000000,4247.179487,4520.000000,4236.410256,4653.333333,4010.769230,4040.000000
61,4411.282051,4505.641025,4541.538461,4198.974358,4522.564102,4201.025641,4458.461538,4230.769230,4230.769230,4506.666666,4231.794871,4648.717948,4010.769230,4037.435897
62,4409.743589,4505.128205,4538.461538,4192.307692,4520.512820,4196.410256,4446.666666,4220.512820,4220.000000,4498.461538,4214.358974,4644.102564,4004.102564,4032.820512
63,4406.153846,4497.948717,4534.871794,4187.179487,4514.871794,4189.743589,4437.948717,4215.384615,4218.974358,4496.923076,4209.230769,4639.487179,3987.692308,4026.666666
64,4398.461538,4491.282051,4527.692307,4182.564102,4506.153846,4182.564102,4435.897435,4207.179487,4213.333333,4487.179487,4213.846153,4631.794871,3972.307693,4019.487179
65,4394.358974,4491.794871,4527.179487,4181.025641,4505.641025,4183.589743,4438.974358,4205.641025,4210.769230,4485.641025,4213.333333,4631.794871,3981.538462,4018.974358
66,4400.000000,4493.333333,4528.717948,4181.538461,4511.794871,4186.153846,4441.025641,4214.871794,4221.025641,4496.410256,4208.717948,4640.000000,4000.000000,4023.589743
67,4402.051282,4493.846153,4531.282051,4185.641025,4514.358974,4185.641025,4442.051282,4223.076923,4232.307692,4504.615384,4215.384615,4641.025641,4005.128205,4028.205128
68,4394.358974,4493.846153,4529.230769,4187.179487,4515.897435,4187.692307,4445.641025,4222.564102,4227.179487,4498.974358,4221.538461,4633.846153,3997.948718,4026.666666
69,4385.128205,4491.794871,4518.461538,4183.076923,4514.871794,4188.717948,4447.179487,4215.384615,4215.897435,4488.205128,4213.846153,4628.717948,3987.692308,4016.410256
70,4385.128205,4490.256410,4514.871794,4182.564102,4511.794871,4188.205128,4448.717948,4212.307692,4216.923076,4490.256410,4205.641025,4628.717948,3986.666667,4011.794871
71,4389.230769,4491.794871,4520.000000,4185.128205,4515.897435,4191.282051,4455.384615,4220.512820,4225.128205,4494.358974,4202.564102,4630.769230,3990.769231,4016.410256
72,4387.179487,4490.256410,4517.435897,4182.564102,4517.948717,4189.743589,4459.487179,4228.717948,4226.666666,4491.282051,4202.051282,4628.717948,3985.128206,4016.410256
73,4382.564102,4489.230769,4514.358974,4181.025641,4510.256410,4186.153846,4457.435897,4229.230769,4226.153846,4489.743589,4205.641025,4629.230769,3982.051283,4013.846153
74,4393.846153,4497.948717,4523.076923,4190.256410,4510.256410,4189.230769,4457.435897,4230.256410,4229.743589,4491.282051,4215.897435,4637.435897,3991.794872,4021.538461
75,4411.794871,4507.692307,4531.282051,4199.487179,4521.025641,4190.769230,4460.512820,4233.846153,4230.256410,4491.794871,4220.512820,4647.179487,4006.153846,4032.820512
76,4412.307692,4510.769230,4532.820512,4202.051282,4525.641025,4192.307692,4461.025641,4235.897435,4228.717948,4498.974358,4217.948717,4647.179487,4015.897435,4033.333333
77,4401.025641,4509.230769,4526.666666,4196.410256,4518.974358,4197.435897,4460.000000,4233.333333,4227.179487,4504.615384,4214.358974,4643.076923,4011.282051,4027.179487
78,4391.282051,4502.051282,4520.512820,4190.769230,4513.846153,4193.846153,4456.923076,4224.102564,4223.589743,4497.948717,4209.230769,4641.025641,3996.923077,4022.564102
79,4381.538461,4495.897435,4522.051282,4190.769230,4507.692307,4182.564102,4447.179487,4216.410256,4215.384615,4490.256410,4206.666666,4635.897435,3993.846154,4016.923076
80,4376.923076,4500.512820,4523.076923,4189.743589,4506.666666,4183.076923,4441.025641,4213.846153,4211.282051,4484.102564,4207.179487,4634.358974,4000.000000,4015.384615
81,4382.564102,4507.692307,4525.128205,4191.282051,4508.717948,4188.717948,4444.615384,4215.384615,4217.435897,4486.153846,4210.769230,4643.076923,4005.128205,4024.615384
82,4384.102564,4509.230769,4533.846153,4200.000000,4507.692307,4185.128205,4446.666666,4222.564102,4224.102564,4498.461538,4215.897435,4652.307692,4006.666666,4029.230769
83,4376.410256,4506.666666,4534.871794,4198.974358,4507.692307,4181.538461,4444.102564,4227.692307,4224.615384,4503.076923,4214.358974,4647.692307,3996.923077,4024.615384
84,4366.153846,4497.435897,4521.025641,4185.128205,4506.153846,4182.051282,4443.589743,4220.000000,4216.410256,4488.205128,4205.128205,4636.410256,3980.512821,4017.948717
85,4357.948717,4488.205128,4511.794871,4181.538461,4502.051282,4178.974358,4439.487179,4206.666666,4206.153846,4475.384615,4190.769230,4630.256410,3976.410257,4010.256410
86,4355.384615,4490.769230,4511.794871,4189.743589,4501.025641,4175.897435,4433.846153,4201.025641,4200.512820,4474.358974,4184.615384,4626.153846,3977.948718,4006.666666
87,4354.871794,4491.282051,4512.307692,4189.230769,4504.615384,4180.000000,4435.897435,4200.512820,4199.487179,4474.358974,4191.794871,4621.025641,3970.256411,4005.641025
88,4355.897435,4490.256410,4510.769230,4183.589743,4508.205128,4186.666666,4442.051282,4201.538461,4200.000000,4474.358974,4198.974358,4622.564102,3969.230770,4005.128205
89,4361.538461,4500.512820,4511.282051,4188.205128,4513.846153,4185.641025,4443.076923,4208.205128,4204.615384,4479.487179,4196.923076,4630.256410,3981.538462,4013.333333
90,4370.769230,4510.256410,4516.923076,4199.487179,4516.923076,4185.128205,4440.512820,4215.897435,4214.871794,4488.205128,4196.923076,4634.358974,3988.205129,4026.153846
91,4373.846153,4512.820512,4521.025641,4203.076923,4517.435897,4189.230769,4443.589743,4220.512820,4221.538461,4492.820512,4203.589743,4636.410256,3987.179488,4028.717948
92,4368.205128,4510.769230,4520.000000,4199.487179,4517.435897,4188.717948,4450.769230,4224.102564,4218.974358,4493.333333,4207.179487,4637.435897,3991.282052,4023.076923
93,4361.538461,4502.051282,4519.487179,4197.948717,4513.333333,4187.179487,4453.333333,4226.153846,4218.461538,4491.282051,4206.153846,4633.333333,3994.871795,4021.025641
94,4360.000000,4497.435897,4519.487179,4200.000000,4507.692307,4186.153846,4453.333333,4221.538461,4217.948717,4486.153846,4202.564102,4631.794871,3989.230770,4020.512820
95,4364.102564,4503.589743,4518.461538,4198.974358,4506.153846,4184.102564,4452.820512,4215.384615,4214.358974,4482.051282,4200.512820,4633.333333,3985.128206,4015.897435
96,4367.179487,4499.487179,4515.897435,4190.769230,4510.256410,4185.641025,4452.307692,4218.974358,4214.871794,4487.692307,4198.461538,4632.307692,3985.641026,4012.307692
97,4365.128205,4486.666666,4513.333333,4187.692307,4511.794871,4189.743589,4455.897435,4224.615384,4218.461538,4491.282051,4195.897435,4631.282051,3987.179488,4011.794871
98,4366.666666,4493.846153,4514.358974,4197.435897,4509.230769,4188.717948,4456.923076,4222.564102,4216.923076,4482.564102,4204.615384,4633.333333,3986.153847,4009.230769
99,4377.948717,4510.256410,4520.000000,4205.641025,4511.794871,4186.666666,4448.717948,4219.487179,4214.358974,4481.538461,4210.769230,4634.358974,3978.974359,4008.717948
100,4382.051282,4508.717948,4521.538461,4201.025641,4513.846153,4186.666666,4442.051282,4217.435897,4213.333333,4483.076923,4200.512820,4635.384615,3975.384616,4014.358974
101,4376.923076,4505.128205,4517.435897,4197.948717,4511.282051,4184.102564,4442.564102,4217.948717,4213.846153,4483.076923,4196.410256,4637.435897,3982.564103,4017.435897
102,4385.128205,4516.410256,4523.076923,4209.230769,4513.333333,4189.230769,4444.615384,4226.666666,4225.128205,4493.846153,4209.743589,4643.076923,3992.820513,4022.564102
103,4396.923076,4525.128205,4533.333333,4215.384615,4523.076923,4196.410256,4448.205128,4230.769230,4233.333333,4504.102564,4221.538461,4647.692307,3998.461539,4031.282051
104,4393.846153,4522.051282,4529.230769,4205.641025,4523.076923,4192.307692,4448.205128,4223.076923,4225.641025,4497.948717,4212.820512,4643.589743,3996.923077,4028.717948
105,4385.641025,4520.512820,4518.974358,4198.461538,4514.871794,4187.179487,4445.641025,4213.846153,4213.846153,4486.666666,4194.358974,4634.358974,3990.769231,4015.384615
106,4380.512820,4522.051282,4514.871794,4202.051282,4511.282051,4187.692307,4445.128205,4207.692307,4205.128205,4480.512820,4184.615384,4628.205128,3984.102565,4009.230769
107,4375.384615,4518.461538,4514.358974,4203.076923,4508.205128,4185.128205,4442.564102,4204.615384,4204.615384,4479.487179,4188.205128,4628.717948,3980.000000,4007.179487
108,4379.487179,4518.974358,4517.435897,4204.102564,4507.179487,4186.153846,4442.051282,4211.282051,4209.230769,4483.589743,4198.461538,4632.307692,3980.000000,4007.692307
109,4388.205128,4526.153846,4522.051282,4206.666666,4513.846153,4189.743589,4444.615384,4217.435897,4211.794871,4486.153846,4205.128205,4632.820512,3978.974359,4014.358974
110,4387.179487,4526.666666,4518.974358,4203.076923,4517.948717,4187.692307,4440.512820,4209.230769,4206.666666,4480.512820,4197.435897,4629.743589,3971.282052,4014.871794
111,4382.051282,4522.564102,4515.897435,4201.538461,4512.307692,4185.128205,4437.435897,4206.153846,4204.102564,4475.897435,4187.179487,4628.717948,3971.282052,4009.230769
112,4382.051282,4524.102564,4518.461538,4203.076923,4510.256410,4187.692307,4442.051282,4214.871794,4206.153846,4477.435897,4192.307692,4630.256410,3974.358975,4008.717948
113,4382.564102,4518.974358,4521.025641,4201.025641,4511.794871,4187.179487,4444.102564,4212.307692,4201.025641,4476.410256,4198.974358,4630.769230,3967.692308,4011.794871
114,4384.102564,4515.384615,4524.102564,4205.641025,4510.256410,4183.589743,4441.025641,4207.692307,4204.102564,4473.846153,4201.025641,4636.923076,3965.641026,4015.897435
115,4393.333333,4526.153846,4531.794871,4216.410256,4511.794871,4184.102564,4442.051282,4220.512820,4219.487179,4488.205128,4212.307692,4647.692307,3975.897436,4024.615384
116,4400.000000,4533.333333,4536.923076,4215.384615,4512.820512,4186.666666,4445.128205,4234.871794,4227.692307,4507.179487,4218.461538,4650.769230,3982.051283,4028.717948
117,4394.871794,4527.692307,4534.871794,4209.743589,4514.358974,4187.179487,4444.615384,4234.358974,4223.076923,4503.589743,4212.307692,4645.128205,3986.666667,4023.076923
118,4388.205128,4518.461538,4527.692307,4209.230769,4514.871794,4185.128205,4444.615384,4228.717948,4218.974358,4492.820512,4209.230769,4638.461538,3995.897436,4017.948717
119,4384.102564,4515.897435,4525.128205,4206.666666,4510.769230,4185.641025,4444.615384,4222.564102,4219.487179,4494.358974,4205.128205,4634.358974,3996.923077,4013.846153
120,4381.538461,4515.384615,4527.179487,4204.615384,4512.307692,4189.743589,4443.076923,4214.358974,4215.384615,4490.769230,4198.461538,4631.282051,3982.564103,4009.230769
121,4380.000000,4512.307692,4522.051282,4204.615384,4516.923076,4190.769230,4443.589743,4214.871794,4208.205128,4477.948717,4195.384615,4629.230769,3973.846154,4005.128205
122,4379.487179,4513.846153,4519.487179,4200.000000,4510.769230,4187.179487,4443.589743,4216.410256,4205.128205,4480.000000,4194.871794,4627.692307,3982.051283,4004.102564
123,4381.538461,4521.538461,4522.564102,4197.435897,4508.205128,4184.102564,4443.076923,4214.358974,4211.794871,4491.282051,4194.871794,4630.769230,3991.794872,4007.179487
124,4383.589743,4525.641025,4522.051282,4204.615384,4515.384615,4188.205128,4443.589743,4215.897435,4216.923076,4485.641025,4194.358974,4635.897435,3983.076924,4009.743589
125,4381.538461,4521.538461,4522.564102,4205.128205,4517.435897,4191.794871,4443.589743,4216.410256,4212.307692,4480.000000,4195.384615,4633.846153,3968.717949,4006.666666
126,4378.974358,4520.512820,4523.589743,4200.512820,4514.871794,4189.230769,4442.051282,4215.384615,4208.205128,4488.205128,4200.512820,4632.307692,3970.769231,4005.641025
127,4381.538461,4522.564102,4521.025641,4200.000000,4514.358974,4185.128205,4442.564102,4215.384615,4210.769230,4487.179487,4206.666666,4636.923076,3987.179488,4011.282051
128,4387.179487,4524.102564,4525.128205,4201.538461,4514.871794,4183.076923,4440.512820,4214.871794,4210.769230,4482.051282,4208.205128,4643.076923,4001.538461,4018.461538
129,4391.794871,4527.692307,4534.358974,4206.153846,4514.358974,4185.641025,4435.897435,4215.384615,4207.692307,4489.230769,4208.205128,4645.128205,4002.564102,4023.076923
130,4389.743589,4525.128205,4531.282051,4207.692307,4508.717948,4185.641025,4436.923076,4214.871794,4207.692307,4491.794871,4208.717948,4642.051282,3992.307693,4018.974358
131,4380.000000,4518.974358,4522.564102,4202.564102,4507.179487,4184.102564,4436.410256,4207.692307,4208.205128,4481.025641,4206.153846,4633.333333,3984.615385,4007.692307
132,4372.820512,4515.897435,4517.435897,4198.974358,4510.769230,4184.102564,4429.743589,4199.487179,4203.589743,4478.461538,4201.025641,4627.179487,3985.128206,4000.000000
133,4375.897435,4516.923076,4515.897435,4199.487179,4507.179487,4183.076923,4427.179487,4198.461538,4197.435897,4480.000000,4199.487179,4629.230769,3987.179488,4001.538461
134,4383.076923,4518.974358,4520.512820,4196.923076,4505.128205,4183.589743,4429.230769,4205.641025,4202.051282,4478.974358,4203.076923,4633.846153,3986.666667,4006.666666
135,4387.179487,4522.564102,4527.692307,4198.461538,4512.820512,4185.641025,4434.871794,4216.923076,4214.358974,4485.128205,4202.051282,4638.461538,3990.256411,4009.230769
136,4384.102564,4520.000000,4527.692307,4202.051282,4517.435897,4186.666666,4437.948717,4220.512820,4215.384615,4488.205128,4199.487179,4638.461538,3994.871795,4008.717948
137,4376.923076,4512.820512,4518.974358,4202.564102,4510.769230,4184.102564,4432.307692,4215.897435,4209.743589,4478.974358,4204.102564,4631.794871,3991.794872,4005.641025
138,4371.282051,4511.794871,4515.384615,4202.051282,4503.589743,4182.051282,4427.692307,4213.846153,4209.230769,4475.384615,4204.102564,4628.717948,3987.692308,4000.512820
139,4365.641025,4513.333333,4519.487179,4195.384615,4507.692307,4183.589743,4431.282051,4209.743589,4208.717948,4477.948717,4195.897435,4630.769230,3986.666667,3996.410257
140,4358.461538,4508.205128,4517.435897,4191.794871,4509.743589,4184.615384,4432.307692,4200.512820,4201.025641,4468.717948,4187.692307,4626.153846,3985.641026,3993.846154
141,4352.820512,4503.589743,4512.820512,4194.871794,4507.179487,4184.102564,4429.230769,4198.974358,4195.897435,4458.974358,4187.692307,4617.435897,3978.461539,3991.282052
142,4351.794871,4508.205128,4514.871794,4194.358974,4507.692307,4184.615384,4433.333333,4203.589743,4202.051282,4470.256410,4189.230769,4617.435897,3977.948718,3991.794872
143,4347.692307,4509.230769,4517.948717,4190.769230,4508.717948,4185.641025,4440.000000,4204.102564,4207.692307,4483.076923,4187.179487,4620.000000,3985.128206,3991.794872
144,4341.538461,4504.615384,4516.410256,4188.717948,4506.666666,4184.615384,4434.358974,4199.487179,4206.153846,4476.410256,4185.128205,4620.000000,3983.076924,3990.769231
145,4342.564102,4507.179487,4518.974358,4190.769230,4507.179487,4184.102564,4429.743589,4203.076923,4198.461538,4466.153846,4191.282051,4623.076923,3980.512821,3994.871795
146,4342.564102,4509.743589,4526.153846,4195.897435,4507.179487,4184.615384,4436.923076,4211.794871,4198.974358,4470.769230,4195.384615,4629.230769,3987.179488,4001.538461
147,4342.564102,4512.307692,4528.717948,4201.538461,4509.743589,4185.641025,4437.948717,4210.769230,4206.153846,4480.000000,4188.205128,4631.282051,3988.205129,4003.076923
148,4352.307692,4526.153846,4526.666666,4207.692307,4516.923076,4187.692307,4430.769230,4202.051282,4203.589743,4476.410256,4188.205128,4631.794871,3984.615385,4009.230769
149,4354.358974,4532.307692,4528.205128,4216.410256,4515.384615,4187.179487,4428.205128,4199.487179,4198.974358,4472.307692,4197.435897,4631.794871,3984.102565,4015.384615
150,4344.615384,4529.743589,4528.205128,4218.461538,4510.256410,4185.128205,4428.717948,4205.128205,4204.615384,4476.923076,4195.384615,4627.692307,3979.487180,4010.256410
151,4348.205128,4541.025641,4529.230769,4213.846153,4517.435897,4191.794871,4433.846153,4214.358974,4211.794871,4477.435897,4193.333333,4630.256410,3972.820513,4014.358974
152,4361.538461,4552.820512,4534.871794,4218.461538,4524.615384,4202.564102,4444.102564,4221.025641,4215.897435,4478.974358,4204.102564,4637.948717,3978.461539,4024.615384
153,4360.512820,4545.641025,4536.410256,4221.538461,4524.615384,4201.538461,4444.102564,4219.487179,4217.948717,4485.641025,4205.641025,4636.410256,3989.230770,4023.589743
154,4350.256410,4538.461538,4530.769230,4215.897435,4517.948717,4188.205128,4439.487179,4208.717948,4207.692307,4481.538461,4191.794871,4629.230769,3989.230770,4016.923076
155,4345.128205,4540.000000,4527.179487,4213.846153,4512.820512,4185.641025,4442.051282,4204.102564,4198.461538,4469.230769,4191.794871,4627.692307,3978.974359,4014.871794
156,4345.641025,4536.410256,4528.717948,4213.333333,4515.897435,4193.333333,4444.102564,4210.256410,4206.666666,4471.282051,4198.461538,4626.666666,3972.820513,4012.820512
157,4344.102564,4534.358974,4527.692307,4204.615384,4521.025641,4190.769230,4442.564102,4216.410256,4208.717948,4479.487179,4190.256410,4625.641025,3974.871795,4007.692307
158,4343.076923,4535.384615,4527.179487,4199.487179,4518.974358,4189.743589,4447.179487,4216.410256,4205.128205,4475.897435,4182.564102,4628.717948,3975.384616,4009.230769
159,4353.333333,4538.974358,4531.282051,4213.333333,4517.435897,4196.410256,4451.282051,4216.923076,4208.205128,4472.820512,4192.307692,4630.769230,3973.333334,4014.358974
160,4361.025641,4542.051282,4532.820512,4223.589743,4518.974358,4196.410256,4447.179487,4216.923076,4207.692307,4476.923076,4199.487179,4633.333333,3974.871795,4017.948717
161,4357.948717,4537.948717,4531.794871,4214.358974,4517.948717,4192.307692,4450.256410,4215.897435,4204.102564,4474.871794,4198.974358,4636.923076,3975.384616,4019.487179
162,4363.589743,4537.948717,4534.358974,4212.307692,4521.538461,4196.410256,4455.384615,4219.487179,4209.230769,4475.897435,4199.487179,4637.435897,3974.358975,4022.564102
163,4376.410256,4546.153846,4540.512820,4217.948717,4523.589743,4201.538461,4451.794871,4220.512820,4216.923076,4480.512820,4193.846153,4635.384615,3976.923077,4025.128205
164,4376.923076,4545.641025,4540.512820,4209.230769,4517.948717,4194.358974,4445.128205,4217.435897,4211.282051,4475.897435,4192.307692,4634.358974,3977.948718,4023.076923
165,4375.384615,4537.948717,4536.923076,4204.102564,4515.897435,4187.179487,4445.641025,4217.948717,4208.205128,4474.358974,4202.051282,4635.384615,3979.487180,4022.564102
166,4379.487179,4540.000000,4536.923076,4214.871794,4519.487179,4193.333333,4452.820512,4217.435897,4213.846153,4482.051282,4199.487179,4637.435897,3982.051283,4022.564102
167,4381.538461,4544.615384,4535.897435,4216.410256,4522.051282,4203.076923,4453.333333,4214.358974,4210.769230,4477.948717,4183.589743,4631.794871,3978.974359,4018.974358
168,4375.897435,4538.461538,4531.794871,4206.153846,4521.538461,4202.051282,4450.256410,4213.846153,4200.000000,4466.666666,4176.923076,4623.589743,3971.794872,4011.794871
169,4372.307692,4536.410256,4528.717948,4207.179487,4521.025641,4195.897435,4449.230769,4214.871794,4204.615384,4468.717948,4186.666666,4627.692307,3966.666667,4011.282051
170,4377.435897,4540.512820,4534.358974,4215.384615,4523.076923,4200.512820,4451.282051,4217.435897,4217.948717,4481.025641,4200.512820,4638.461538,3967.179488,4020.512820
171,4379.487179,4539.487179,4540.512820,4215.384615,4524.102564,4204.102564,4452.820512,4223.589743,4215.897435,4487.179487,4198.461538,4639.487179,3973.846154,4024.102564
172,4374.871794,4540.512820,4537.435897,4213.846153,4520.000000,4195.897435,4451.794871,4223.589743,4213.333333,4485.128205,4186.153846,4634.871794,3976.923077,4021.025641
173,4369.230769,4540.000000,4532.307692,4214.871794,4513.846153,4189.230769,4450.769230,4221.025641,4216.410256,4484.102564,4188.717948,4635.384615,3977.948718,4020.512820
174,4364.102564,4534.871794,4534.358974,4213.846153,4516.923076,4194.358974,4451.282051,4226.153846,4218.461538,4484.615384,4198.974358,4638.461538,3979.487180,4021.538461
175,4364.102564,4542.051282,4541.025641,4209.743589,4522.051282,4200.512820,4457.435897,4232.307692,4227.692307,4490.769230,4206.153846,4642.051282,3980.000000,4026.153846
176,4371.282051,4555.897435,4543.589743,4215.384615,4522.051282,4199.487179,4459.487179,4233.846153,4236.923076,4503.589743,4212.820512,4647.179487,3988.205129,4034.871794
177,4373.846153,4557.948717,4545.128205,4228.717948,4523.589743,4201.025641,4459.487179,4233.846153,4231.282051,4507.692307,4208.717948,4650.256410,4003.589743,4037.948717
178,4368.717948,4554.358974,4549.230769,4228.717948,4526.153846,4202.564102,4462.051282,4234.871794,4226.153846,4503.589743,4202.564102,4649.743589,4007.692307,4037.948717
179,4365.641025,4556.410256,4546.666666,4218.974358,4524.615384,4200.000000,4459.487179,4229.230769,4226.153846,4500.000000,4206.666666,4643.589743,4002.564102,4035.384615
180,4361.025641,4551.282051,4536.923076,4215.384615,4524.102564,4198.461538,4455.384615,4217.948717,4218.461538,4486.666666,4204.615384,4637.435897,3991.794872,4026.666666
181,4357.435897,4553.846153,4536.410256,4215.384615,4524.102564,4202.051282,4458.974358,4221.025641,4218.974358,4482.051282,4204.615384,4641.025641,3982.564103,4026.153846
182,4361.025641,4566.153846,4547.692307,4215.384615,4523.076923,4202.564102,4461.538461,4231.794871,4225.128205,4497.435897,4212.307692,4649.230769,3989.743590,4035.384615
183,4361.538461,4563.589743,4547.179487,4217.435897,4522.051282,4196.923076,4452.307692,4229.743589,4221.538461,4501.538461,4206.153846,4647.179487,4002.051282,4036.410256
184,4360.000000,4554.871794,4540.512820,4217.435897,4520.512820,4195.384615,4443.076923,4225.641025,4221.538461,4493.846153,4201.538461,4645.128205,3998.461539,4032.820512
185,4364.102564,4557.435897,4545.128205,4215.897435,4518.974358,4196.923076,4446.153846,4227.692307,4226.666666,4497.948717,4213.333333,4650.769230,3991.282052,4037.435897
186,4364.102564,4558.461538,4546.153846,4220.512820,4522.051282,4198.461538,4449.230769,4222.564102,4223.076923,4498.974358,4216.410256,4650.256410,3992.307693,4036.923076
187,4352.307692,4547.692307,4536.410256,4217.435897,4520.000000,4196.410256,4445.641025,4214.871794,4210.256410,4484.102564,4202.051282,4639.487179,3987.179488,4025.641025
188,4347.179487,4540.000000,4529.230769,4204.102564,4512.307692,4190.769230,4445.128205,4211.282051,4203.076923,4475.897435,4181.538461,4632.307692,3978.974359,4019.487179
189,4349.743589,4541.538461,4526.666666,4204.102564,4513.333333,4188.205128,4443.076923,4208.717948,4203.589743,4479.487179,4157.948717,4633.846153,3982.051283,4020.000000
190,4348.717948,4542.564102,4528.205128,4213.846153,4515.384615,4188.717948,4437.435897,4211.794871,4206.153846,4487.179487,4143.589743,4632.307692,3985.128206,4020.000000
191,4349.230769,4543.589743,4531.794871,4208.205128,4509.230769,4187.179487,4440.000000,4217.948717,4211.282051,4493.333333,4140.512820,4630.256410,3979.487180,4018.461538
192,4354.358974,4538.461538,4529.743589,4200.512820,4502.564102,4182.564102,4440.512820,4215.384615,4210.769230,4488.205128,4131.282051,4632.307692,3974.358975,4015.897435
193,4350.256410,4529.230769,4524.102564,4201.538461,4498.974358,4175.384615,4429.230769,4204.102564,4196.410256,4470.256410,4127.692307,4626.666666,3975.897436,4010.769230
194,4343.589743,4525.641025,4525.128205,4200.512820,4493.846153,4170.256410,4422.564102,4195.897435,4187.179487,4461.538461,4130.256410,4615.384615,3970.769231,4004.615384
195,4347.179487,4525.641025,4523.076923,4197.435897,4491.282051,4170.256410,4427.692307,4197.435897,4192.820512,4467.692307,4126.153846,4614.358974,3965.128206,4003.076923
196,4351.282051,4525.128205,4516.923076,4197.435897,4496.923076,4173.333333,4429.230769,4202.051282,4197.948717,4471.282051,4123.589743,4621.025641,3974.871795,4006.153846
197,4355.384615,4530.769230,4523.076923,4204.102564,4503.076923,4177.435897,4431.282051,4208.717948,4205.641025,4478.974358,4132.820512,4628.717948,3990.769231,4011.794871
198,4364.102564,4540.512820,4533.846153,4216.410256,4505.641025,4178.974358,4435.897435,4217.435897,4213.846153,4488.205128,4143.076923,4634.871794,3993.846154,4016.410256
199,4368.205128,4538.974358,4530.769230,4210.769230,4504.615384,4178.461538,4435.897435,4215.897435,4204.102564,4478.461538,4139.487179,4633.333333,3986.153847,4016.410256
200,4365.128205,4535.897435,4525.128205,4195.384615,4505.641025,4181.538461,4438.974358,4207.692307,4193.846153,4467.179487,4135.384615,4630.256410,3980.512821,4015.897435
201,4364.102564,4538.974358,4529.743589,4204.102564,4507.692307,4186.153846,4443.589743,4210.256410,4201.538461,4477.435897,4138.974358,4634.358974,3982.051283,4016.410256
202,4368.205128,4539.487179,4533.846153,4220.000000,4508.717948,4187.692307,4445.128205,4218.461538,4211.282051,4491.282051,4143.076923,4635.897435,3990.256411,4018.461538
203,4374.358974,4539.487179,4534.871794,4219.487179,4510.769230,4188.717948,4446.153846,4218.461538,4215.897435,4490.256410,4144.615384,4634.358974,3989.230770,4021.025641
204,4370.769230,4538.461538,4536.410256,4216.923076,4509.230769,4186.153846,4444.102564,4215.897435,4216.410256,4483.076923,4141.025641,4632.307692,3982.051283,4018.461538
205,4364.102564,4534.871794,4534.358974,4212.820512,4505.641025,4182.564102,4440.000000,4213.333333,4211.282051,4478.974358,4137.948717,4628.717948,3985.641026,4015.384615
206,4370.256410,4542.564102,4532.307692,4209.230769,4506.666666,4184.102564,4443.589743,4206.666666,4206.666666,4480.512820,4144.102564,4629.230769,3987.692308,4019.487179
207,4375.897435,4552.307692,4537.948717,4213.846153,4510.769230,4185.128205,4446.153846,4205.641025,4206.153846,4485.128205,4153.333333,4632.307692,3983.589744,4022.051282
208,4373.333333,4546.666666,4538.974358,4218.461538,4507.179487,4184.615384,4438.461538,4211.282051,4206.666666,4490.769230,4149.230769,4633.333333,3988.717949,4020.512820
209,4376.410256,4543.589743,4536.410256,4223.589743,4507.692307,4186.153846,4436.923076,4213.846153,4208.717948,4491.282051,4149.743589,4634.358974,3995.384616,4022.051282
210,4382.051282,4554.358974,4541.025641,4232.307692,4514.871794,4185.641025,4440.000000,4214.871794,4213.846153,4489.743589,4162.564102,4634.871794,3984.102565,4026.153846
211,4382.564102,4559.487179,4547.179487,4233.846153,4514.871794,4187.179487,4438.974358,4216.923076,4218.461538,4491.282051,4169.743589,4639.487179,3974.358975,4029.743589
212,4385.128205,4554.871794,4546.666666,4229.743589,4513.846153,4192.307692,4436.923076,4215.384615,4216.923076,4490.256410,4165.641025,4643.076923,3980.000000,4030.769230
213,4385.128205,4554.871794,4541.538461,4228.717948,4519.487179,4191.282051,4439.487179,4206.666666,4214.358974,4491.794871,4158.974358,4640.000000,3985.128206,4025.641025
214,4382.051282,4556.923076,4541.025641,4231.282051,4523.589743,4192.820512,4442.564102,4206.153846,4216.410256,4495.897435,4159.487179,4636.410256,3980.000000,4025.128205
215,4385.128205,4553.333333,4541.538461,4234.871794,4521.538461,4199.487179,4442.564102,4212.307692,4214.358974,4491.282051,4167.179487,4635.384615,3973.846154,4027.692307
216,4388.205128,4554.358974,4537.435897,4230.769230,4520.000000,4193.333333,4438.974358,4208.205128,4210.256410,4487.692307,4176.410256,4632.820512,3978.974359,4024.615384
217,4387.692307,4557.948717,4535.897435,4222.051282,4520.000000,4185.128205,4434.358974,4201.025641,4207.179487,4488.205128,4170.769230,4631.282051,3987.692308,4024.615384
218,4383.589743,4554.871794,4534.871794,4222.564102,4513.846153,4183.589743,4428.717948,4197.948717,4201.025641,4483.076923,4155.384615,4631.794871,3989.230770,4025.128205
219,4381.025641,4553.333333,4532.820512,4227.692307,4509.743589,4183.589743,4428.717948,4202.051282,4204.102564,4480.000000,4157.435897,4632.820512,3988.205129,4021.538461
220,4387.692307,4558.461538,4535.897435,4231.282051,4516.923076,4190.769230,4435.897435,4208.717948,4213.333333,4488.717948,4177.435897,4637.948717,3998.461539,4027.179487
221,4396.923076,4562.564102,4542.564102,4235.897435,4525.128205,4200.000000,4440.000000,4208.205128,4211.282051,4495.897435,4191.794871,4643.589743,4010.769230,4038.461538
222,4397.948717,4566.666666,4543.589743,4240.000000,4522.051282,4193.846153,4437.948717,4205.641025,4204.615384,4496.923076,4183.589743,4641.025641,4012.307692,4036.923076
223,4391.282051,4563.076923,4538.461538,4233.333333,4518.461538,4183.076923,4435.897435,4208.717948,4204.102564,4489.230769,4167.692307,4634.871794,4001.025641,4025.641025
224,4389.743589,4551.794871,4537.435897,4231.282051,4521.025641,4188.717948,4439.487179,4208.717948,4203.076923,4477.435897,4166.666666,4633.333333,3990.769231,4021.025641
225,4394.871794,4556.410256,4540.512820,4241.538461,4523.076923,4199.487179,4444.102564,4206.666666,4201.538461,4478.974358,4181.538461,4634.871794,3994.871795,4024.615384
226,4398.461538,4569.743589,4539.487179,4242.564102,4524.102564,4197.948717,4446.153846,4214.358974,4205.128205,4491.794871,4185.128205,4634.871794,4001.025641,4029.230769
227,4400.000000,4569.230769,4535.384615,4238.974358,4522.051282,4193.333333,4446.153846,4218.974358,4209.230769,4495.384615,4180.512820,4637.435897,4004.102564,4030.769230
228,4406.666666,4564.102564,4541.025641,4242.051282,4518.974358,4191.282051,4445.641025,4213.846153,4212.820512,4498.974358,4192.307692,4645.128205,4013.846153,4033.333333
229,4415.384615,4563.076923,4547.692307,4246.666666,4521.025641,4193.333333,4447.179487,4218.461538,4218.974358,4510.256410,4204.615384,4652.820512,4025.641025,4037.435897
230,4414.871794,4557.948717,4545.641025,4246.666666,4523.076923,4196.410256,4447.179487,4226.153846,4223.076923,4508.717948,4202.051282,4650.769230,4025.128205,4037.948717
231,4406.666666,4551.794871,4542.564102,4244.102564,4522.051282,4192.820512,4448.205128,4224.102564,4221.538461,4496.923076,4193.333333,4646.666666,4027.179487,4034.871794
232,4397.948717,4555.384615,4540.512820,4242.051282,4520.000000,4187.179487,4444.615384,4217.435897,4220.512820,4497.435897,4186.666666,4644.102564,4031.282051,4031.794871
233,4395.384615,4563.076923,4542.051282,4244.102564,4519.487179,4188.717948,4440.512820,4217.435897,4223.589743,4507.692307,4190.256410,4641.538461,4023.589743,4030.769230
234,4393.846153,4564.102564,4546.153846,4248.717948,4521.538461,4195.384615,4443.589743,4220.000000,4222.564102,4509.743589,4202.051282,4643.589743,4022.564102,4031.794871
235,4384.102564,4560.000000,4544.615384,4245.641025,4522.564102,4195.897435,4447.179487,4218.461538,4221.025641,4505.128205,4205.641025,4647.179487,4029.230769,4028.717948
236,4378.461538,4556.410256,4541.538461,4246.666666,4519.487179,4191.794871,4445.641025,4218.461538,4221.538461,4503.076923,4195.384615,4646.153846,4025.641025,4025.641025
237,4382.051282,4561.025641,4541.025641,4250.769230,4520.512820,4191.282051,4448.717948,4217.948717,4216.410256,4499.487179,4188.717948,4644.615384,4022.051282,4028.717948
238,4383.589743,4563.589743,4544.102564,4246.153846,4521.025641,4194.358974,4457.435897,4215.897435,4216.410256,4497.435897,4195.384615,4648.717948,4026.666666,4033.333333
239,4383.076923,4561.538461,4550.769230,4248.205128,4515.384615,4195.384615,4458.461538,4220.512820,4226.153846,4508.205128,4207.692307,4655.897435,4023.076923,4036.923076
240,4384.102564,4562.051282,4552.307692,4249.743589,4513.846153,4188.717948,4449.743589,4220.512820,4223.076923,4511.794871,4208.717948,4654.871794,4016.410256,4040.000000
241,4376.410256,4561.025641,4541.538461,4236.410256,4512.820512,4184.615384,4443.076923,4207.692307,4206.666666,4493.333333,4186.666666,4646.153846,4019.487179,4031.794871
242,4365.641025,4555.897435,4534.871794,4234.358974,4510.256410,4186.153846,4443.076923,4197.948717,4202.564102,4482.564102,4172.307692,4638.974358,4018.974358,4021.025641
243,4369.743589,4550.256410,4540.000000,4250.256410,4513.333333,4186.666666,4444.102564,4201.025641,4206.153846,4490.769230,4186.153846,4637.435897,4011.794871,4024.102564
244,4370.769230,4544.615384,4539.487179,4248.205128,4511.282051,4182.564102,4435.384615,4201.538461,4202.564102,4485.641025,4197.435897,4636.410256,4005.641025,4023.076923
245,4359.487179,4536.923076,4531.794871,4234.871794,4502.051282,4174.871794,4430.769230,4197.435897,4200.512820,4472.307692,4184.102564,4632.820512,4000.000000,4011.794871
246,4359.487179,4540.512820,4534.871794,4240.512820,4504.615384,4179.487179,4438.461538,4204.615384,4211.282051,4482.051282,4174.871794,4636.923076,4001.538461,4013.333333
247,4367.179487,4552.307692,4548.717948,4251.282051,4512.820512,4190.256410,4448.205128,4217.948717,4222.564102,4498.461538,4189.230769,4650.256410,4014.358974,4025.641025
248,4362.051282,4554.871794,4550.256410,4249.230769,4509.230769,4189.743589,4450.256410,4219.487179,4217.948717,4494.871794,4200.512820,4653.333333,4018.461538,4028.717948
249,4353.333333,4546.153846,4537.948717,4244.615384,4506.666666,4185.641025,4447.692307,4215.897435,4209.743589,4486.666666,4196.410256,4642.051282,4009.230769,4022.051282
250,4351.282051,4544.102564,4535.384615,4244.615384,4508.717948,4186.666666,4447.179487,4217.948717,4209.230769,4486.153846,4186.153846,4639.487179,4003.589743,4022.051282
251,4349.230769,4550.769230,4540.000000,4248.205128,4510.256410,4188.205128,4447.692307,4214.358974,4206.153846,4481.025641,4183.076923,4646.153846,4006.153846,4025.128205
252,4346.666666,4547.692307,4537.435897,4247.179487,4508.205128,4185.128205,4445.128205,4201.025641,4200.512820,4477.435897,4184.615384,4641.538461,4007.692307,4021.025641
253,4349.743589,4542.051282,4534.871794,4247.692307,4506.666666,4183.589743,4441.025641,4196.923076,4203.076923,4484.102564,4182.051282,4635.384615,4000.512820,4016.410256
254,4354.871794,4550.769230,4541.025641,4255.384615,4509.743589,4187.179487,4443.076923,4202.051282,4208.205128,4491.282051,4185.641025,4641.025641,3993.846154,4025.128205
255,4357.435897,4556.923076,4543.589743,4256.410256,4511.282051,4188.717948,4443.076923,4201.538461,4206.153846,4490.769230,4186.153846,4647.179487,3997.948718,4033.333333
256,4358.974358,4548.717948,4542.051282,4249.743589,4506.153846,4183.589743,4439.487179,4197.435897,4204.615384,4486.666666,4179.487179,4644.615384,4012.307692,4031.794871
257,4365.641025,4552.307692,4546.153846,4251.282051,4504.615384,4182.051282,4441.538461,4206.666666,4213.846153,4489.230769,4186.666666,4646.666666,4023.076923,4034.871794
258,4377.435897,4568.717948,4555.384615,4258.974358,4516.923076,4192.820512,4445.641025,4218.461538,4223.589743,4497.435897,4204.615384,4657.435897,4024.615384,4043.076923
259,4381.538461,4567.179487,4560.000000,4262.564102,4521.025641,4194.871794,4445.128205,4218.461538,4224.615384,4505.128205,4206.153846,4661.025641,4022.051282,4045.641025
