,AF3,F7,F3,FC5,T7,P7,O1,O2,P8,T8,FC6,F4,F8,AF4
0,4373.846153,4301.538461,4519.487179,4261.025641,4537.435897,4217.948717,4444.615384,4214.358974,4218.461538,4474.871794,4181.025641,4592.820512,3786.153847,3987.179488
1,4372.307692,4296.410256,4516.923076,4255.897435,4536.410256,4215.384615,4436.923076,4208.717948,4215.897435,4473.333333,4178.974358,4592.307692,3780.512821,3981.538462
2,4372.820512,4300.512820,4514.358974,4251.794871,4533.846153,4213.333333,4430.769230,4208.717948,4217.948717,4479.487179,4177.948717,4589.230769,3780.000000,3978.974359
3,4379.487179,4305.128205,4518.974358,4254.871794,4532.820512,4215.384615,4438.461538,4214.871794,4224.615384,4486.153846,4184.615384,4590.256410,3785.641026,3987.179488
4,4381.538461,4296.410256,4520.000000,4255.384615,4531.794871,4216.923076,4442.564102,4210.769230,4223.589743,4480.512820,4189.230769,4592.307692,3781.538462,3988.717949
5,4377.435897,4290.256410,4515.897435,4252.820512,4531.794871,4216.410256,4436.923076,4205.128205,4220.000000,4473.333333,4182.051282,4588.717948,3781.025642,3985.641026
6,4378.461538,4294.358974,4515.384615,4251.282051,4533.333333,4215.897435,4433.333333,4206.666666,4221.538461,4475.897435,4174.358974,4582.051282,3784.102565,3987.179488
7,4378.974358,4298.974358,4513.846153,4249.230769,4531.282051,4215.384615,4431.282051,4205.128205,4221.538461,4474.871794,4172.307692,4580.512820,3771.282052,3987.179488
8,4377.948717,4299.487179,4512.307692,4250.769230,4529.743589,4214.358974,4427.692307,4203.589743,4218.974358,4470.256410,4176.410256,4583.076923,3762.051283,3991.282052
9,4382.051282,4296.410256,4515.897435,4252.820512,4526.153846,4215.384615,4428.205128,4203.589743,4216.923076,4474.358974,4182.051282,4587.179487,3778.461539,3999.487180
10,4381.025641,4291.282051,4514.871794,4249.743589,4521.025641,4215.384615,4427.692307,4200.512820,4214.358974,4472.820512,4176.923076,4586.153846,3785.128206,3996.923077
11,4374.871794,4292.820512,4511.794871,4249.230769,4528.717948,4215.897435,4426.666666,4198.461538,4211.282051,4468.205128,4171.794871,4580.000000,3772.820513,3988.205129
12,4374.871794,4296.410256,4512.820512,4250.256410,4536.410256,4217.948717,4430.769230,4202.051282,4212.820512,4469.743589,4176.923076,4578.461538,3768.717949,3989.230770
13,4374.871794,4289.743589,4507.179487,4244.615384,4529.743589,4210.256410,4429.743589,4206.153846,4218.461538,4461.025641,4171.794871,4577.948717,3771.282052,3991.282052
14,4370.256410,4279.487179,4502.051282,4237.948717,4517.948717,4202.051282,4425.128205,4204.102564,4217.948717,4454.871794,4160.512820,4575.897435,3779.487180,3989.743590
15,4371.282051,4281.025641,4507.179487,4244.102564,4520.000000,4202.564102,4426.153846,4201.025641,4213.846153,4469.743589,4166.666666,4577.948717,3791.794872,3991.282052
16,4382.564102,4293.846153,4512.820512,4250.769230,4526.666666,4209.230769,4428.717948,4203.076923,4217.948717,4482.564102,4183.076923,4584.102564,3792.820513,3995.897436
17,4386.153846,4296.410256,4512.307692,4248.205128,4524.102564,4214.871794,4426.666666,4203.076923,4221.025641,4473.846153,4184.102564,4583.589743,3790.769231,4001.538461
18,4377.435897,4285.128205,4506.666666,4246.153846,4523.076923,4207.179487,4426.153846,4201.025641,4216.923076,4462.051282,4171.282051,4578.974358,3794.358975,3997.435898
19,4373.846153,4280.512820,4503.589743,4247.692307,4521.538461,4204.102564,4427.692307,4201.025641,4220.000000,4466.153846,4166.666666,4578.461538,3796.923077,3990.256411
20,4383.076923,4289.230769,4511.282051,4252.307692,4521.538461,4209.230769,4427.179487,4201.025641,4226.666666,4477.435897,4178.974358,4582.564102,3804.102565,3998.461539
21,4390.256410,4295.897435,4517.948717,4256.410256,4526.153846,4210.769230,4427.179487,4200.000000,4222.051282,4476.923076,4184.615384,4586.153846,3809.743590,4005.641025
22,4385.641025,4290.769230,4512.307692,4250.256410,4525.641025,4207.179487,4428.717948,4200.512820,4214.358974,4460.000000,4172.307692,4584.615384,3800.512821,3993.846154
23,4380.512820,4281.025641,4504.615384,4243.589743,4521.025641,4203.076923,4427.179487,4197.948717,4211.794871,4454.358974,4164.102564,4579.487179,3793.333334,3985.641026
24,4381.025641,4279.487179,4505.128205,4246.153846,4520.512820,4205.641025,4427.179487,4193.846153,4210.256410,4467.692307,4170.769230,4577.435897,3793.333334,3990.769231
25,4386.666666,4286.666666,4507.692307,4249.743589,4524.102564,4212.307692,4428.717948,4196.923076,4210.769230,4470.769230,4178.461538,4578.974358,3791.282052,3993.846154
26,4390.256410,4288.717948,4505.641025,4248.717948,4525.128205,4212.820512,4427.692307,4202.051282,4216.410256,4459.487179,4176.923076,4576.923076,3796.923077,3991.794872
27,4385.641025,4282.564102,4502.051282,4246.153846,4523.589743,4205.641025,4426.153846,4200.000000,4217.948717,4460.000000,4166.153846,4570.769230,3802.051283,3989.230770
28,4386.153846,4280.512820,4506.666666,4244.102564,4520.000000,4206.666666,4426.153846,4196.923076,4213.846153,4473.333333,4164.615384,4573.333333,3797.948718,3992.307693
29,4393.333333,4285.128205,4514.358974,4250.256410,4522.051282,4212.307692,4427.179487,4202.564102,4216.923076,4478.974358,4177.948717,4582.564102,3800.000000,4001.538461
30,4397.435897,4290.256410,4517.948717,4260.512820,4529.230769,4213.333333,4431.282051,4208.717948,4224.615384,4473.846153,4184.615384,4587.179487,3804.615385,4008.205128
31,4397.948717,4295.897435,4519.487179,4259.487179,4527.692307,4215.897435,4435.384615,4205.128205,4221.538461,4465.128205,4183.589743,4585.641025,3796.410257,4004.615384
32,4398.974358,4296.923076,4518.461538,4256.410256,4521.025641,4215.897435,4432.307692,4205.128205,4218.974358,4461.538461,4184.615384,4584.102564,3787.692308,4001.025641
33,4400.512820,4292.820512,4517.948717,4257.948717,4521.025641,4212.307692,4428.205128,4210.769230,4227.179487,4469.743589,4181.538461,4583.076923,3795.897436,4003.589743
34,4404.102564,4292.307692,4517.435897,4260.000000,4526.666666,4209.230769,4430.256410,4209.743589,4230.256410,4477.948717,4175.897435,4585.128205,3808.205129,4007.692307
35,4404.615384,4295.384615,4514.358974,4258.974358,4529.230769,4210.256410,4430.256410,4207.179487,4226.153846,4477.435897,4183.076923,4590.769230,3806.666667,4007.179487
36,4401.025641,4293.846153,4513.846153,4255.384615,4524.102564,4214.871794,4431.282051,4209.743589,4224.102564,4476.923076,4192.307692,4591.282051,3801.025642,4002.564102
37,4403.589743,4292.820512,4520.512820,4255.897435,4524.102564,4215.897435,4437.948717,4209.230769,4224.615384,4476.410256,4187.692307,4588.717948,3802.564103,3997.435898
38,4411.282051,4300.000000,4525.641025,4262.564102,4532.820512,4215.897435,4438.461538,4205.128205,4226.153846,4474.871794,4182.051282,4590.256410,3802.051283,4001.025641
39,4409.230769,4304.102564,4519.487179,4263.589743,4534.358974,4220.000000,4430.256410,4204.615384,4224.102564,4473.846153,4180.512820,4586.666666,3801.538462,4005.641025
40,4396.410256,4294.871794,4508.205128,4249.743589,4524.102564,4215.384615,4425.641025,4198.974358,4213.333333,4467.692307,4171.282051,4574.358974,3802.051283,3994.358975
41,4393.333333,4288.717948,4504.102564,4244.102564,4518.974358,4205.128205,4425.641025,4192.820512,4209.743589,4462.564102,4167.692307,4571.282051,3792.820513,3985.641026
42,4406.666666,4296.410256,4514.871794,4256.923076,4522.564102,4206.153846,4426.153846,4200.512820,4217.435897,4468.717948,4180.512820,4583.076923,3788.205129,3998.974359
43,4416.410256,4303.076923,4526.153846,4267.179487,4525.128205,4214.358974,4427.692307,4207.692307,4218.461538,4474.358974,4188.717948,4592.307692,3801.025642,4012.307692
44,4413.333333,4300.512820,4523.076923,4267.179487,4525.128205,4215.384615,4430.256410,4206.666666,4217.948717,4472.307692,4186.153846,4591.794871,3802.564103,4007.179487
45,4408.717948,4295.897435,4515.384615,4263.076923,4523.589743,4212.820512,4429.230769,4208.205128,4223.076923,4470.769230,4183.589743,4589.230769,3790.769231,3998.974359
46,4408.717948,4294.871794,4514.358974,4262.564102,4520.512820,4214.871794,4427.692307,4216.410256,4225.128205,4474.871794,4182.051282,4585.641025,3789.230770,3997.948718
47,4410.256410,4297.435897,4521.538461,4262.564102,4528.205128,4217.435897,4434.358974,4216.923076,4224.102564,4478.461538,4181.538461,4583.589743,3794.871795,3998.461539
48,4411.282051,4298.974358,4524.615384,4262.051282,4535.384615,4216.923076,4438.974358,4212.307692,4228.205128,4473.333333,4177.948717,4586.153846,3792.820513,3997.435898
49,4409.743589,4295.897435,4521.538461,4263.589743,4524.615384,4215.384615,4432.307692,4215.384615,4229.743589,4468.717948,4171.794871,4589.230769,3786.153847,3997.435898
50,4410.256410,4292.307692,4522.564102,4264.102564,4520.512820,4215.897435,4427.179487,4218.461538,4226.666666,4470.769230,4175.384615,4589.230769,3788.205129,3999.487180
51,4412.307692,4294.358974,4524.615384,4265.128205,4531.282051,4214.871794,4430.769230,4211.794871,4223.076923,4475.384615,4183.076923,4589.230769,3792.307693,4001.025641
52,4410.769230,4297.435897,4522.051282,4265.128205,4532.307692,4211.282051,4431.794871,4209.230769,4224.615384,4476.923076,4177.435897,4589.230769,3790.256411,4000.000000
53,4409.743589,4298.974358,4522.564102,4263.076923,4526.153846,4211.794871,4429.743589,4214.871794,4229.230769,4476.923076,4176.410256,4590.256410,3787.179488,4002.051282
54,4412.820512,4297.948717,4525.641025,4262.564102,4528.205128,4213.333333,4429.743589,4213.333333,4226.153846,4476.923076,4185.641025,4592.307692,3788.717949,4003.589743
55,4415.384615,4296.410256,4521.538461,4263.589743,4525.641025,4205.641025,4427.179487,4202.564102,4218.974358,4475.897435,4187.179487,4589.743589,3789.230770,3995.897436
56,4411.794871,4294.871794,4514.871794,4262.051282,4517.948717,4197.948717,4425.128205,4198.974358,4218.461538,4475.384615,4180.512820,4590.256410,3783.589744,3988.205129
57,4407.179487,4294.871794,4517.948717,4259.487179,4521.538461,4204.615384,4432.307692,4205.128205,4218.974358,4473.846153,4176.410256,4593.846153,3777.948718,3991.282052
58,4415.897435,4298.461538,4524.615384,4261.025641,4532.820512,4215.384615,4441.538461,4213.846153,4221.538461,4477.948717,4182.051282,4594.358974,3777.948718,4001.538461
59,4428.205128,4301.538461,4525.641025,4264.615384,4534.871794,4217.948717,4446.153846,4221.025641,4228.205128,4484.102564,4187.692307,4598.974358,3788.717949,4002.564102
60,4422.564102,4298.461538,4522.051282,4265.128205,4530.769230,4214.871794,4444.102564,4218.974358,4228.205128,4481.025641,4176.410256,4602.051282,3789.230770,3993.333334
61,4413.846153,4292.820512,4524.102564,4260.000000,4528.717948,4214.871794,4444.102564,4218.461538,4226.153846,4472.820512,4165.128205,4596.410256,3778.974359,3985.128206
62,4418.974358,4295.897435,4529.230769,4255.384615,4531.794871,4218.461538,4453.333333,4230.256410,4234.358974,4480.000000,4173.846153,4595.897435,3780.512821,3989.230770
63,4420.000000,4303.589743,4528.717948,4257.435897,4531.282051,4218.974358,4457.948717,4234.871794,4242.564102,4490.256410,4176.410256,4606.666666,3786.666667,3997.948718
64,4413.846153,4302.051282,4525.128205,4255.897435,4527.179487,4216.410256,4449.230769,4224.102564,4236.410256,4483.589743,4160.512820,4605.128205,3778.461539,3995.384616
65,4410.256410,4292.820512,4518.461538,4247.692307,4524.615384,4214.358974,4441.025641,4215.897435,4224.102564,4474.871794,4152.307692,4590.769230,3763.076924,3986.666667
66,4411.282051,4294.358974,4517.435897,4248.717948,4521.025641,4213.846153,4445.128205,4216.410256,4224.102564,4475.897435,4163.076923,4589.230769,3760.000000,3989.230770
67,4421.538461,4305.128205,4527.692307,4261.025641,4523.076923,4218.461538,4449.743589,4219.487179,4235.384615,4479.487179,4177.435897,4602.051282,3770.769231,4005.128205
68,4427.179487,4310.256410,4532.820512,4266.153846,4533.333333,4222.564102,4447.692307,4222.051282,4236.923076,4484.102564,4180.512820,4608.205128,3783.589744,4010.769230
69,4417.435897,4307.179487,4529.230769,4258.461538,4537.948717,4220.512820,4445.128205,4221.025641,4228.205128,4486.666666,4174.358974,4605.128205,3784.615385,4004.102564
70,4406.666666,4301.025641,4528.205128,4253.846153,4531.794871,4218.974358,4444.615384,4217.435897,4229.230769,4482.051282,4169.743589,4602.051282,3776.923077,4004.102564
71,4399.487179,4293.333333,4527.179487,4251.794871,4527.692307,4215.897435,4437.948717,4214.358974,4229.230769,4475.897435,4168.717948,4596.923076,3772.820513,4003.076923
72,4396.923076,4292.820512,4518.974358,4250.256410,4534.358974,4211.282051,4432.307692,4212.820512,4221.538461,4472.307692,4168.717948,4593.846153,3770.256411,3995.897436
73,4406.666666,4304.102564,4521.538461,4254.871794,4536.410256,4219.487179,4440.000000,4219.487179,4225.128205,4478.974358,4173.333333,4605.128205,3772.820513,4002.564102
74,4414.358974,4314.871794,4533.846153,4261.538461,4537.948717,4229.230769,4448.717948,4229.743589,4238.974358,4496.923076,4183.589743,4614.358974,3781.538462,4015.897435
75,4410.769230,4312.820512,4536.923076,4263.076923,4541.538461,4228.205128,4446.153846,4231.794871,4243.589743,4504.102564,4190.256410,4612.307692,3791.282052,4015.897435
76,4411.282051,4308.717948,4537.435897,4263.076923,4541.025641,4225.641025,4444.615384,4231.282051,4241.538461,4493.846153,4191.282051,4614.358974,3795.897436,4012.820512
77,4410.256410,4309.230769,4538.461538,4262.051282,4540.512820,4223.076923,4446.153846,4227.692307,4240.000000,4482.564102,4183.589743,4616.923076,3791.794872,4011.794871
78,4404.615384,4309.230769,4534.358974,4258.974358,4538.461538,4221.025641,4444.102564,4219.487179,4230.769230,4484.102564,4174.358974,4612.820512,3783.076924,4008.717948
79,4406.666666,4308.717948,4532.307692,4262.051282,4536.410256,4225.128205,4443.076923,4214.871794,4226.153846,4488.205128,4178.461538,4614.358974,3777.948718,4007.179487
80,4413.333333,4312.307692,4536.410256,4266.153846,4538.461538,4224.102564,4445.128205,4216.923076,4233.333333,4482.564102,4188.717948,4622.051282,3782.564103,4012.307692
81,4410.256410,4312.307692,4531.794871,4262.051282,4539.487179,4216.923076,4445.128205,4216.410256,4231.282051,4474.358974,4185.641025,4620.000000,3788.205129,4012.820512
82,4400.512820,4306.666666,4521.538461,4262.051282,4538.461538,4217.435897,4443.076923,4209.230769,4222.051282,4475.897435,4175.897435,4613.333333,3784.615385,4008.717948
83,4398.461538,4307.179487,4520.512820,4263.589743,4539.487179,4218.461538,4440.512820,4201.538461,4216.923076,4477.948717,4172.307692,4612.307692,3777.435898,4005.641025
84,4401.538461,4310.769230,4523.589743,4260.512820,4535.384615,4213.846153,4440.512820,4199.487179,4214.871794,4473.846153,4169.743589,4611.794871,3774.871795,4006.153846
85,4401.538461,4306.153846,4524.615384,4260.000000,4526.666666,4213.846153,4441.025641,4203.076923,4215.384615,4476.923076,4166.666666,4611.282051,3775.384616,4007.692307
86,4405.641025,4301.538461,4525.641025,4262.564102,4530.769230,4216.410256,4438.974358,4203.076923,4216.410256,4478.461538,4170.769230,4611.794871,3777.948718,4005.128205
87,4409.743589,4305.128205,4528.717948,4260.512820,4537.435897,4217.435897,4435.897435,4201.025641,4217.948717,4475.384615,4182.051282,4614.871794,3776.410257,4007.179487
88,4411.794871,4311.794871,4528.205128,4261.025641,4538.974358,4216.923076,4438.974358,4204.102564,4222.051282,4482.051282,4189.230769,4614.871794,3773.846154,4009.743589
89,4410.769230,4312.307692,4524.102564,4263.589743,4535.384615,4215.897435,4442.051282,4203.589743,4222.051282,4487.179487,4176.410256,4611.282051,3775.897436,4006.666666
90,4406.153846,4302.564102,4520.512820,4257.435897,4526.666666,4214.871794,4437.435897,4195.384615,4209.230769,4478.974358,4157.948717,4607.179487,3773.846154,4004.102564
91,4404.615384,4296.410256,4520.512820,4254.358974,4524.102564,4213.333333,4430.769230,4189.743589,4200.512820,4471.282051,4160.512820,4604.102564,3762.564103,4002.564102
92,4410.256410,4296.923076,4526.153846,4257.435897,4528.205128,4210.256410,4431.282051,4195.384615,4206.153846,4471.282051,4169.743589,4605.128205,3761.025642,3999.487180
93,4420.512820,4301.538461,4530.256410,4259.487179,4528.205128,4210.256410,4438.974358,4207.692307,4220.000000,4480.512820,4173.846153,4613.333333,3774.871795,4002.564102
94,4428.717948,4306.666666,4532.820512,4261.025641,4531.282051,4215.897435,4444.102564,4216.410256,4231.794871,4496.923076,4182.051282,4621.538461,3783.589744,4012.820512
95,4435.897435,4305.128205,4533.846153,4264.615384,4540.512820,4219.487179,4440.512820,4213.333333,4230.769230,4501.025641,4187.692307,4619.487179,3782.564103,4015.384615
96,4439.487179,4304.102564,4532.307692,4265.641025,4540.000000,4215.897435,4440.000000,4210.769230,4227.692307,4494.871794,4186.153846,4617.435897,3779.487180,4008.717948
97,4434.871794,4305.128205,4526.666666,4261.538461,4532.820512,4213.333333,4440.512820,4209.743589,4227.692307,4493.846153,4181.538461,4617.435897,3778.461539,4006.153846
98,4427.179487,4302.564102,4521.025641,4258.974358,4531.282051,4216.410256,4435.384615,4204.615384,4221.538461,4486.666666,4170.256410,4609.743589,3779.487180,4004.615384
99,4425.641025,4302.564102,4521.538461,4258.974358,4535.384615,4216.410256,4435.897435,4204.102564,4217.948717,4479.487179,4167.179487,4608.205128,3778.974359,4002.564102
100,4431.794871,4311.794871,4531.794871,4263.589743,4542.051282,4217.948717,4445.641025,4216.410256,4229.230769,4493.846153,4184.102564,4618.461538,3782.051283,4009.230769
101,4431.794871,4316.410256,4536.410256,4272.307692,4544.102564,4227.179487,4446.666666,4226.666666,4245.128205,4510.769230,4191.282051,4622.564102,3791.282052,4018.461538
102,4429.230769,4315.384615,4531.282051,4274.871794,4538.974358,4229.743589,4440.000000,4228.205128,4245.641025,4510.256410,4183.076923,4620.000000,3800.512821,4018.461538
103,4431.282051,4321.538461,4531.282051,4271.794871,4538.461538,4225.128205,4444.615384,4230.769230,4239.487179,4505.128205,4182.564102,4624.615384,3808.205129,4018.461538
104,4432.307692,4325.128205,4535.897435,4273.333333,4549.743589,4230.256410,4453.846153,4230.769230,4240.512820,4506.666666,4186.153846,4628.717948,3813.846154,4024.102564
105,4431.282051,4318.461538,4528.717948,4274.358974,4555.897435,4231.794871,4450.256410,4222.564102,4237.948717,4504.102564,4182.564102,4621.025641,3807.692308,4019.487179
106,4427.179487,4311.282051,4523.589743,4270.256410,4544.615384,4220.512820,4442.564102,4214.358974,4231.282051,4497.435897,4181.025641,4616.923076,3795.384616,4007.692307
107,4425.128205,4311.282051,4525.128205,4267.179487,4534.358974,4215.384615,4441.538461,4209.743589,4227.692307,4495.384615,4176.923076,4619.487179,3792.820513,4003.589743
108,4426.666666,4313.846153,4522.564102,4267.692307,4536.410256,4219.487179,4440.000000,4207.179487,4225.128205,4498.461538,4166.666666,4619.487179,3796.923077,4006.153846
109,4426.666666,4314.358974,4523.076923,4269.230769,4537.948717,4217.435897,4438.461538,4206.153846,4220.512820,4491.282051,4164.102564,4618.461538,3797.948718,4005.128205
110,4425.641025,4315.384615,4523.589743,4267.692307,4537.435897,4215.897435,4442.051282,4204.615384,4218.461538,4476.410256,4164.615384,4618.974358,3796.923077,4001.538461
111,4425.128205,4316.923076,4522.564102,4268.717948,4538.974358,4218.461538,4444.102564,4205.128205,4223.589743,4482.564102,4158.461538,4616.923076,3794.358975,4002.051282
112,4425.641025,4314.871794,4525.128205,4273.846153,4536.923076,4218.461538,4443.076923,4209.230769,4227.179487,4497.948717,4154.871794,4617.435897,3794.358975,4005.128205
113,4426.666666,4313.846153,4524.102564,4274.358974,4536.410256,4217.948717,4443.076923,4212.820512,4225.641025,4494.358974,4159.487179,4622.051282,3796.923077,4007.179487
114,4426.666666,4315.897435,4521.538461,4269.230769,4536.923076,4219.487179,4441.538461,4212.820512,4223.589743,4484.102564,4164.102564,4622.051282,3794.358975,4008.205128
115,4426.666666,4317.948717,4527.692307,4274.358974,4537.948717,4218.461538,4441.025641,4216.410256,4230.769230,4488.717948,4168.717948,4625.128205,3792.307693,4012.820512
116,4429.230769,4323.076923,4535.897435,4283.589743,4540.512820,4221.538461,4444.615384,4224.102564,4236.923076,4502.564102,4174.871794,4632.820512,3797.948718,4022.564102
117,4430.769230,4325.641025,4532.307692,4279.487179,4541.538461,4225.641025,4446.666666,4223.589743,4232.820512,4507.692307,4175.897435,4632.820512,3798.974359,4023.076923
118,4426.666666,4319.487179,4525.641025,4270.256410,4537.948717,4221.538461,4442.564102,4218.974358,4229.743589,4502.051282,4173.333333,4625.128205,3791.282052,4011.794871
119,4426.153846,4315.384615,4524.102564,4271.282051,4536.923076,4215.897435,4439.487179,4215.384615,4230.256410,4495.384615,4176.410256,4621.025641,3787.179488,4011.282051
120,4428.717948,4317.948717,4528.205128,4275.897435,4533.846153,4218.461538,4442.051282,4216.410256,4230.769230,4492.820512,4174.358974,4625.641025,3785.641026,4015.384615
121,4426.666666,4315.897435,4532.307692,4273.333333,4532.307692,4220.512820,4444.102564,4218.974358,4232.820512,4493.333333,4165.128205,4629.743589,3782.051283,4007.692307
122,4424.102564,4309.743589,4530.256410,4267.692307,4534.358974,4216.410256,4442.564102,4220.000000,4232.820512,4496.923076,4163.589743,4625.128205,3780.000000,4004.102564
123,4421.025641,4308.205128,4526.153846,4267.692307,4528.205128,4214.358974,4441.538461,4215.897435,4227.179487,4497.948717,4163.589743,4621.538461,3777.948718,4011.794871
124,4417.435897,4310.256410,4525.128205,4267.692307,4526.666666,4216.410256,4440.512820,4213.846153,4224.102564,4497.435897,4162.051282,4624.615384,3777.435898,4011.282051
125,4414.871794,4310.256410,4526.666666,4264.615384,4532.307692,4216.410256,4440.000000,4215.897435,4226.666666,4498.461538,4166.666666,4624.102564,3778.461539,4004.615384
126,4412.820512,4302.564102,4525.128205,4265.128205,4528.205128,4213.846153,4436.410256,4207.179487,4221.538461,4488.205128,4165.128205,4620.000000,3772.307693,4003.589743
127,4414.871794,4299.487179,4525.128205,4265.128205,4525.641025,4214.358974,4432.307692,4200.000000,4213.333333,4476.410256,4154.871794,4620.000000,3765.641026,4005.128205
128,4420.000000,4310.256410,4528.717948,4264.102564,4530.256410,4213.333333,4436.410256,4211.794871,4216.410256,4487.179487,4155.384615,4624.102564,3766.153847,4006.666666
129,4420.512820,4312.307692,4527.179487,4264.102564,4530.256410,4206.153846,4442.051282,4220.000000,4224.102564,4496.410256,4161.538461,4623.076923,3764.615385,4005.128205
130,4421.538461,4304.615384,4527.179487,4267.179487,4530.256410,4207.692307,4442.564102,4214.358974,4226.153846,4488.205128,4166.153846,4624.615384,3764.102565,4006.153846
131,4428.717948,4308.205128,4534.871794,4272.820512,4533.333333,4216.923076,4441.025641,4216.410256,4232.820512,4494.358974,4175.384615,4630.769230,3772.307693,4014.871794
132,4429.230769,4312.820512,4533.333333,4268.717948,4525.641025,4214.358974,4434.871794,4217.435897,4235.384615,4505.128205,4173.846153,4628.205128,3776.923077,4014.871794
133,4423.076923,4308.205128,4522.051282,4262.564102,4522.051282,4200.512820,4426.153846,4202.564102,4220.512820,4494.871794,4165.641025,4618.974358,3774.358975,4006.153846
134,4423.076923,4306.666666,4518.461538,4261.025641,4525.641025,4200.512820,4426.153846,4198.461538,4216.923076,4491.282051,4175.384615,4620.000000,3776.923077,4008.717948
135,4422.051282,4306.666666,4520.000000,4260.000000,4523.076923,4209.743589,4430.769230,4210.769230,4227.179487,4503.589743,4181.025641,4623.076923,3772.820513,4011.282051
136,4421.538461,4306.666666,4518.974358,4261.025641,4523.589743,4206.153846,4430.256410,4214.358974,4224.102564,4498.974358,4165.641025,4618.461538,3766.153847,4005.641025
137,4419.487179,4302.564102,4516.923076,4264.615384,4527.179487,4205.641025,4430.769230,4212.820512,4218.461538,4488.205128,4154.871794,4617.948717,3768.717949,4004.615384
138,4410.769230,4294.358974,4514.871794,4257.948717,4523.076923,4211.282051,4431.282051,4212.820512,4225.128205,4494.871794,4163.589743,4618.974358,3766.666667,3999.487180
139,4414.871794,4298.461538,4515.384615,4253.846153,4522.564102,4206.666666,4429.230769,4208.717948,4230.769230,4498.974358,4184.102564,4614.871794,3760.000000,3993.846154
140,4428.717948,4315.384615,4516.923076,4267.179487,4531.794871,4202.051282,4428.205128,4208.205128,4229.743589,4491.282051,4208.205128,4618.461538,3763.076924,4000.512820
141,4431.282051,4319.487179,4523.076923,4279.487179,4538.974358,4212.307692,4429.230769,4208.205128,4224.102564,4489.230769,4222.564102,4623.589743,3770.769231,4007.179487
142,4429.743589,4317.948717,4531.282051,4280.512820,4544.102564,4217.435897,4432.307692,4208.205128,4222.564102,4494.871794,4217.948717,4624.102564,3773.333334,4008.205128
143,4434.871794,4324.615384,4534.358974,4281.025641,4550.769230,4214.358974,4436.410256,4211.282051,4225.641025,4497.435897,4208.205128,4627.692307,3771.794872,4011.282051
144,4432.820512,4323.589743,4532.307692,4280.000000,4546.153846,4215.897435,4435.897435,4212.820512,4225.641025,4500.512820,4207.692307,4630.256410,3768.717949,4009.230769
145,4426.153846,4315.384615,4527.692307,4270.769230,4536.410256,4215.897435,4433.333333,4209.230769,4221.025641,4502.051282,4215.384615,4623.076923,3764.102565,4001.538461
146,4426.666666,4314.358974,4521.025641,4264.615384,4537.948717,4214.358974,4437.948717,4204.102564,4219.487179,4494.358974,4217.435897,4619.487179,3761.025642,4001.025641
147,4428.205128,4315.897435,4523.589743,4270.769230,4549.230769,4216.923076,4444.615384,4208.205128,4225.641025,4495.384615,4212.307692,4624.102564,3757.948718,4004.102564
148,4429.230769,4315.384615,4529.743589,4272.307692,4551.794871,4218.461538,4444.102564,4213.333333,4229.230769,4502.051282,4209.743589,4627.692307,3752.820513,4003.589743
149,4429.230769,4314.358974,4523.589743,4265.128205,4547.692307,4216.410256,4437.948717,4208.205128,4223.076923,4498.461538,4211.282051,4626.153846,3747.179488,4002.051282
150,4428.205128,4313.333333,4521.025641,4268.205128,4546.666666,4213.846153,4431.282051,4198.461538,4216.923076,4492.820512,4216.923076,4625.128205,3747.179488,4003.076923
151,4426.666666,4311.282051,4526.666666,4272.307692,4544.102564,4210.769230,4429.230769,4200.512820,4224.102564,4496.410256,4222.051282,4625.641025,3750.256411,4002.564102
152,4426.153846,4312.820512,4529.230769,4269.230769,4542.564102,4211.282051,4431.794871,4206.153846,4225.128205,4501.025641,4219.487179,4627.179487,3750.256411,4001.025641
153,4429.230769,4313.846153,4526.153846,4271.282051,4549.743589,4213.333333,4431.794871,4198.974358,4213.846153,4495.384615,4211.794871,4628.717948,3750.256411,4001.025641
154,4428.205128,4311.282051,4521.025641,4272.820512,4555.384615,4209.230769,4427.692307,4196.923076,4214.358974,4490.256410,4208.205128,4627.179487,3751.282052,3995.384616
155,4425.128205,4312.307692,4522.051282,4266.666666,4551.282051,4208.717948,4430.256410,4206.666666,4223.076923,4494.871794,4211.282051,4627.179487,3753.846154,3991.282052
156,4432.307692,4322.051282,4531.282051,4264.615384,4550.256410,4214.358974,4435.897435,4211.282051,4224.102564,4501.538461,4221.025641,4632.307692,3759.487180,4001.025641
157,4443.589743,4327.692307,4535.897435,4271.794871,4555.384615,4214.358974,4431.794871,4209.743589,4224.102564,4502.051282,4225.641025,4637.948717,3764.615385,4009.743589
158,4444.615384,4324.102564,4534.871794,4276.923076,4558.461538,4211.282051,4429.230769,4213.846153,4230.769230,4505.128205,4218.974358,4639.487179,3765.641026,4006.153846
159,4437.435897,4327.692307,4536.923076,4274.358974,4558.974358,4216.410256,4438.974358,4217.948717,4232.820512,4509.743589,4216.410256,4638.974358,3762.051283,4005.128205
160,4430.256410,4330.256410,4535.384615,4268.205128,4555.897435,4218.461538,4443.589743,4212.307692,4226.153846,4501.538461,4217.948717,4633.846153,3753.333334,4004.615384
161,4424.102564,4322.051282,4530.769230,4267.692307,4554.871794,4214.358974,4441.025641,4209.743589,4221.538461,4495.897435,4212.820512,4627.692307,3748.717949,3998.974359
162,4421.538461,4321.538461,4530.256410,4268.717948,4556.923076,4216.410256,4443.076923,4216.923076,4224.615384,4498.974358,4212.307692,4629.230769,3757.435898,3996.410257
163,4418.974358,4327.692307,4529.230769,4264.102564,4556.410256,4216.410256,4441.025641,4216.923076,4228.717948,4494.871794,4214.871794,4630.769230,3760.512821,3993.333334
164,4410.769230,4321.538461,4526.666666,4260.000000,4552.820512,4205.641025,4430.256410,4205.641025,4222.564102,4485.641025,4206.153846,4622.564102,3743.589744,3987.692308
165,4406.666666,4318.974358,4526.153846,4260.512820,4552.820512,4197.435897,4423.589743,4202.051282,4213.333333,4487.179487,4200.000000,4616.410256,3735.897436,3987.179488
166,4411.282051,4328.717948,4527.179487,4261.025641,4555.897435,4205.128205,4427.692307,4209.743589,4218.974358,4498.461538,4212.307692,4624.102564,3750.256411,3990.769231
167,4410.769230,4330.769230,4532.307692,4266.153846,4556.410256,4213.333333,4437.948717,4213.846153,4231.794871,4500.000000,4219.487179,4633.333333,3756.410257,3991.794872
168,4405.641025,4327.179487,4538.974358,4272.820512,4557.435897,4213.846153,4442.564102,4213.333333,4229.230769,4492.820512,4216.410256,4636.923076,3753.846154,3996.923077
169,4406.153846,4330.256410,4540.000000,4276.410256,4563.076923,4215.384615,4440.000000,4212.307692,4224.615384,4493.333333,4218.461538,4640.000000,3760.000000,4004.615384
170,4405.128205,4336.923076,4534.358974,4275.897435,4568.205128,4216.410256,4440.000000,4209.743589,4229.743589,4500.512820,4216.410256,4639.487179,3761.025642,4002.564102
171,4398.461538,4343.076923,4531.282051,4275.384615,4567.692307,4216.410256,4443.589743,4213.333333,4231.794871,4501.538461,4211.794871,4637.948717,3746.153847,3993.846154
172,4396.923076,4341.538461,4533.846153,4277.435897,4567.179487,4217.948717,4443.589743,4220.000000,4231.794871,4498.461538,4216.923076,4638.461538,3743.589744,3989.230770
173,4397.435897,4335.897435,4538.461538,4277.948717,4566.666666,4218.461538,4442.564102,4218.461538,4236.410256,4498.461538,4217.948717,4637.435897,3753.333334,3992.307693
174,4395.384615,4338.974358,4540.000000,4277.435897,4567.692307,4214.871794,4441.538461,4217.435897,4240.000000,4505.641025,4216.410256,4636.410256,3753.846154,3996.923077
175,4396.923076,4343.076923,4544.102564,4278.461538,4571.794871,4217.435897,4442.564102,4221.538461,4237.435897,4512.307692,4221.538461,4642.051282,3750.256411,3998.974359
176,4397.948717,4340.000000,4544.615384,4277.435897,4572.820512,4222.564102,4447.692307,4220.512820,4232.307692,4506.153846,4221.025641,4644.102564,3755.384616,3998.461539
177,4394.871794,4336.923076,4536.410256,4273.846153,4568.205128,4218.461538,4445.128205,4215.384615,4231.282051,4496.410256,4211.794871,4638.974358,3754.871795,3996.923077
178,4395.384615,4339.487179,4537.435897,4277.948717,4572.820512,4219.487179,4442.051282,4214.358974,4230.256410,4498.461538,4218.974358,4641.025641,3743.589744,3999.487180
179,4397.948717,4339.487179,4550.256410,4287.179487,4579.487179,4228.717948,4451.282051,4221.538461,4229.230769,4499.487179,4230.256410,4650.769230,3743.076924,4002.564102
180,4398.974358,4338.461538,4554.358974,4286.153846,4580.000000,4232.820512,4461.025641,4231.794871,4236.410256,4498.461538,4228.717948,4652.820512,3753.846154,4004.615384
181,4398.974358,4342.564102,4550.769230,4278.974358,4581.538461,4231.794871,4462.564102,4232.820512,4245.641025,4507.179487,4226.153846,4649.230769,3761.025642,4003.076923
182,4396.410256,4343.076923,4550.256410,4276.410256,4580.000000,4229.230769,4456.410256,4229.743589,4243.076923,4513.333333,4224.102564,4646.153846,3762.051283,3997.435898
183,4394.358974,4338.461538,4552.820512,4276.923076,4574.871794,4226.666666,4449.230769,4231.282051,4241.538461,4514.358974,4226.666666,4646.666666,3760.512821,3994.358975
184,4398.461538,4343.076923,4556.410256,4278.974358,4577.435897,4229.230769,4454.358974,4234.358974,4247.692307,4517.435897,4232.307692,4650.769230,3765.128206,3993.333334
185,4399.487179,4348.717948,4553.333333,4283.076923,4586.153846,4234.358974,4458.461538,4234.358974,4244.102564,4517.948717,4227.692307,4651.794871,3766.153847,3989.230770
186,4391.794871,4341.538461,4545.128205,4282.051282,4583.589743,4230.769230,4446.666666,4231.794871,4234.871794,4512.820512,4221.538461,4645.128205,3752.820513,3984.615385
187,4387.692307,4336.923076,4546.666666,4279.487179,4579.487179,4228.717948,4445.128205,4222.564102,4232.820512,4507.692307,4228.717948,4640.512820,3753.333334,3986.666667
188,4395.384615,4345.128205,4552.307692,4286.666666,4586.666666,4235.897435,4457.948717,4223.589743,4238.974358,4508.205128,4235.897435,4649.743589,3772.307693,3994.358975
189,4399.487179,4349.230769,4550.256410,4291.794871,4587.692307,4232.820512,4452.820512,4229.743589,4244.102564,4513.846153,4232.820512,4655.897435,3771.282052,3998.461539
190,4390.256410,4341.538461,4547.179487,4283.589743,4576.923076,4220.000000,4440.512820,4223.589743,4238.974358,4516.923076,4224.615384,4647.692307,3756.923077,3994.358975
191,4385.128205,4336.410256,4545.641025,4275.897435,4572.820512,4222.564102,4443.589743,4218.974358,4235.897435,4510.769230,4217.948717,4643.076923,3756.410257,3988.717949
192,4388.205128,4338.974358,4542.564102,4280.000000,4581.538461,4231.794871,4449.743589,4225.128205,4236.923076,4504.615384,4222.564102,4646.153846,3756.410257,3988.717949
193,4386.153846,4340.512820,4539.487179,4281.025641,4585.128205,4225.128205,4447.179487,4223.076923,4230.256410,4498.974358,4224.615384,4643.589743,3747.692308,3987.692308
194,4382.564102,4337.948717,4540.000000,4275.897435,4578.461538,4213.846153,4442.051282,4213.333333,4224.102564,4494.358974,4213.846153,4638.974358,3746.666667,3985.641026
195,4383.589743,4334.871794,4540.000000,4277.948717,4573.846153,4216.410256,4442.051282,4215.897435,4230.769230,4501.025641,4210.256410,4640.512820,3753.846154,3986.666667
196,4385.641025,4334.358974,4542.051282,4283.076923,4572.820512,4225.128205,4447.179487,4225.641025,4237.435897,4510.256410,4219.487179,4643.076923,3758.461539,3988.205129
197,4381.538461,4333.846153,4541.538461,4275.384615,4571.282051,4225.128205,4447.692307,4222.564102,4232.307692,4504.615384,4223.076923,4641.025641,3754.358975,3988.717949
198,4376.410256,4332.307692,4537.948717,4268.717948,4570.769230,4217.948717,4443.076923,4215.897435,4225.641025,4493.846153,4221.538461,4639.487179,3748.717949,3988.205129
199,4377.435897,4333.333333,4533.333333,4272.820512,4569.743589,4213.333333,4441.538461,4218.974358,4227.692307,4493.333333,4214.358974,4639.487179,3754.871795,3987.692308
200,4380.512820,4335.384615,4531.794871,4272.307692,4571.282051,4215.384615,4443.076923,4223.076923,4231.282051,4496.410256,4205.641025,4637.948717,3760.000000,3989.743590
201,4381.025641,4337.948717,4537.948717,4268.717948,4571.794871,4217.435897,4444.102564,4217.435897,4227.692307,4497.435897,4210.769230,4636.923076,3758.461539,3989.743590
202,4381.538461,4337.948717,4539.487179,4273.846153,4569.743589,4220.512820,4444.615384,4214.871794,4225.641025,4498.461538,4218.974358,4641.538461,3760.512821,3988.205129
203,4383.589743,4332.820512,4534.871794,4277.435897,4569.743589,4220.512820,4444.102564,4217.948717,4228.205128,4497.435897,4213.333333,4642.564102,3760.512821,3988.205129
204,4380.000000,4330.769230,4535.384615,4275.384615,4572.820512,4215.897435,4443.589743,4218.974358,4228.717948,4492.307692,4208.205128,4643.076923,3756.410257,3990.256411
205,4381.538461,4338.974358,4538.461538,4277.435897,4573.333333,4217.435897,4444.615384,4219.487179,4232.307692,4492.820512,4218.974358,4648.717948,3762.564103,3994.358975
206,4386.666666,4347.179487,4538.461538,4278.461538,4575.384615,4219.487179,4448.205128,4225.128205,4234.358974,4498.974358,4223.589743,4652.820512,3766.666667,4001.025641
207,4388.205128,4347.692307,4540.512820,4277.948717,4579.487179,4218.974358,4449.743589,4231.282051,4234.871794,4502.564102,4216.410256,4652.307692,3761.025642,4005.128205
208,4384.615384,4339.487179,4542.564102,4280.512820,4577.435897,4221.538461,4446.666666,4226.153846,4233.333333,4498.974358,4211.282051,4650.769230,3757.435898,4001.538461
209,4373.333333,4323.589743,4531.282051,4273.846153,4568.205128,4215.384615,4442.564102,4213.846153,4220.000000,4482.564102,4198.974358,4641.538461,3745.128206,3985.641026
210,4368.205128,4320.000000,4525.641025,4263.589743,4558.461538,4202.051282,4441.025641,4211.794871,4210.769230,4477.948717,4190.769230,4634.358974,3736.923077,3979.487180
211,4378.974358,4331.282051,4532.307692,4268.717948,4562.051282,4207.179487,4441.025641,4218.974358,4222.564102,4489.743589,4206.666666,4645.641025,3754.358975,3995.897436
212,4385.641025,4330.769230,4536.410256,4274.871794,4567.692307,4216.923076,4442.051282,4222.051282,4229.230769,4493.846153,4224.615384,4653.846153,3768.205129,4008.205128
213,4380.512820,4324.102564,4531.282051,4267.692307,4563.076923,4209.230769,4442.564102,4221.025641,4224.102564,4490.769230,4222.051282,4648.717948,3756.923077,4000.000000
214,4380.000000,4327.692307,4529.743589,4264.615384,4559.487179,4206.153846,4440.512820,4217.435897,4224.102564,4491.794871,4216.410256,4649.743589,3746.153847,3996.410257
215,4384.102564,4333.333333,4534.871794,4272.307692,4568.205128,4216.923076,4440.512820,4215.897435,4226.153846,4494.871794,4212.820512,4654.871794,3757.435898,4002.564102
216,4381.538461,4329.743589,4527.179487,4270.769230,4572.307692,4221.538461,4443.589743,4216.410256,4220.000000,4493.333333,4208.717948,4649.230769,3765.128206,3997.948718
217,4372.820512,4320.512820,4515.384615,4262.051282,4566.666666,4215.897435,4440.512820,4213.846153,4213.333333,4489.230769,4209.230769,4642.564102,3750.769231,3985.641026
218,4363.589743,4313.333333,4513.333333,4261.025641,4558.974358,4207.179487,4432.820512,4213.333333,4216.410256,4482.051282,4207.692307,4642.051282,3740.000000,3982.564103
219,4366.666666,4316.923076,4512.820512,4265.128205,4556.923076,4204.615384,4431.282051,4216.923076,4225.641025,4486.666666,4205.128205,4643.589743,3752.820513,3989.743590
220,4373.333333,4324.615384,4514.358974,4268.717948,4566.153846,4213.333333,4438.461538,4220.000000,4230.256410,4502.564102,4211.794871,4647.692307,3764.102565,3997.435898
221,4372.307692,4326.666666,4516.410256,4269.230769,4568.717948,4217.435897,4443.589743,4217.435897,4227.179487,4506.153846,4218.461538,4649.743589,3757.948718,3996.410257
222,4374.871794,4330.256410,4514.871794,4269.743589,4567.179487,4215.384615,4444.102564,4215.384615,4227.179487,4502.564102,4220.512820,4648.205128,3758.461539,3996.923077
223,4381.538461,4338.974358,4512.820512,4274.358974,4574.358974,4220.000000,4445.128205,4217.948717,4230.769230,4506.153846,4221.538461,4650.769230,3766.153847,4004.615384
224,4383.589743,4342.051282,4514.871794,4277.435897,4574.871794,4222.051282,4445.128205,4218.974358,4227.692307,4510.769230,4217.435897,4652.820512,3764.102565,4006.153846
225,4382.051282,4338.461538,4510.256410,4275.897435,4568.717948,4218.461538,4442.051282,4215.384615,4220.000000,4499.487179,4214.358974,4649.743589,3760.000000,3995.897436
226,4377.948717,4335.897435,4506.153846,4277.435897,4569.743589,4216.923076,4441.025641,4215.384615,4217.435897,4490.256410,4214.871794,4647.179487,3759.487180,3990.769231
227,4374.358974,4332.307692,4507.179487,4276.410256,4570.769230,4215.384615,4442.564102,4216.410256,4222.051282,4497.948717,4212.307692,4645.641025,3755.897436,3993.333334
228,4378.461538,4327.692307,4504.615384,4270.769230,4567.692307,4215.384615,4444.102564,4216.923076,4221.538461,4501.025641,4212.820512,4647.179487,3754.871795,3997.435898
229,4383.589743,4327.692307,4503.076923,4271.282051,4563.589743,4218.461538,4444.102564,4219.487179,4222.564102,4497.948717,4218.461538,4653.333333,3758.974359,4003.076923
230,4382.564102,4331.282051,4505.641025,4270.256410,4557.435897,4213.846153,4443.589743,4220.000000,4226.153846,4500.512820,4220.512820,4656.410256,3758.974359,4005.641025
231,4379.487179,4331.794871,4506.153846,4265.128205,4554.871794,4206.153846,4442.564102,4217.435897,4223.589743,4497.948717,4215.897435,4653.333333,3762.051283,4002.564102
232,4375.897435,4327.179487,4501.025641,4262.051282,4556.410256,4207.179487,4441.025641,4215.897435,4220.512820,4488.205128,4213.333333,4651.794871,3768.205129,3997.948718
233,4370.769230,4321.025641,4493.333333,4257.435897,4553.333333,4206.153846,4438.461538,4216.923076,4221.025641,4487.692307,4210.769230,4651.282051,3757.948718,3993.846154
234,4369.230769,4318.974358,4491.282051,4250.769230,4553.846153,4202.564102,4440.000000,4217.948717,4222.564102,4495.897435,4209.743589,4649.230769,3751.282052,3995.384616
235,4372.307692,4321.025641,4497.435897,4254.358974,4558.461538,4203.589743,4440.000000,4216.923076,4222.564102,4498.974358,4211.794871,4652.820512,3762.564103,3997.948718
236,4373.333333,4321.538461,4500.512820,4262.051282,4554.871794,4206.153846,4431.794871,4216.410256,4219.487179,4496.410256,4209.230769,4658.461538,3763.589744,3993.846154
237,4371.794871,4322.051282,4496.410256,4261.538461,4554.871794,4209.743589,4430.769230,4216.923076,4218.974358,4495.897435,4208.205128,4656.410256,3754.358975,3993.333334
238,4375.384615,4328.717948,4497.948717,4264.102564,4567.179487,4217.435897,4441.538461,4216.410256,4225.641025,4499.487179,4215.384615,4656.923076,3756.410257,4002.051282
239,4383.589743,4332.820512,4507.179487,4268.205128,4573.846153,4218.461538,4444.102564,4222.564102,4230.256410,4501.538461,4222.564102,4665.128205,3760.512821,4010.256410
240,4384.615384,4329.743589,4510.256410,4268.717948,4566.666666,4213.333333,4440.512820,4229.743589,4231.282051,4504.615384,4222.051282,4668.717948,3762.051283,4012.307692
241,4382.564102,4331.282051,4506.153846,4267.692307,4561.538461,4215.384615,4442.051282,4227.179487,4231.794871,4509.743589,4218.974358,4665.641025,3769.743590,4011.282051
242,4383.076923,4330.769230,4503.589743,4267.179487,4557.948717,4216.410256,4439.487179,4223.589743,4228.205128,4506.666666,4218.461538,4662.051282,3769.743590,4006.666666
243,4379.487179,4323.076923,4502.564102,4266.666666,4552.307692,4212.307692,4435.897435,4223.076923,4224.102564,4495.384615,4213.846153,4658.974358,3755.897436,4003.589743
244,4375.897435,4325.128205,4498.461538,4264.615384,4558.461538,4214.358974,4436.923076,4218.461538,4223.076923,4494.871794,4211.282051,4654.358974,3752.307693,4005.641025
245,4380.000000,4333.846153,4496.923076,4264.102564,4566.666666,4217.435897,4436.923076,4216.410256,4223.076923,4501.538461,4210.256410,4653.846153,3762.564103,4005.641025
246,4381.025641,4327.179487,4495.384615,4265.128205,4561.538461,4208.717948,4431.794871,4217.948717,4220.000000,4500.000000,4206.153846,4653.333333,3761.538462,4005.128205
247,4377.435897,4317.435897,4490.769230,4263.589743,4558.974358,4207.692307,4429.743589,4216.410256,4218.461538,4496.410256,4207.179487,4651.794871,3744.615385,4004.615384
248,4384.102564,4328.717948,4495.384615,4262.564102,4562.051282,4214.871794,4438.461538,4216.410256,4226.153846,4506.153846,4217.435897,4656.923076,3746.153847,4005.641025
249,4392.307692,4336.410256,4501.538461,4265.128205,4558.461538,4210.256410,4438.974358,4221.538461,4234.358974,4511.282051,4219.487179,4661.538461,3764.615385,4009.743589
250,4388.205128,4326.153846,4497.435897,4267.692307,4557.435897,4205.641025,4432.307692,4223.589743,4230.769230,4502.564102,4212.307692,4661.538461,3765.128206,4011.794871
251,4382.051282,4322.051282,4495.897435,4265.641025,4562.051282,4209.230769,4433.333333,4222.564102,4228.205128,4494.871794,4212.307692,4658.974358,3755.384616,4009.743589
252,4380.512820,4328.205128,4498.974358,4263.589743,4557.435897,4208.205128,4433.846153,4220.000000,4228.205128,4495.897435,4213.333333,4656.410256,3751.794872,4005.128205
253,4378.974358,4331.282051,4495.384615,4263.589743,4552.307692,4208.717948,4430.256410,4215.384615,4220.000000,4498.974358,4211.794871,4656.923076,3751.282052,4004.615384
254,4383.589743,4334.358974,4497.948717,4269.230769,4556.410256,4215.384615,4437.948717,4217.948717,4221.538461,4500.000000,4214.358974,4661.538461,3755.384616,4010.256410
255,4389.743589,4338.974358,4509.743589,4275.897435,4558.461538,4216.410256,4446.153846,4225.128205,4228.717948,4504.615384,4216.410256,4667.179487,3760.000000,4014.871794
