,AF3,F7,F3,FC5,T7,P7,O1,O2,P8,T8,FC6,F4,F8,AF4
0,4492.820512,4548.205128,4538.974358,4267.179487,4498.461538,4203.076923,4442.051282,3930.256411,4243.076923,4497.948717,4228.717948,4662.564102,4007.692307,4074.358974
1,4490.256410,4551.282051,4536.410256,4262.564102,4495.384615,4202.051282,4444.102564,3929.230770,4239.487179,4496.410256,4226.666666,4656.923076,4009.230769,4073.333333
2,4488.717948,4546.153846,4533.846153,4256.923076,4490.769230,4197.435897,4443.589743,3926.153847,4240.512820,4493.333333,4217.435897,4651.282051,4010.256410,4067.692307
3,4488.717948,4541.538461,4534.358974,4261.025641,4490.769230,4198.974358,4441.538461,3927.179488,4241.538461,4494.358974,4218.461538,4651.282051,4010.256410,4066.666666
4,4490.256410,4546.666666,4537.435897,4267.692307,4494.358974,4202.051282,4441.538461,3927.692308,4237.948717,4498.461538,4225.641025,4652.307692,4009.230769,4070.256410
5,4491.282051,4551.282051,4540.000000,4270.256410,4496.410256,4202.051282,4442.051282,3925.641026,4234.871794,4496.410256,4229.230769,4654.358974,4007.692307,4071.794871
6,4491.282051,4555.384615,4540.512820,4270.769230,4494.358974,4199.487179,4441.025641,3926.666667,4238.974358,4494.871794,4228.205128,4657.948717,4015.384615,4073.333333
7,4493.333333,4556.923076,4538.461538,4273.333333,4496.923076,4203.589743,4444.615384,3928.717949,4242.564102,4498.461538,4224.615384,4660.512820,4025.641025,4078.974358
8,4493.333333,4553.846153,4540.000000,4273.846153,4500.512820,4206.666666,4447.692307,3928.205129,4244.102564,4503.076923,4227.692307,4661.025641,4022.051282,4078.461538
9,4492.307692,4553.846153,4545.128205,4269.230769,4497.948717,4204.615384,4445.641025,3929.230770,4249.743589,4505.641025,4234.358974,4665.128205,4014.871794,4074.871794
10,4498.461538,4555.384615,4544.615384,4271.282051,4498.461538,4207.179487,4450.256410,3934.871795,4252.820512,4506.666666,4234.871794,4668.205128,4020.000000,4081.538461
11,4503.589743,4553.333333,4544.615384,4276.410256,4505.128205,4206.666666,4456.923076,3936.410257,4251.794871,4503.589743,4232.820512,4668.205128,4024.102564,4085.641025
12,4502.564102,4554.358974,4548.717948,4272.307692,4504.615384,4207.179487,4458.461538,3939.487180,4249.230769,4500.512820,4233.846153,4667.692307,4019.487179,4077.948717
13,4503.076923,4561.025641,4548.205128,4271.282051,4501.538461,4211.282051,4458.974358,3941.025642,4246.666666,4501.538461,4232.307692,4668.205128,4016.923076,4078.461538
14,4505.641025,4561.025641,4538.974358,4279.487179,4507.179487,4208.717948,4454.871794,3932.307693,4243.589743,4500.512820,4231.282051,4665.128205,4014.358974,4082.051282
15,4504.615384,4552.307692,4536.410256,4280.000000,4507.179487,4208.205128,4448.717948,3929.743590,4242.051282,4497.435897,4230.769230,4661.538461,4014.358974,4076.923076
16,4506.666666,4553.333333,4547.179487,4278.461538,4504.102564,4211.794871,4452.820512,3942.051283,4248.717948,4505.641025,4231.794871,4664.102564,4022.051282,4076.923076
17,4510.256410,4556.923076,4550.769230,4281.538461,4505.641025,4209.743589,4459.487179,3947.179488,4253.333333,4509.230769,4232.820512,4666.153846,4023.589743,4082.051282
18,4507.692307,4552.307692,4546.666666,4278.974358,4503.076923,4205.641025,4458.461538,3942.051283,4246.666666,4503.076923,4230.769230,4666.666666,4022.564102,4081.025641
19,4506.153846,4550.769230,4549.743589,4277.435897,4502.564102,4207.692307,4457.435897,3946.153847,4245.641025,4506.153846,4234.358974,4672.307692,4026.153846,4079.487179
20,4513.333333,4553.333333,4553.333333,4280.000000,4507.179487,4209.743589,4457.435897,3952.307693,4252.820512,4511.794871,4242.051282,4672.820512,4019.487179,4080.512820
21,4517.435897,4551.794871,4549.230769,4279.487179,4507.692307,4212.820512,4455.897435,3952.307693,4253.333333,4507.179487,4238.974358,4666.666666,4011.282051,4080.000000
22,4515.384615,4552.820512,4549.230769,4278.974358,4507.692307,4218.974358,4458.461538,3952.820513,4248.717948,4506.153846,4231.282051,4665.641025,4020.000000,4079.487179
23,4519.487179,4561.538461,4554.871794,4284.615384,4516.410256,4222.564102,4461.538461,3956.410257,4248.205128,4506.666666,4231.794871,4669.743589,4024.615384,4082.564102
24,4526.666666,4564.615384,4555.897435,4287.179487,4518.974358,4223.589743,4462.051282,3958.461539,4249.230769,4500.512820,4235.897435,4667.179487,4011.794871,4082.564102
25,4520.512820,4556.410256,4553.333333,4278.461538,4507.692307,4217.435897,4457.948717,3955.897436,4244.102564,4495.897435,4231.794871,4663.076923,4002.051282,4075.384615
26,4516.410256,4553.333333,4553.333333,4274.871794,4504.102564,4211.794871,4455.897435,3956.923077,4246.666666,4502.564102,4228.717948,4668.205128,4010.256410,4076.410256
27,4525.641025,4557.948717,4555.897435,4281.025641,4510.256410,4218.461538,4460.512820,3960.512821,4255.897435,4511.282051,4234.358974,4673.846153,4022.051282,4086.666666
28,4521.025641,4555.384615,4549.743589,4280.000000,4510.256410,4220.000000,4461.025641,3958.461539,4251.282051,4506.666666,4232.307692,4667.692307,4015.384615,4081.538461
29,4506.666666,4550.769230,4541.538461,4273.333333,4505.128205,4214.358974,4457.435897,3954.871795,4240.512820,4496.923076,4222.564102,4657.948717,4003.589743,4068.717948
30,4511.282051,4553.333333,4543.589743,4274.871794,4506.153846,4213.846153,4459.487179,3958.461539,4244.615384,4503.076923,4215.897435,4658.461538,4009.743589,4070.256410
31,4523.589743,4555.897435,4549.230769,4278.461538,4508.717948,4216.923076,4458.461538,3954.871795,4249.230769,4506.153846,4214.871794,4663.589743,4017.948717,4076.923076
32,4525.128205,4555.897435,4551.282051,4278.461538,4508.205128,4217.435897,4452.307692,3944.615385,4241.025641,4496.410256,4223.076923,4665.128205,4014.358974,4079.487179
33,4522.051282,4560.512820,4548.717948,4279.487179,4507.179487,4214.358974,4452.820512,3940.512821,4238.974358,4497.948717,4234.358974,4662.564102,4013.333333,4081.025641
34,4524.615384,4564.615384,4546.666666,4278.974358,4505.641025,4213.846153,4459.487179,3942.564103,4246.153846,4504.615384,4231.794871,4662.051282,4018.461538,4081.025641
35,4527.179487,4561.538461,4545.641025,4280.000000,4508.717948,4218.461538,4457.948717,3941.025642,4249.230769,4501.025641,4225.641025,4663.076923,4015.384615,4078.974358
36,4518.974358,4555.384615,4542.051282,4276.410256,4506.153846,4216.923076,4448.205128,3932.820513,4242.051282,4495.384615,4227.692307,4655.897435,4003.589743,4074.358974
37,4512.820512,4551.282051,4535.384615,4268.205128,4497.435897,4205.641025,4442.564102,3926.153847,4233.333333,4495.384615,4224.102564,4648.717948,4001.538461,4069.230769
38,4518.974358,4556.410256,4537.435897,4270.256410,4498.974358,4205.641025,4448.717948,3932.820513,4236.410256,4498.974358,4215.897435,4651.282051,4010.769230,4070.256410
39,4526.666666,4565.641025,4547.692307,4281.538461,4507.692307,4217.435897,4456.923076,3943.076924,4245.128205,4499.487179,4213.333333,4656.923076,4013.333333,4075.897435
40,4528.717948,4567.179487,4551.282051,4285.128205,4510.769230,4220.512820,4459.487179,3944.102565,4247.692307,4500.512820,4220.512820,4660.000000,4010.769230,4080.000000
41,4520.000000,4556.410256,4545.641025,4277.435897,4508.205128,4215.897435,4458.974358,3942.564103,4247.179487,4502.564102,4229.230769,4656.410256,4010.769230,4074.358974
42,4510.256410,4542.564102,4536.923076,4267.692307,4504.615384,4212.820512,4454.358974,3940.000000,4243.076923,4500.512820,4225.128205,4647.692307,4008.717948,4063.076923
43,4516.923076,4542.051282,4535.897435,4263.589743,4500.512820,4208.205128,4446.666666,3934.871795,4234.871794,4493.846153,4214.358974,4644.102564,4005.641025,4064.102564
44,4522.051282,4543.076923,4537.948717,4261.538461,4494.358974,4200.512820,4443.076923,3934.871795,4230.256410,4487.692307,4208.717948,4645.641025,4001.025641,4066.153846
45,4510.256410,4540.000000,4534.871794,4259.487179,4489.743589,4198.461538,4441.025641,3935.384616,4230.256410,4479.487179,4207.692307,4643.076923,3995.384616,4056.923076
46,4509.230769,4545.128205,4535.384615,4264.615384,4495.384615,4204.102564,4443.076923,3938.461539,4233.846153,4481.025641,4211.794871,4647.692307,3998.974359,4058.461538
47,4522.051282,4554.358974,4546.153846,4270.256410,4506.666666,4214.358974,4454.358974,3950.769231,4243.076923,4498.974358,4218.461538,4658.461538,4012.307692,4073.846153
48,4524.615384,4559.487179,4551.282051,4271.794871,4509.230769,4218.461538,4461.538461,3961.025642,4255.897435,4510.769230,4226.153846,4662.051282,4021.538461,4082.564102
49,4520.512820,4562.051282,4543.589743,4277.435897,4507.179487,4215.897435,4459.487179,3960.000000,4260.000000,4507.692307,4229.743589,4660.000000,4018.974358,4081.025641
50,4511.282051,4560.000000,4542.051282,4281.025641,4507.692307,4215.897435,4458.974358,3961.538462,4254.871794,4503.076923,4223.076923,4656.923076,4010.256410,4074.871794
51,4504.615384,4552.307692,4549.743589,4278.974358,4507.179487,4216.923076,4460.000000,3967.179488,4253.333333,4505.641025,4217.435897,4656.923076,4008.205128,4070.769230
52,4508.205128,4552.307692,4553.846153,4277.435897,4501.538461,4209.743589,4456.410256,3965.128206,4254.871794,4504.615384,4220.512820,4660.512820,4013.846153,4075.897435
53,4505.128205,4557.435897,4548.205128,4272.307692,4500.512820,4207.692307,4456.410256,3958.974359,4251.794871,4497.435897,4217.435897,4659.487179,4009.743589,4074.358974
54,4489.743589,4549.230769,4540.512820,4261.025641,4500.512820,4209.743589,4454.871794,3958.461539,4241.538461,4493.333333,4210.769230,4650.256410,4001.538461,4060.512820
55,4487.692307,4541.538461,4535.897435,4262.564102,4494.871794,4205.128205,4448.205128,3959.487180,4235.384615,4497.435897,4214.871794,4647.179487,4004.615384,4061.025641
56,4497.435897,4547.179487,4537.435897,4273.846153,4496.923076,4203.589743,4449.230769,3958.974359,4240.000000,4503.076923,4218.974358,4653.333333,4008.717948,4072.820512
57,4498.461538,4556.410256,4544.615384,4271.794871,4502.564102,4208.205128,4452.820512,3962.051283,4245.641025,4503.589743,4215.897435,4658.461538,4003.589743,4071.794871
58,4491.282051,4557.435897,4547.179487,4267.179487,4496.410256,4206.666666,4449.743589,3967.692308,4245.128205,4503.589743,4219.487179,4657.948717,4002.564102,4065.641025
59,4489.743589,4551.794871,4544.102564,4270.256410,4486.666666,4198.974358,4443.076923,3969.743590,4242.564102,4498.974358,4226.153846,4655.897435,4011.282051,4068.205128
60,4494.871794,4553.333333,4548.717948,4274.871794,4491.282051,4200.000000,4446.666666,3972.820513,4240.000000,4496.410256,4224.102564,4657.948717,4014.358974,4073.846153
61,4495.897435,4557.948717,4553.333333,4274.358974,4497.948717,4204.615384,4454.871794,3974.358975,4240.512820,4500.512820,4218.974358,4659.487179,4006.153846,4069.230769
62,4492.820512,4552.820512,4550.769230,4266.666666,4491.794871,4202.051282,4453.333333,3974.358975,4243.589743,4503.076923,4216.923076,4655.384615,4003.589743,4061.538461
63,4490.256410,4544.615384,4547.179487,4264.615384,4489.743589,4201.025641,4449.743589,3976.923077,4239.487179,4499.487179,4213.846153,4651.282051,4007.692307,4063.076923
64,4490.256410,4549.230769,4545.128205,4272.820512,4499.487179,4208.205128,4454.871794,3981.538462,4235.897435,4492.820512,4210.256410,4649.230769,4001.538461,4065.641025
65,4492.307692,4557.948717,4546.153846,4275.897435,4505.641025,4213.846153,4464.615384,3986.153847,4244.615384,4496.923076,4214.358974,4650.769230,4001.538461,4066.666666
66,4492.820512,4556.923076,4548.717948,4265.641025,4502.051282,4211.282051,4463.076923,3995.384616,4252.307692,4506.153846,4222.564102,4654.358974,4017.435897,4068.205128
67,4491.794871,4549.743589,4549.230769,4262.564102,4497.948717,4206.666666,4458.974358,4003.076923,4250.769230,4508.205128,4223.076923,4654.871794,4011.794871,4066.666666
68,4492.307692,4546.666666,4546.153846,4267.692307,4495.384615,4205.128205,4461.025641,4004.615384,4249.230769,4507.692307,4217.948717,4652.307692,3991.282052,4063.076923
69,4493.333333,4548.205128,4544.102564,4265.128205,4493.333333,4205.128205,4460.512820,4002.564102,4246.153846,4498.974358,4212.820512,4651.794871,3996.410257,4061.025641
70,4493.846153,4546.153846,4545.128205,4263.589743,4493.846153,4202.564102,4460.000000,4000.512820,4239.487179,4488.205128,4213.333333,4653.333333,4010.769230,4060.000000
71,4499.487179,4546.153846,4546.666666,4269.230769,4497.948717,4205.641025,4461.538461,4001.025641,4238.974358,4490.769230,4216.410256,4654.871794,4009.230769,4064.615384
72,4503.589743,4552.307692,4547.692307,4272.307692,4500.512820,4212.820512,4463.076923,4008.205128,4245.641025,4506.153846,4217.435897,4658.461538,4002.564102,4069.743589
73,4504.615384,4557.435897,4548.717948,4268.205128,4500.000000,4210.769230,4462.564102,4018.461538,4253.333333,4512.820512,4216.410256,4659.487179,4005.641025,4066.666666
74,4503.076923,4550.769230,4548.205128,4262.564102,4497.435897,4204.102564,4461.025641,4017.948717,4250.256410,4504.615384,4215.897435,4654.358974,4009.230769,4060.000000
75,4495.384615,4538.461538,4540.512820,4260.512820,4493.846153,4204.102564,4457.435897,4009.230769,4238.461538,4494.871794,4211.794871,4647.692307,3996.923077,4054.871794
76,4493.846153,4539.487179,4535.384615,4260.000000,4490.769230,4202.051282,4450.256410,4007.179487,4229.743589,4489.230769,4204.615384,4645.128205,3983.076924,4054.871794
77,4501.538461,4547.692307,4539.487179,4261.025641,4490.256410,4198.461538,4452.307692,4011.794871,4229.230769,4488.205128,4202.051282,4647.179487,3988.717949,4057.435897
78,4508.205128,4549.743589,4544.615384,4260.512820,4492.307692,4201.025641,4457.948717,4017.948717,4233.333333,4491.794871,4208.717948,4651.794871,3996.923077,4057.435897
79,4512.307692,4548.717948,4549.230769,4261.025641,4495.897435,4207.179487,4460.512820,4023.076923,4238.974358,4500.000000,4218.974358,4656.410256,3994.871795,4061.025641
80,4521.025641,4554.871794,4552.307692,4264.102564,4503.589743,4210.769230,4463.076923,4032.820512,4247.179487,4502.051282,4223.076923,4662.051282,3999.487180,4069.743589
81,4522.564102,4557.435897,4549.230769,4264.102564,4509.230769,4213.846153,4465.641025,4042.564102,4252.820512,4501.025641,4218.974358,4661.538461,4007.692307,4069.230769
82,4511.282051,4549.230769,4544.102564,4261.538461,4503.076923,4212.820512,4461.025641,4044.102564,4248.717948,4502.051282,4212.820512,4655.897435,4005.128205,4058.461538
83,4506.666666,4543.076923,4543.589743,4262.051282,4495.384615,4206.153846,4457.435897,4037.435897,4239.487179,4500.512820,4212.820512,4651.282051,3993.333334,4055.384615
84,4516.923076,4547.179487,4546.153846,4263.589743,4499.487179,4205.641025,4460.000000,4033.333333,4240.000000,4500.512820,4217.435897,4653.333333,3990.769231,4060.000000
85,4524.102564,4557.435897,4546.666666,4264.615384,4505.128205,4212.307692,4461.538461,4037.435897,4244.615384,4501.025641,4216.923076,4658.461538,3999.487180,4062.564102
86,4514.871794,4556.410256,4543.076923,4264.102564,4498.974358,4209.743589,4459.487179,4036.923076,4240.000000,4495.897435,4210.769230,4655.384615,4002.051282,4060.000000
87,4505.128205,4548.205128,4538.461538,4260.000000,4489.230769,4198.461538,4456.410256,4035.384615,4237.948717,4493.846153,4204.615384,4647.179487,3993.333334,4053.333333
88,4508.717948,4549.743589,4535.384615,4258.974358,4492.307692,4199.487179,4457.435897,4038.974358,4239.487179,4496.923076,4205.128205,4644.615384,3988.717949,4052.820512
89,4511.794871,4551.794871,4536.410256,4262.051282,4500.512820,4210.769230,4458.461538,4042.051282,4234.358974,4493.846153,4212.307692,4645.641025,3994.358975,4057.435897
90,4507.692307,4549.743589,4537.435897,4260.000000,4500.000000,4211.794871,4455.897435,4043.076923,4228.717948,4488.205128,4212.820512,4645.641025,3998.461539,4055.897435
91,4510.769230,4550.256410,4535.384615,4258.974358,4497.435897,4209.230769,4457.435897,4043.589743,4231.794871,4492.820512,4205.641025,4646.153846,3998.461539,4055.897435
92,4521.025641,4553.333333,4538.974358,4265.641025,4503.076923,4211.794871,4460.512820,4043.076923,4236.923076,4500.512820,4209.230769,4651.282051,4000.000000,4062.051282
93,4525.128205,4554.871794,4542.051282,4266.153846,4509.230769,4217.435897,4460.000000,4043.589743,4244.102564,4506.153846,4220.000000,4657.435897,4005.641025,4064.102564
94,4524.102564,4553.333333,4543.076923,4265.128205,4507.179487,4216.410256,4458.461538,4046.666666,4247.692307,4506.153846,4221.538461,4657.948717,4009.230769,4063.076923
95,4525.641025,4553.333333,4542.564102,4270.256410,4505.641025,4213.846153,4458.974358,4047.179487,4247.179487,4505.128205,4222.564102,4654.358974,4008.717948,4067.692307
96,4526.666666,4554.871794,4539.487179,4272.307692,4508.717948,4216.923076,4457.948717,4043.589743,4247.179487,4507.692307,4224.102564,4650.256410,4008.717948,4068.717948
97,4523.589743,4556.410256,4538.974358,4271.794871,4510.256410,4219.487179,4457.435897,4042.051282,4246.153846,4507.692307,4218.461538,4647.179487,4004.615384,4062.051282
98,4523.589743,4556.410256,4542.051282,4272.307692,4504.615384,4214.358974,4452.820512,4046.666666,4244.615384,4500.512820,4216.410256,4646.153846,3997.948718,4055.384615
99,4523.076923,4556.923076,4540.512820,4265.641025,4500.000000,4210.256410,4445.128205,4049.743589,4240.000000,4497.948717,4220.000000,4643.589743,3993.333334,4051.794871
100,4520.000000,4551.794871,4539.487179,4260.000000,4500.512820,4209.230769,4442.564102,4044.102564,4229.743589,4501.025641,4211.794871,4641.025641,3991.794872,4054.358974
101,4519.487179,4545.641025,4546.666666,4264.615384,4496.410256,4206.666666,4444.615384,4046.666666,4230.256410,4498.461538,4203.076923,4645.128205,3991.794872,4056.923076
102,4523.589743,4548.205128,4549.230769,4266.153846,4494.871794,4206.153846,4446.153846,4057.435897,4241.025641,4497.948717,4210.769230,4650.769230,3989.230770,4054.871794
103,4521.025641,4553.846153,4543.076923,4263.076923,4498.461538,4206.153846,4445.128205,4054.871794,4238.974358,4497.435897,4213.846153,4648.205128,3986.666667,4051.282051
104,4510.769230,4553.333333,4536.923076,4264.102564,4498.461538,4204.615384,4446.153846,4052.820512,4234.871794,4494.871794,4205.641025,4646.666666,3987.179488,4052.307692
105,4507.179487,4554.871794,4540.512820,4265.128205,4497.435897,4206.666666,4449.743589,4066.666666,4247.179487,4502.051282,4210.256410,4653.846153,3992.307693,4056.923076
106,4508.205128,4553.333333,4547.692307,4264.102564,4496.410256,4208.205128,4447.692307,4071.282051,4250.769230,4503.589743,4215.384615,4654.871794,3992.820513,4054.358974
107,4504.615384,4544.102564,4544.102564,4263.589743,4495.897435,4203.589743,4444.102564,4066.666666,4241.025641,4495.897435,4208.717948,4648.717948,3987.692308,4047.692307
108,4503.589743,4545.128205,4541.538461,4262.564102,4496.410256,4199.487179,4443.076923,4072.820512,4242.564102,4498.461538,4208.717948,4647.692307,3986.153847,4053.333333
109,4507.692307,4558.461538,4547.179487,4266.153846,4497.948717,4206.666666,4444.615384,4076.923076,4250.256410,4501.025641,4216.410256,4653.333333,3991.282052,4062.051282
110,4507.179487,4559.487179,4548.205128,4272.820512,4499.487179,4212.820512,4450.769230,4073.333333,4245.641025,4489.230769,4216.410256,4660.000000,3993.846154,4060.512820
111,4503.076923,4551.282051,4545.128205,4270.256410,4501.538461,4208.205128,4452.820512,4074.358974,4238.461538,4489.743589,4214.871794,4660.000000,3991.794872,4058.461538
112,4505.641025,4562.051282,4546.666666,4271.282051,4503.589743,4207.692307,4447.179487,4079.487179,4244.615384,4504.102564,4215.384615,4657.435897,4000.000000,4064.615384
113,4505.641025,4573.333333,4545.641025,4274.871794,4503.589743,4214.358974,4445.128205,4080.512820,4247.179487,4504.102564,4214.358974,4655.384615,4004.102564,4065.641025
114,4497.435897,4561.025641,4540.000000,4269.743589,4498.974358,4209.743589,4446.666666,4077.948717,4240.000000,4494.358974,4214.871794,4655.897435,3991.282052,4060.000000
115,4492.307692,4549.230769,4540.000000,4268.205128,4491.794871,4197.948717,4442.051282,4076.410256,4239.487179,4491.794871,4213.846153,4654.871794,3991.794872,4061.538461
116,4492.820512,4550.256410,4542.051282,4274.358974,4492.307692,4201.025641,4441.538461,4077.435897,4242.051282,4496.923076,4211.794871,4653.333333,4006.666666,4064.615384
117,4491.794871,4544.615384,4534.871794,4267.179487,4492.307692,4202.564102,4444.615384,4075.384615,4237.948717,4495.897435,4213.333333,4648.717948,4000.512820,4059.487179
118,4483.589743,4533.846153,4529.230769,4256.923076,4487.692307,4196.410256,4440.000000,4071.794871,4231.282051,4485.128205,4212.820512,4644.615384,3983.076924,4053.333333
119,4478.461538,4541.538461,4534.358974,4263.589743,4492.307692,4198.974358,4440.512820,4079.487179,4231.794871,4481.538461,4211.282051,4650.769230,3990.256411,4057.435897
120,4479.487179,4551.794871,4541.538461,4268.205128,4494.871794,4203.589743,4444.102564,4089.230769,4236.410256,4489.743589,4213.333333,4657.435897,4001.025641,4060.000000
121,4480.000000,4543.589743,4538.974358,4263.076923,4490.769230,4198.974358,4438.974358,4084.615384,4236.923076,4489.743589,4212.307692,4654.871794,3993.846154,4053.846153
122,4474.871794,4538.461538,4535.897435,4263.076923,4488.205128,4194.871794,4436.410256,4082.051282,4233.846153,4482.051282,4210.769230,4649.743589,3988.717949,4049.743589
123,4473.333333,4542.564102,4537.948717,4262.564102,4490.256410,4197.948717,4441.538461,4089.230769,4230.256410,4482.564102,4208.717948,4649.230769,3988.717949,4049.743589
124,4476.410256,4544.102564,4537.948717,4262.564102,4490.256410,4200.512820,4440.512820,4089.230769,4231.794871,4488.205128,4207.692307,4650.769230,3984.615385,4053.333333
125,4474.871794,4547.692307,4540.000000,4269.230769,4488.205128,4198.461538,4437.435897,4086.666666,4232.820512,4487.692307,4211.794871,4652.820512,3986.666667,4055.384615
126,4474.358974,4548.717948,4540.512820,4272.307692,4490.769230,4198.974358,4441.025641,4091.282051,4233.333333,4483.076923,4211.794871,4652.820512,3995.384616,4053.333333
127,4476.410256,4545.128205,4540.000000,4266.666666,4493.333333,4202.051282,4444.102564,4096.923076,4233.846153,4482.564102,4206.153846,4648.717948,3995.384616,4055.384615
128,4475.384615,4545.641025,4540.000000,4265.128205,4492.820512,4202.051282,4442.051282,4101.025641,4236.410256,4485.128205,4205.128205,4647.692307,3990.256411,4054.871794
129,4471.794871,4546.153846,4537.435897,4267.692307,4490.256410,4199.487179,4442.051282,4102.564102,4241.025641,4484.615384,4209.743589,4648.717948,3992.307693,4045.641025
130,4472.820512,4545.128205,4537.435897,4266.153846,4492.307692,4200.512820,4444.615384,4096.923076,4240.000000,4484.615384,4207.692307,4647.179487,3992.307693,4045.128205
131,4472.307692,4548.205128,4537.948717,4263.589743,4491.794871,4201.538461,4442.051282,4092.820512,4233.846153,4485.641025,4203.589743,4648.205128,3989.743590,4054.358974
132,4463.076923,4544.615384,4534.871794,4264.615384,4483.076923,4193.333333,4436.410256,4092.820512,4229.743589,4480.000000,4200.512820,4648.717948,3990.256411,4053.846153
133,4456.410256,4535.897435,4533.846153,4262.564102,4480.512820,4186.666666,4436.923076,4093.846153,4229.230769,4476.410256,4196.410256,4645.641025,3984.615385,4044.615384
134,4463.076923,4544.615384,4537.435897,4262.051282,4488.717948,4193.846153,4444.102564,4099.487179,4230.256410,4480.512820,4196.923076,4646.666666,3977.435898,4045.641025
135,4474.358974,4556.923076,4538.974358,4269.230769,4493.333333,4202.051282,4446.153846,4105.128205,4232.307692,4481.538461,4203.589743,4651.282051,3987.179488,4056.410256
136,4476.923076,4555.384615,4538.461538,4274.358974,4491.282051,4198.974358,4442.564102,4108.717948,4235.897435,4486.153846,4209.743589,4651.282051,4000.512820,4057.435897
137,4473.846153,4555.897435,4538.974358,4269.230769,4490.256410,4196.410256,4442.564102,4110.256410,4236.923076,4495.384615,4205.641025,4647.692307,3996.410257,4049.743589
138,4472.820512,4556.410256,4537.948717,4265.128205,4490.256410,4199.487179,4443.076923,4107.692307,4231.282051,4491.282051,4197.948717,4646.666666,3990.256411,4051.282051
139,4471.794871,4543.076923,4538.461538,4265.641025,4490.256410,4200.512820,4441.538461,4110.769230,4229.743589,4487.179487,4201.538461,4648.717948,3993.333334,4056.410256
140,4473.333333,4541.538461,4541.025641,4265.641025,4492.307692,4200.512820,4449.230769,4120.000000,4238.461538,4494.871794,4207.179487,4648.205128,3995.384616,4054.358974
141,4476.923076,4556.410256,4541.025641,4267.692307,4491.794871,4201.025641,4456.923076,4124.102564,4240.512820,4497.435897,4206.153846,4648.205128,3996.410257,4054.871794
142,4478.974358,4561.025641,4540.000000,4270.256410,4490.256410,4200.000000,4448.205128,4122.564102,4235.384615,4494.358974,4205.641025,4649.743589,3994.871795,4057.948717
143,4480.000000,4562.564102,4538.974358,4268.717948,4491.282051,4200.000000,4440.000000,4124.615384,4236.923076,4492.820512,4207.692307,4648.717948,3983.589744,4057.435897
144,4481.025641,4567.692307,4538.974358,4267.179487,4492.307692,4201.538461,4444.102564,4125.641025,4237.948717,4488.205128,4205.128205,4648.717948,3981.538462,4055.897435
145,4481.025641,4561.538461,4537.948717,4272.307692,4493.333333,4201.538461,4447.692307,4122.564102,4232.307692,4482.564102,4202.564102,4653.333333,3993.846154,4056.923076
146,4481.025641,4556.923076,4536.410256,4275.384615,4494.358974,4202.564102,4444.615384,4123.076923,4233.846153,4488.205128,4197.435897,4651.794871,3989.230770,4054.358974
147,4479.487179,4561.538461,4536.923076,4271.794871,4491.794871,4200.512820,4438.974358,4123.076923,4235.897435,4491.282051,4189.230769,4645.128205,3973.333334,4048.205128
148,4477.435897,4558.461538,4530.769230,4265.641025,4487.179487,4195.897435,4433.846153,4117.948717,4229.230769,4480.512820,4188.717948,4644.102564,3974.871795,4047.179487
149,4477.435897,4552.307692,4525.641025,4263.589743,4485.641025,4192.820512,4431.282051,4112.820512,4218.461538,4469.743589,4190.769230,4643.076923,3981.538462,4051.282051
150,4477.948717,4552.820512,4526.153846,4263.076923,4487.179487,4192.820512,4430.256410,4113.846153,4216.923076,4475.384615,4186.153846,4641.025641,3980.512821,4051.282051
151,4477.435897,4552.307692,4528.205128,4262.564102,4489.230769,4197.948717,4434.871794,4119.487179,4222.564102,4485.128205,4187.179487,4644.102564,3980.512821,4050.769230
152,4478.974358,4554.358974,4532.307692,4265.128205,4493.333333,4204.102564,4444.102564,4124.615384,4223.589743,4484.102564,4192.820512,4644.102564,3981.025642,4051.794871
153,4477.435897,4555.897435,4529.743589,4263.589743,4493.846153,4203.076923,4444.102564,4126.666666,4222.051282,4480.512820,4186.666666,4638.974358,3973.333334,4045.128205
154,4472.820512,4547.692307,4524.615384,4259.487179,4490.769230,4197.435897,4439.487179,4127.179487,4223.589743,4481.538461,4185.641025,4637.435897,3967.179488,4040.512820
155,4474.358974,4545.641025,4529.230769,4260.512820,4492.820512,4198.974358,4442.564102,4133.333333,4227.179487,4485.128205,4200.512820,4643.076923,3976.410257,4047.692307
156,4484.102564,4549.230769,4534.871794,4265.641025,4494.871794,4200.000000,4444.102564,4139.487179,4231.794871,4489.743589,4205.641025,4646.666666,3986.153847,4051.282051
157,4490.769230,4546.153846,4527.179487,4262.564102,4489.743589,4197.435897,4437.948717,4138.974358,4232.307692,4493.846153,4194.358974,4642.564102,3980.000000,4045.641025
158,4489.230769,4547.179487,4520.512820,4256.410256,4488.205128,4198.461538,4436.410256,4136.923076,4228.205128,4490.769230,4189.743589,4640.000000,3979.487180,4048.717948
159,4489.743589,4558.974358,4531.794871,4263.076923,4492.307692,4201.538461,4442.564102,4137.948717,4227.692307,4486.153846,4197.948717,4648.205128,3991.282052,4057.948717
160,4493.846153,4561.538461,4537.435897,4273.333333,4493.333333,4204.102564,4445.128205,4138.461538,4234.358974,4492.307692,4203.076923,4652.820512,3988.717949,4055.897435
161,4490.769230,4552.820512,4528.205128,4271.794871,4494.871794,4205.641025,4440.000000,4134.358974,4231.282051,4492.820512,4198.974358,4645.128205,3976.923077,4048.717948
162,4488.205128,4559.487179,4525.641025,4265.641025,4502.051282,4205.128205,4438.974358,4131.794871,4222.051282,4482.051282,4197.435897,4641.538461,3984.102565,4051.282051
163,4495.897435,4572.820512,4538.461538,4271.282051,4508.205128,4211.282051,4445.128205,4133.846153,4225.128205,4482.051282,4200.512820,4649.230769,3995.384616,4054.358974
164,4504.615384,4571.794871,4544.615384,4278.974358,4504.102564,4216.410256,4448.717948,4140.000000,4235.897435,4496.923076,4201.538461,4657.948717,3992.307693,4055.897435
165,4506.153846,4570.256410,4539.487179,4279.487179,4500.000000,4209.743589,4447.179487,4141.538461,4236.410256,4499.487179,4204.615384,4658.974358,3989.743590,4060.000000
166,4504.102564,4575.384615,4538.461538,4276.410256,4503.589743,4205.641025,4446.666666,4136.923076,4232.820512,4489.743589,4203.076923,4651.794871,3991.282052,4060.000000
167,4504.102564,4576.410256,4538.461538,4276.410256,4501.538461,4206.666666,4447.179487,4141.025641,4237.435897,4488.205128,4197.948717,4649.230769,3991.282052,4058.974358
168,4507.179487,4577.435897,4539.487179,4281.538461,4497.948717,4207.179487,4446.666666,4152.307692,4241.025641,4496.410256,4206.153846,4654.358974,3990.256411,4062.051282
169,4508.205128,4579.487179,4539.487179,4278.974358,4496.923076,4206.666666,4443.589743,4153.846153,4232.820512,4500.000000,4212.820512,4650.769230,3985.128206,4060.512820
170,4504.615384,4573.333333,4534.871794,4270.256410,4496.410256,4206.153846,4441.538461,4149.230769,4230.256410,4493.333333,4206.153846,4644.615384,3985.128206,4055.384615
171,4504.615384,4572.820512,4538.461538,4269.743589,4501.025641,4208.717948,4451.282051,4152.820512,4238.974358,4492.820512,4205.641025,4651.794871,3998.461539,4061.025641
172,4510.769230,4582.051282,4542.564102,4278.974358,4508.205128,4214.358974,4457.948717,4156.923076,4241.025641,4498.461538,4208.717948,4656.923076,4004.102564,4064.615384
173,4510.256410,4584.102564,4538.461538,4281.538461,4507.692307,4215.384615,4449.230769,4152.820512,4234.358974,4501.025641,4201.025641,4647.692307,3992.307693,4057.948717
174,4506.153846,4580.512820,4536.923076,4276.410256,4502.564102,4212.820512,4445.128205,4152.820512,4234.358974,4497.948717,4199.487179,4644.615384,3988.205129,4056.923076
175,4507.179487,4576.923076,4540.000000,4272.307692,4504.615384,4211.794871,4448.717948,4153.846153,4238.974358,4494.871794,4206.153846,4651.282051,3993.846154,4057.435897
176,4507.692307,4569.743589,4538.461538,4268.717948,4507.179487,4210.769230,4447.179487,4151.794871,4233.846153,4492.307692,4203.076923,4649.743589,3988.205129,4054.358974
177,4504.615384,4568.717948,4537.435897,4268.205128,4503.589743,4213.333333,4442.564102,4152.307692,4230.256410,4489.743589,4199.487179,4647.692307,3985.128206,4055.384615
178,4506.153846,4573.333333,4538.461538,4268.717948,4501.538461,4214.358974,4446.153846,4156.923076,4240.512820,4493.333333,4203.589743,4652.820512,3990.769231,4056.923076
179,4511.282051,4573.846153,4537.948717,4267.692307,4503.076923,4211.282051,4451.282051,4160.512820,4248.717948,4500.512820,4204.102564,4652.820512,3991.282052,4054.871794
180,4507.692307,4568.717948,4537.948717,4267.179487,4502.051282,4211.794871,4449.743589,4158.461538,4240.000000,4499.487179,4202.051282,4648.205128,3984.615385,4054.871794
181,4495.384615,4558.461538,4532.307692,4266.153846,4498.974358,4207.179487,4444.615384,4153.846153,4229.230769,4492.307692,4196.923076,4645.641025,3978.974359,4051.282051
182,4488.205128,4550.769230,4526.153846,4258.974358,4495.384615,4199.487179,4442.564102,4151.794871,4226.153846,4485.641025,4187.692307,4642.051282,3977.435898,4040.000000
183,4487.179487,4553.333333,4524.102564,4255.897435,4493.846153,4202.051282,4442.051282,4153.333333,4220.000000,4481.025641,4185.128205,4637.435897,3974.358975,4035.897435
184,4481.538461,4555.897435,4523.076923,4261.538461,4497.948717,4205.128205,4440.000000,4152.307692,4217.435897,4481.025641,4193.333333,4638.461538,3966.666667,4038.974358
185,4474.358974,4552.820512,4528.717948,4265.641025,4496.410256,4201.025641,4441.025641,4151.282051,4227.179487,4487.692307,4197.435897,4641.538461,3966.153847,4040.000000
186,4475.897435,4556.923076,4531.282051,4263.589743,4492.307692,4202.564102,4444.615384,4160.512820,4235.384615,4488.717948,4194.358974,4641.538461,3977.435898,4040.000000
187,4484.102564,4565.128205,4528.205128,4262.051282,4498.974358,4211.282051,4444.615384,4167.179487,4236.410256,4486.153846,4195.384615,4641.025641,3984.102565,4044.615384
188,4491.282051,4564.615384,4530.769230,4264.615384,4505.641025,4210.769230,4444.102564,4162.564102,4236.410256,4494.871794,4202.564102,4645.128205,3978.974359,4049.743589
189,4487.179487,4558.974358,4529.743589,4264.102564,4496.923076,4201.025641,4441.538461,4154.871794,4232.307692,4491.794871,4203.076923,4647.179487,3977.435898,4047.179487
190,4476.410256,4556.410256,4523.076923,4261.538461,4489.743589,4198.974358,4440.512820,4153.846153,4226.153846,4476.410256,4191.282051,4640.000000,3981.538462,4040.512820
191,4475.897435,4557.948717,4526.153846,4262.564102,4496.923076,4204.102564,4443.589743,4160.512820,4228.205128,4483.076923,4185.641025,4637.435897,3982.051283,4042.564102
192,4479.487179,4553.846153,4529.743589,4258.974358,4501.538461,4202.564102,4444.102564,4167.692307,4231.794871,4496.923076,4194.871794,4642.564102,3975.384616,4047.692307
193,4476.410256,4548.717948,4521.538461,4254.358974,4496.923076,4201.538461,4443.589743,4168.205128,4228.717948,4487.692307,4202.564102,4642.564102,3974.871795,4044.102564
194,4480.000000,4556.923076,4521.538461,4263.076923,4492.820512,4205.128205,4447.692307,4165.641025,4224.102564,4478.974358,4200.512820,4640.000000,3983.076924,4041.025641
195,4490.769230,4564.615384,4529.743589,4271.794871,4495.384615,4203.076923,4448.717948,4166.666666,4230.256410,4489.230769,4195.384615,4644.615384,3982.051283,4048.205128
196,4494.871794,4563.589743,4533.846153,4269.230769,4502.564102,4203.589743,4445.641025,4174.358974,4247.179487,4498.461538,4198.974358,4651.282051,3984.102565,4055.897435
197,4492.307692,4565.128205,4537.435897,4271.282051,4502.564102,4209.230769,4449.230769,4180.000000,4251.282051,4500.000000,4208.717948,4652.820512,3997.435898,4058.974358
198,4491.794871,4571.282051,4537.948717,4278.461538,4495.897435,4206.666666,4449.743589,4175.384615,4238.974358,4495.897435,4210.769230,4650.769230,4000.000000,4057.435897
199,4491.794871,4570.769230,4536.923076,4280.512820,4497.435897,4205.641025,4444.102564,4170.769230,4235.384615,4493.333333,4204.102564,4650.256410,3987.692308,4053.846153
200,4492.820512,4564.615384,4537.948717,4276.923076,4503.076923,4210.769230,4443.589743,4177.948717,4240.512820,4497.435897,4203.589743,4656.923076,3984.615385,4056.923076
201,4493.846153,4564.615384,4537.948717,4272.820512,4502.051282,4209.743589,4446.666666,4186.666666,4245.128205,4501.538461,4206.153846,4657.435897,3995.897436,4065.641025
202,4493.333333,4568.717948,4536.923076,4272.307692,4501.025641,4207.692307,4446.153846,4186.153846,4246.153846,4502.051282,4202.564102,4654.358974,4002.564102,4065.128205
203,4490.769230,4564.615384,4539.487179,4272.820512,4502.051282,4209.743589,4444.615384,4179.487179,4240.000000,4498.461538,4197.435897,4657.435897,4000.000000,4058.974358
204,4484.102564,4554.871794,4535.384615,4270.769230,4492.820512,4203.589743,4443.076923,4175.384615,4235.384615,4493.333333,4203.589743,4657.948717,3993.846154,4056.410256
205,4479.487179,4556.410256,4530.256410,4271.282051,4490.256410,4198.974358,4442.051282,4179.487179,4242.051282,4495.384615,4212.307692,4654.871794,3991.794872,4058.974358
206,4478.974358,4561.538461,4536.923076,4270.769230,4496.410256,4204.615384,4442.564102,4184.102564,4241.025641,4498.974358,4211.282051,4657.948717,4003.076923,4062.564102
207,4475.897435,4556.410256,4536.410256,4269.743589,4492.307692,4204.102564,4441.025641,4182.051282,4229.230769,4490.769230,4202.051282,4655.384615,4004.615384,4056.923076
208,4473.333333,4550.769230,4530.769230,4273.333333,4488.717948,4198.974358,4442.051282,4181.538461,4230.256410,4485.641025,4201.025641,4648.717948,3991.282052,4050.769230
209,4476.923076,4555.897435,4531.282051,4277.948717,4495.384615,4205.128205,4447.179487,4183.589743,4236.923076,4495.897435,4205.641025,4651.794871,3993.333334,4055.384615
210,4478.974358,4562.051282,4532.307692,4277.948717,4500.512820,4209.230769,4446.666666,4182.051282,4232.820512,4502.564102,4208.205128,4657.435897,4002.564102,4060.000000
211,4476.923076,4562.051282,4532.820512,4273.333333,4496.923076,4205.128205,4438.974358,4181.538461,4232.307692,4498.974358,4211.282051,4655.384615,3995.897436,4056.923076
212,4480.000000,4561.025641,4533.846153,4268.205128,4492.307692,4201.538461,4436.923076,4183.589743,4240.000000,4496.923076,4214.871794,4655.384615,3994.871795,4058.974358
213,4481.538461,4562.051282,4534.358974,4270.769230,4493.333333,4202.564102,4443.076923,4186.153846,4239.487179,4498.461538,4213.846153,4658.974358,4010.256410,4066.153846
214,4478.461538,4556.410256,4531.794871,4269.743589,4493.333333,4201.538461,4445.641025,4184.615384,4233.333333,4499.487179,4207.692307,4654.358974,4007.179487,4059.487179
215,4474.871794,4548.205128,4528.717948,4264.615384,4491.282051,4198.974358,4441.538461,4183.076923,4236.410256,4495.897435,4201.538461,4647.179487,3990.256411,4049.230769
216,4473.333333,4550.256410,4529.230769,4268.205128,4491.282051,4200.512820,4441.025641,4185.128205,4240.000000,4489.743589,4199.487179,4650.256410,3991.282052,4052.307692
217,4480.000000,4554.358974,4535.384615,4276.923076,4492.307692,4202.051282,4443.589743,4186.666666,4238.974358,4492.307692,4203.589743,4658.974358,4003.589743,4063.076923
218,4491.282051,4555.897435,4540.000000,4279.487179,4494.871794,4203.076923,4444.102564,4190.256410,4238.974358,4507.692307,4211.282051,4661.025641,4006.153846,4066.666666
219,4492.307692,4559.487179,4533.846153,4275.384615,4496.923076,4204.102564,4442.564102,4191.794871,4238.974358,4513.333333,4215.897435,4658.974358,3995.384616,4062.051282
220,4486.666666,4557.435897,4528.205128,4268.205128,4493.333333,4201.025641,4440.512820,4187.692307,4235.897435,4504.102564,4210.769230,4654.871794,3990.769231,4057.948717
221,4488.717948,4554.871794,4528.205128,4264.615384,4489.230769,4199.487179,4442.051282,4188.717948,4235.897435,4503.589743,4207.179487,4651.794871,4002.564102,4058.461538
222,4491.282051,4554.358974,4527.692307,4267.179487,4495.897435,4207.179487,4444.615384,4197.948717,4241.025641,4507.692307,4209.743589,4654.871794,4012.307692,4062.051282
223,4490.256410,4553.333333,4529.743589,4269.743589,4498.974358,4208.717948,4444.102564,4199.487179,4241.538461,4507.692307,4205.128205,4656.923076,4008.717948,4058.974358
224,4490.769230,4551.794871,4531.282051,4267.692307,4495.897435,4204.615384,4444.102564,4195.384615,4242.564102,4508.717948,4202.051282,4654.871794,4005.128205,4054.871794
225,4490.769230,4551.794871,4527.692307,4264.615384,4500.512820,4207.692307,4445.641025,4198.461538,4246.666666,4508.205128,4209.230769,4654.871794,4008.205128,4057.948717
226,4490.256410,4554.871794,4524.615384,4265.641025,4504.615384,4209.230769,4445.128205,4201.538461,4246.666666,4506.153846,4211.794871,4656.923076,4011.282051,4062.051282
227,4491.794871,4556.923076,4527.179487,4267.179487,4498.974358,4204.102564,4443.589743,4197.435897,4242.051282,4505.641025,4203.589743,4655.384615,4009.230769,4058.974358
228,4487.179487,4553.333333,4527.179487,4262.564102,4490.769230,4199.487179,4440.512820,4195.384615,4235.384615,4502.564102,4198.461538,4650.769230,3998.974359,4051.794871
229,4481.538461,4550.256410,4521.538461,4262.564102,4490.256410,4200.512820,4436.410256,4197.948717,4232.820512,4493.333333,4198.974358,4647.692307,3993.333334,4050.769230
230,4484.615384,4553.333333,4522.051282,4266.153846,4495.897435,4204.615384,4438.461538,4201.025641,4237.435897,4490.769230,4200.000000,4648.205128,4001.538461,4054.871794
231,4490.256410,4554.358974,4529.230769,4264.615384,4500.000000,4205.641025,4444.102564,4202.564102,4243.076923,4501.025641,4202.051282,4653.333333,4009.230769,4057.948717
232,4489.230769,4550.769230,4532.307692,4263.076923,4503.076923,4209.743589,4444.615384,4203.076923,4244.615384,4509.230769,4203.589743,4657.948717,4011.794871,4058.974358
233,4486.153846,4550.256410,4530.256410,4263.589743,4498.461538,4209.743589,4442.564102,4204.615384,4247.179487,4507.692307,4204.102564,4657.948717,4011.794871,4057.948717
234,4490.769230,4553.333333,4531.794871,4264.615384,4494.871794,4204.102564,4445.128205,4213.333333,4252.307692,4506.666666,4206.153846,4657.948717,4011.794871,4060.512820
235,4496.410256,4556.923076,4540.000000,4270.769230,4501.538461,4209.230769,4449.230769,4218.974358,4251.282051,4508.717948,4211.282051,4661.025641,4013.846153,4063.076923
236,4492.820512,4554.871794,4537.435897,4273.333333,4503.076923,4212.820512,4447.179487,4210.769230,4246.153846,4502.564102,4211.282051,4656.923076,4012.307692,4056.923076
237,4490.769230,4554.358974,4530.769230,4267.692307,4494.358974,4205.128205,4441.538461,4205.128205,4240.512820,4495.897435,4208.717948,4651.282051,4009.230769,4060.000000
238,4501.025641,4557.948717,4534.871794,4268.717948,4496.410256,4207.692307,4441.538461,4211.794871,4241.025641,4503.076923,4213.333333,4652.307692,4013.333333,4068.717948
239,4507.692307,4560.000000,4538.974358,4278.461538,4508.717948,4219.487179,4444.102564,4216.410256,4247.692307,4513.333333,4217.948717,4653.846153,4017.948717,4067.692307
240,4506.153846,4565.641025,4536.923076,4281.025641,4509.743589,4217.435897,4444.615384,4214.358974,4250.769230,4509.743589,4215.897435,4656.923076,4018.461538,4068.205128
241,4508.717948,4570.256410,4537.948717,4276.410256,4503.589743,4212.307692,4445.128205,4222.564102,4252.307692,4506.666666,4214.871794,4663.076923,4021.538461,4072.307692
242,4509.743589,4569.743589,4540.000000,4277.435897,4501.538461,4213.846153,4446.666666,4233.333333,4253.846153,4510.256410,4217.435897,4664.102564,4020.512820,4068.717948
243,4507.179487,4565.641025,4540.512820,4279.487179,4501.025641,4212.820512,4447.179487,4233.333333,4252.307692,4509.230769,4218.461538,4663.076923,4015.384615,4062.564102
244,4507.692307,4562.051282,4542.051282,4274.871794,4504.102564,4213.846153,4446.666666,4228.717948,4251.794871,4505.641025,4216.410256,4664.102564,4016.410256,4064.615384
245,4506.666666,4563.076923,4541.538461,4272.307692,4507.179487,4216.410256,4446.153846,4227.692307,4250.769230,4505.641025,4217.435897,4663.589743,4017.435897,4068.717948
246,4504.615384,4563.589743,4541.538461,4273.846153,4504.615384,4214.871794,4443.589743,4228.205128,4245.641025,4503.589743,4224.615384,4662.564102,4013.846153,4069.230769
247,4507.179487,4562.564102,4546.153846,4274.871794,4501.025641,4212.307692,4444.615384,4229.230769,4248.717948,4503.589743,4226.153846,4665.641025,4015.384615,4067.692307
248,4508.717948,4566.666666,4548.205128,4276.410256,4503.076923,4214.871794,4454.871794,4236.923076,4261.538461,4515.384615,4218.974358,4668.205128,4022.564102,4070.769230
249,4508.205128,4569.743589,4545.128205,4276.410256,4508.205128,4217.948717,4458.974358,4244.615384,4263.589743,4517.948717,4215.384615,4665.641025,4025.128205,4074.358974
250,4507.179487,4562.564102,4542.051282,4270.769230,4507.179487,4217.948717,4452.307692,4241.538461,4255.384615,4509.230769,4221.025641,4660.000000,4018.461538,4069.743589
251,4508.717948,4560.512820,4546.666666,4270.769230,4505.128205,4219.487179,4452.307692,4241.538461,4257.435897,4511.794871,4229.230769,4662.564102,4018.461538,4070.769230
252,4511.794871,4573.846153,4552.307692,4278.974358,4509.743589,4221.025641,4461.538461,4248.205128,4268.717948,4516.923076,4229.743589,4668.717948,4027.179487,4080.512820
253,4508.717948,4571.282051,4545.128205,4279.487179,4510.256410,4218.461538,4458.461538,4240.000000,4263.076923,4506.153846,4215.384615,4662.051282,4020.512820,4074.358974
254,4503.076923,4555.384615,4540.000000,4276.923076,4504.102564,4214.871794,4447.692307,4229.743589,4250.256410,4497.435897,4208.205128,4653.333333,4009.230769,4063.076923
255,4506.153846,4560.000000,4546.153846,4280.000000,4505.641025,4220.000000,4450.256410,4237.435897,4255.384615,4510.769230,4223.076923,4659.487179,4016.410256,4071.282051
256,4511.794871,4570.769230,4549.230769,4281.025641,4513.333333,4227.692307,4458.461538,4242.051282,4264.102564,4518.461538,4231.282051,4666.153846,4027.692307,4081.025641
257,4509.743589,4561.538461,4548.205128,4278.974358,4512.307692,4223.076923,4460.000000,4238.461538,4265.641025,4516.923076,4229.743589,4665.641025,4037.948717,4081.538461
258,4508.205128,4553.333333,4550.256410,4277.948717,4505.641025,4214.871794,4457.948717,4236.923076,4265.641025,4519.487179,4238.461538,4668.717948,4048.205128,4086.153846
259,4510.769230,4560.512820,4550.769230,4280.000000,4505.128205,4215.897435,4458.461538,4234.871794,4260.000000,4518.461538,4245.128205,4671.794871,4045.128205,4089.743589
