,AF3,F7,F3,FC5,T7,P7,O1,O2,P8,T8,FC6,F4,F8,AF4
0,4402.051282,4534.871794,4539.487179,4288.205128,4508.717948,4217.435897,4445.128205,4216.410256,4234.871794,4512.307692,4198.974358,4663.589743,4004.102564,4041.025641
1,4403.076923,4532.307692,4537.435897,4287.179487,4506.153846,4221.538461,4445.128205,4205.641025,4235.897435,4515.384615,4209.230769,4663.589743,4007.179487,4041.538461
2,4399.487179,4515.384615,4533.333333,4285.128205,4501.538461,4218.974358,4444.615384,4200.000000,4229.743589,4501.025641,4208.717948,4662.564102,4009.230769,4034.358974
3,4403.076923,4525.641025,4535.384615,4283.589743,4501.025641,4219.487179,4444.615384,4205.128205,4225.641025,4502.051282,4202.564102,4665.128205,4011.794871,4037.948717
4,4406.666666,4541.538461,4539.487179,4280.512820,4503.589743,4217.948717,4443.589743,4204.615384,4226.153846,4507.179487,4205.641025,4665.641025,4012.307692,4045.641025
5,4405.128205,4529.743589,4538.974358,4277.435897,4502.564102,4213.333333,4438.974358,4197.435897,4224.102564,4503.076923,4207.692307,4664.615384,4008.717948,4042.564102
6,4413.846153,4525.641025,4541.538461,4286.153846,4498.974358,4216.410256,4440.000000,4206.153846,4233.333333,4514.358974,4210.769230,4672.307692,4007.692307,4044.615384
7,4418.461538,4535.897435,4545.128205,4295.384615,4501.538461,4220.000000,4445.128205,4216.923076,4243.589743,4525.641025,4215.384615,4680.000000,4009.743589,4052.820512
8,4411.282051,4533.333333,4539.487179,4289.743589,4506.153846,4216.923076,4444.615384,4209.230769,4231.282051,4511.794871,4211.794871,4675.384615,4014.358974,4049.230769
9,4410.256410,4532.307692,4537.948717,4285.128205,4505.128205,4220.512820,4445.128205,4205.641025,4220.000000,4497.948717,4205.641025,4671.794871,4015.897435,4044.615384
10,4413.846153,4538.974358,4542.051282,4292.307692,4507.179487,4225.641025,4451.282051,4214.358974,4230.256410,4505.641025,4215.897435,4676.410256,4014.358974,4048.717948
11,4412.820512,4535.384615,4536.923076,4289.230769,4510.769230,4222.564102,4451.282051,4213.846153,4238.461538,4509.743589,4223.076923,4674.871794,4012.307692,4047.692307
12,4410.256410,4530.256410,4528.205128,4276.410256,4507.179487,4216.923076,4444.102564,4206.666666,4230.769230,4508.205128,4207.692307,4666.153846,4009.743589,4041.538461
13,4412.820512,4537.948717,4534.871794,4280.512820,4503.076923,4218.974358,4444.102564,4212.307692,4231.794871,4523.076923,4202.564102,4668.717948,4015.897435,4049.230769
14,4415.897435,4541.538461,4541.025641,4293.846153,4506.153846,4224.615384,4447.179487,4220.512820,4240.000000,4530.256410,4215.384615,4675.897435,4025.128205,4056.410256
15,4410.769230,4531.282051,4527.692307,4289.230769,4508.205128,4223.076923,4445.128205,4214.358974,4237.948717,4508.717948,4221.025641,4667.692307,4014.358974,4044.615384
16,4399.487179,4520.512820,4517.948717,4280.512820,4505.641025,4217.948717,4445.128205,4209.743589,4230.256410,4491.282051,4213.333333,4654.358974,3998.461539,4031.794871
17,4394.871794,4519.487179,4521.538461,4277.435897,4504.615384,4216.923076,4446.666666,4213.333333,4228.205128,4500.512820,4203.589743,4653.333333,4002.051282,4029.230769
18,4401.025641,4524.615384,4524.102564,4274.871794,4502.564102,4217.435897,4444.615384,4212.307692,4231.282051,4512.307692,4197.435897,4661.025641,4008.717948,4031.794871
19,4404.615384,4525.641025,4523.076923,4274.871794,4500.512820,4215.384615,4443.076923,4204.102564,4228.717948,4506.153846,4206.153846,4663.589743,4001.025641,4037.435897
20,4402.051282,4523.076923,4525.641025,4276.923076,4498.461538,4213.846153,4442.051282,4201.538461,4225.128205,4496.923076,4213.846153,4662.564102,4001.025641,4043.076923
21,4401.025641,4523.076923,4531.282051,4277.435897,4499.487179,4213.846153,4442.051282,4207.692307,4231.282051,4503.076923,4207.179487,4664.615384,4014.871794,4044.102564
22,4404.102564,4530.769230,4539.487179,4279.487179,4504.615384,4216.923076,4446.153846,4217.435897,4246.153846,4518.461538,4213.333333,4668.717948,4019.487179,4043.589743
23,4406.666666,4529.743589,4540.512820,4275.897435,4509.230769,4220.512820,4448.205128,4220.000000,4249.743589,4522.564102,4228.717948,4670.769230,4010.256410,4044.615384
24,4398.461538,4509.230769,4526.666666,4263.589743,4505.641025,4215.897435,4443.589743,4208.205128,4235.384615,4508.205128,4222.051282,4664.615384,4001.538461,4038.461538
25,4391.794871,4502.564102,4521.538461,4264.102564,4494.871794,4211.794871,4442.051282,4202.051282,4226.666666,4501.025641,4204.102564,4661.025641,4004.102564,4032.820512
26,4400.512820,4521.538461,4533.846153,4278.461538,4492.820512,4216.923076,4447.692307,4213.333333,4234.871794,4510.769230,4209.230769,4668.205128,4013.846153,4038.974358
27,4406.666666,4528.717948,4533.846153,4281.538461,4502.051282,4218.461538,4449.230769,4217.948717,4235.384615,4507.179487,4220.000000,4667.179487,4006.666666,4038.974358
28,4394.358974,4517.948717,4520.512820,4270.769230,4508.205128,4211.794871,4444.102564,4203.589743,4221.025641,4490.256410,4200.000000,4649.743589,3989.743590,4022.051282
29,4392.820512,4518.974358,4517.948717,4269.743589,4505.128205,4217.435897,4441.025641,4190.769230,4215.384615,4491.794871,4184.615384,4641.025641,3989.230770,4017.948717
30,4409.743589,4529.743589,4530.256410,4281.025641,4504.615384,4228.205128,4446.666666,4196.410256,4224.615384,4503.589743,4202.051282,4655.384615,4001.025641,4039.487179
31,4416.923076,4536.923076,4537.948717,4287.179487,4509.743589,4226.153846,4455.384615,4209.230769,4234.871794,4509.230769,4217.948717,4667.692307,4009.230769,4049.230769
32,4413.846153,4542.051282,4538.461538,4290.256410,4515.897435,4226.666666,4457.435897,4217.435897,4246.666666,4518.461538,4214.871794,4668.205128,4012.307692,4042.051282
33,4416.923076,4544.615384,4541.538461,4297.948717,4515.384615,4233.333333,4457.948717,4220.000000,4248.717948,4516.923076,4217.948717,4672.820512,4010.256410,4045.641025
34,4413.846153,4538.461538,4538.461538,4291.282051,4514.871794,4224.615384,4454.358974,4212.820512,4227.179487,4493.846153,4210.256410,4669.230769,3998.974359,4045.641025
35,4395.384615,4527.692307,4525.641025,4268.205128,4515.897435,4210.256410,4445.128205,4200.512820,4209.230769,4482.051282,4186.153846,4646.666666,3984.615385,4026.153846
36,4384.615384,4521.538461,4515.897435,4259.487179,4502.051282,4211.794871,4438.974358,4197.948717,4214.871794,4486.666666,4178.974358,4635.897435,3974.358975,4015.384615
37,4388.205128,4521.538461,4520.000000,4268.205128,4489.743589,4214.871794,4442.051282,4201.538461,4218.461538,4483.589743,4189.230769,4644.615384,3973.846154,4018.974358
38,4390.256410,4523.076923,4523.589743,4276.923076,4497.948717,4212.820512,4443.076923,4197.948717,4214.358974,4482.051282,4197.948717,4648.717948,3978.974359,4017.948717
39,4390.769230,4524.615384,4522.051282,4280.512820,4504.102564,4214.871794,4443.076923,4200.000000,4223.589743,4495.897435,4199.487179,4648.205128,3985.128206,4021.025641
40,4396.410256,4525.641025,4522.564102,4275.897435,4498.974358,4216.410256,4446.666666,4214.358974,4233.846153,4503.076923,4200.512820,4652.820512,3996.923077,4030.256410
41,4395.897435,4523.589743,4523.589743,4267.692307,4505.128205,4217.435897,4447.692307,4215.897435,4230.769230,4496.410256,4196.410256,4652.307692,3997.948718,4027.179487
42,4389.743589,4520.000000,4518.974358,4264.615384,4508.717948,4219.487179,4446.153846,4205.641025,4224.102564,4493.846153,4184.615384,4645.128205,3978.461539,4018.974358
43,4387.179487,4516.923076,4512.820512,4262.564102,4495.384615,4213.333333,4442.564102,4197.948717,4217.948717,4488.717948,4178.461538,4638.461538,3966.666667,4018.461538
44,4386.153846,4513.846153,4515.384615,4262.051282,4489.230769,4203.589743,4439.487179,4194.358974,4211.282051,4476.923076,4183.589743,4636.410256,3971.282052,4016.410256
45,4388.717948,4516.410256,4521.538461,4267.692307,4488.205128,4206.153846,4439.487179,4195.897435,4212.820512,4480.000000,4190.769230,4641.025641,3972.820513,4011.282051
46,4395.897435,4527.179487,4522.051282,4269.743589,4489.230769,4215.897435,4443.076923,4200.000000,4217.948717,4490.769230,4191.794871,4645.128205,3977.948718,4016.410256
47,4398.461538,4530.256410,4521.538461,4271.282051,4501.025641,4218.461538,4442.564102,4193.333333,4214.871794,4486.666666,4192.307692,4646.153846,3989.230770,4025.641025
48,4396.410256,4524.102564,4524.102564,4275.384615,4504.615384,4211.282051,4437.435897,4182.564102,4209.743589,4482.564102,4196.410256,4646.666666,3990.769231,4026.666666
49,4395.897435,4521.025641,4523.076923,4269.743589,4494.358974,4204.615384,4433.846153,4185.128205,4212.820512,4490.256410,4203.076923,4649.230769,3984.615385,4023.076923
50,4392.820512,4522.051282,4521.538461,4262.564102,4497.435897,4204.102564,4433.333333,4194.358974,4216.923076,4492.820512,4200.512820,4652.307692,3981.025642,4019.487179
51,4390.769230,4518.461538,4523.589743,4265.128205,4505.641025,4204.615384,4432.307692,4198.461538,4218.461538,4484.102564,4188.717948,4649.743589,3975.384616,4015.897435
52,4389.230769,4515.384615,4518.461538,4264.615384,4496.410256,4202.564102,4430.769230,4198.461538,4217.948717,4478.461538,4186.666666,4642.564102,3972.820513,4010.769230
53,4385.641025,4518.974358,4511.282051,4258.974358,4487.179487,4203.076923,4435.897435,4198.461538,4216.923076,4483.076923,4192.820512,4641.538461,3976.923077,4011.282051
54,4389.743589,4522.051282,4515.897435,4262.051282,4493.333333,4211.282051,4442.564102,4205.128205,4218.974358,4487.179487,4195.384615,4647.179487,3976.410257,4018.461538
55,4397.948717,4521.025641,4522.051282,4270.769230,4501.025641,4216.923076,4444.615384,4212.820512,4225.641025,4487.179487,4201.025641,4649.743589,3974.358975,4021.538461
56,4397.435897,4520.512820,4523.076923,4271.794871,4501.538461,4217.948717,4450.256410,4215.384615,4226.666666,4488.717948,4202.564102,4648.205128,3980.512821,4017.435897
57,4395.897435,4526.153846,4526.666666,4267.692307,4501.025641,4218.974358,4460.000000,4221.025641,4227.179487,4496.410256,4192.820512,4651.282051,3988.717949,4019.487179
58,4400.000000,4526.666666,4532.307692,4268.205128,4502.051282,4218.974358,4462.564102,4228.717948,4236.923076,4501.538461,4191.794871,4655.897435,3988.205129,4025.128205
59,4395.384615,4512.307692,4527.692307,4265.641025,4500.512820,4216.410256,4454.358974,4223.076923,4234.871794,4493.846153,4202.564102,4647.692307,3981.025642,4023.076923
60,4390.769230,4509.743589,4523.076923,4260.000000,4491.282051,4215.897435,4454.358974,4215.384615,4226.666666,4490.769230,4204.102564,4645.641025,3973.846154,4018.461538
61,4396.410256,4519.487179,4531.282051,4263.589743,4490.769230,4218.974358,4456.923076,4218.461538,4232.307692,4491.282051,4201.025641,4653.333333,3972.307693,4019.487179
62,4394.871794,4517.948717,4533.333333,4263.076923,4496.410256,4216.923076,4448.205128,4218.461538,4233.333333,4487.179487,4198.974358,4648.205128,3974.871795,4020.000000
63,4395.897435,4515.897435,4530.256410,4261.538461,4488.717948,4212.820512,4443.076923,4214.358974,4228.205128,4494.358974,4204.615384,4647.179487,3980.000000,4024.102564
64,4410.256410,4526.153846,4538.461538,4273.333333,4491.282051,4214.871794,4447.179487,4215.384615,4235.897435,4506.153846,4209.230769,4662.564102,3991.794872,4034.358974
65,4408.205128,4526.666666,4537.948717,4275.384615,4504.615384,4215.384615,4444.615384,4206.666666,4230.769230,4495.897435,4195.897435,4658.974358,3990.769231,4029.230769
66,4388.205128,4516.410256,4521.025641,4260.000000,4496.410256,4209.230769,4437.948717,4194.871794,4211.282051,4482.564102,4178.974358,4637.948717,3967.692308,4009.230769
67,4388.205128,4517.435897,4523.076923,4261.538461,4486.153846,4208.205128,4442.564102,4200.000000,4215.897435,4492.307692,4189.743589,4640.000000,3958.461539,4009.230769
68,4405.128205,4525.128205,4540.000000,4278.461538,4500.000000,4215.897435,4447.692307,4212.307692,4233.846153,4496.410256,4208.717948,4656.923076,3980.000000,4028.205128
69,4411.794871,4531.282051,4541.025641,4280.512820,4510.256410,4218.974358,4446.153846,4218.461538,4236.923076,4492.307692,4209.230769,4664.615384,3998.974359,4040.000000
70,4405.641025,4528.717948,4533.846153,4273.846153,4502.564102,4213.846153,4444.102564,4218.461538,4238.461538,4500.000000,4209.230769,4660.000000,3993.333334,4033.846153
71,4398.461538,4520.000000,4531.282051,4271.282051,4494.871794,4210.769230,4438.461538,4213.333333,4242.051282,4510.769230,4213.846153,4652.820512,3978.461539,4021.025641
72,4405.641025,4528.205128,4536.410256,4275.897435,4494.871794,4215.897435,4443.076923,4219.487179,4241.025641,4514.871794,4214.358974,4658.461538,3984.102565,4022.564102
73,4416.923076,4537.948717,4543.076923,4280.512820,4502.051282,4219.487179,4455.384615,4229.743589,4241.538461,4508.205128,4212.820512,4668.205128,3998.461539,4036.923076
74,4409.230769,4528.205128,4542.051282,4272.820512,4499.487179,4216.410256,4451.794871,4224.615384,4238.461538,4502.051282,4211.794871,4663.589743,3993.333334,4037.435897
75,4403.589743,4525.128205,4544.615384,4271.794871,4493.846153,4215.897435,4447.692307,4222.564102,4240.000000,4508.205128,4215.897435,4658.974358,3989.230770,4033.846153
76,4408.205128,4530.256410,4548.717948,4276.923076,4498.461538,4218.461538,4455.384615,4230.769230,4246.153846,4508.717948,4218.974358,4664.102564,3991.794872,4037.435897
77,4400.000000,4516.410256,4541.025641,4272.307692,4500.000000,4217.435897,4451.282051,4224.615384,4241.538461,4495.897435,4211.794871,4662.564102,3983.076924,4028.205128
78,4388.205128,4503.076923,4533.846153,4264.102564,4494.871794,4213.846153,4440.512820,4213.846153,4230.769230,4497.435897,4203.589743,4653.333333,3976.923077,4018.974358
79,4393.846153,4506.666666,4539.487179,4266.666666,4496.410256,4212.307692,4442.564102,4217.435897,4232.307692,4506.666666,4206.153846,4653.846153,3982.051283,4026.666666
80,4397.948717,4512.307692,4537.948717,4267.692307,4496.410256,4212.820512,4444.615384,4220.000000,4236.923076,4501.025641,4207.179487,4656.923076,3980.000000,4026.153846
81,4389.230769,4514.358974,4528.717948,4262.564102,4488.205128,4215.897435,4441.538461,4214.358974,4230.769230,4495.897435,4200.000000,4652.307692,3972.307693,4016.410256
82,4386.666666,4513.846153,4528.205128,4263.589743,4489.743589,4216.410256,4444.102564,4213.333333,4224.102564,4493.846153,4196.923076,4649.230769,3971.282052,4015.897435
83,4395.384615,4514.871794,4533.846153,4264.615384,4500.512820,4216.923076,4445.128205,4214.871794,4224.615384,4493.333333,4198.974358,4654.358974,3976.410257,4021.538461
84,4400.000000,4523.076923,4537.435897,4263.076923,4507.179487,4219.487179,4445.128205,4217.948717,4230.256410,4498.974358,4200.512820,4654.358974,3984.102565,4025.641025
85,4397.948717,4527.692307,4533.333333,4268.205128,4507.179487,4220.512820,4446.666666,4219.487179,4229.743589,4505.128205,4201.538461,4647.179487,3983.589744,4025.128205
86,4396.410256,4520.512820,4529.230769,4272.820512,4506.153846,4217.435897,4443.076923,4214.871794,4225.128205,4503.589743,4200.512820,4644.615384,3980.512821,4020.000000
87,4398.974358,4520.000000,4533.333333,4268.717948,4507.179487,4217.948717,4440.512820,4213.846153,4231.282051,4501.538461,4204.102564,4650.256410,3988.205129,4020.512820
88,4398.974358,4525.128205,4536.923076,4264.615384,4503.589743,4220.000000,4443.076923,4218.974358,4236.410256,4510.256410,4212.307692,4651.282051,3992.820513,4024.615384
89,4395.384615,4520.512820,4533.846153,4266.153846,4500.512820,4218.974358,4443.076923,4218.461538,4232.820512,4515.384615,4211.794871,4646.153846,3995.897436,4026.153846
90,4398.461538,4523.589743,4534.358974,4271.794871,4504.615384,4217.948717,4442.564102,4217.948717,4234.358974,4512.820512,4208.717948,4648.205128,4006.666666,4034.871794
91,4403.076923,4533.333333,4540.512820,4276.923076,4508.717948,4217.948717,4445.641025,4226.666666,4240.512820,4514.358974,4214.871794,4654.871794,4005.641025,4040.512820
92,4398.461538,4527.179487,4540.000000,4273.333333,4503.589743,4217.948717,4445.641025,4224.615384,4238.974358,4515.897435,4212.820512,4649.743589,3991.794872,4026.666666
93,4387.692307,4514.871794,4532.820512,4264.102564,4496.923076,4216.923076,4441.538461,4214.358974,4231.794871,4512.307692,4198.461538,4637.948717,3989.743590,4011.794871
94,4387.692307,4514.871794,4532.820512,4263.076923,4502.564102,4215.384615,4443.076923,4221.025641,4232.307692,4520.000000,4195.384615,4643.076923,3995.384616,4016.410256
95,4394.871794,4514.871794,4539.487179,4267.692307,4511.282051,4216.923076,4447.692307,4228.205128,4235.897435,4526.666666,4203.589743,4651.794871,3997.435898,4024.615384
96,4393.333333,4513.846153,4536.410256,4263.589743,4507.692307,4217.948717,4444.615384,4217.435897,4231.282051,4509.230769,4202.051282,4644.615384,3997.948718,4022.564102
97,4387.692307,4521.025641,4528.717948,4258.974358,4497.948717,4212.307692,4441.538461,4211.282051,4222.051282,4501.538461,4200.000000,4638.461538,3993.333334,4018.974358
98,4388.205128,4523.589743,4533.846153,4267.692307,4498.461538,4209.230769,4441.538461,4217.435897,4225.641025,4517.435897,4200.512820,4642.564102,3992.307693,4019.487179
99,4394.358974,4519.487179,4542.564102,4277.948717,4502.051282,4212.307692,4443.076923,4218.461538,4234.358974,4521.025641,4200.000000,4649.743589,3999.487180,4021.025641
100,4395.897435,4522.564102,4538.461538,4273.333333,4498.461538,4215.897435,4444.615384,4211.794871,4229.743589,4511.794871,4205.128205,4649.743589,3998.974359,4023.076923
101,4387.179487,4522.564102,4527.692307,4261.025641,4496.410256,4212.820512,4440.000000,4203.589743,4216.923076,4504.615384,4196.410256,4641.025641,3989.230770,4018.974358
102,4377.948717,4515.384615,4523.076923,4262.051282,4496.923076,4203.076923,4430.256410,4200.000000,4210.769230,4496.923076,4178.974358,4635.897435,3982.564103,4010.769230
103,4379.487179,4514.358974,4526.666666,4267.179487,4492.307692,4199.487179,4428.717948,4201.025641,4209.230769,4489.230769,4184.615384,4641.538461,3981.025642,4009.230769
104,4383.076923,4519.487179,4528.717948,4264.615384,4488.717948,4202.051282,4430.769230,4198.461538,4211.282051,4496.923076,4195.384615,4645.128205,3982.564103,4011.794871
105,4382.051282,4522.051282,4522.564102,4263.076923,4492.820512,4203.076923,4431.282051,4198.974358,4217.435897,4511.794871,4193.333333,4644.615384,3989.230770,4014.358974
106,4382.564102,4521.025641,4522.051282,4265.128205,4493.333333,4210.256410,4435.897435,4202.564102,4218.461538,4509.230769,4196.410256,4645.128205,3991.282052,4019.487179
107,4383.589743,4520.000000,4525.641025,4264.102564,4488.205128,4214.871794,4442.051282,4200.512820,4215.384615,4500.512820,4196.923076,4641.025641,3984.615385,4021.025641
108,4378.461538,4512.820512,4523.589743,4265.128205,4489.743589,4208.205128,4443.076923,4203.589743,4219.487179,4504.102564,4186.153846,4637.948717,3983.076924,4017.435897
109,4373.846153,4503.589743,4523.589743,4266.153846,4494.871794,4206.153846,4436.923076,4213.846153,4225.641025,4508.205128,4187.692307,4642.564102,3986.666667,4011.794871
110,4376.410256,4508.717948,4525.128205,4254.871794,4496.410256,4206.666666,4431.794871,4209.230769,4224.102564,4502.051282,4195.384615,4645.128205,3984.102565,4008.717948
111,4382.564102,4522.564102,4524.615384,4251.794871,4491.282051,4207.179487,4437.435897,4205.128205,4224.615384,4508.205128,4194.871794,4643.076923,3981.538462,4014.871794
112,4385.128205,4524.102564,4525.128205,4266.153846,4489.230769,4211.282051,4444.615384,4211.282051,4229.743589,4522.564102,4197.948717,4643.076923,3982.564103,4023.076923
113,4382.564102,4513.333333,4526.153846,4267.692307,4491.794871,4208.717948,4439.487179,4208.205128,4223.076923,4508.717948,4194.358974,4642.564102,3984.615385,4018.974358
114,4375.897435,4506.153846,4521.025641,4256.923076,4491.794871,4198.974358,4428.205128,4195.897435,4210.256410,4486.153846,4184.102564,4637.435897,3982.564103,4007.692307
115,4372.307692,4505.641025,4520.512820,4256.410256,4487.692307,4196.923076,4424.102564,4194.871794,4211.282051,4497.435897,4186.153846,4634.871794,3973.846154,4004.615384
116,4383.076923,4513.333333,4532.307692,4267.692307,4484.102564,4206.153846,4431.794871,4204.615384,4222.051282,4514.871794,4199.487179,4643.589743,3974.358975,4014.358974
117,4401.025641,4526.666666,4543.589743,4277.435897,4489.743589,4213.846153,4444.615384,4212.820512,4227.692307,4509.230769,4210.769230,4657.948717,3995.897436,4034.358974
118,4400.512820,4528.717948,4542.051282,4273.846153,4496.410256,4208.205128,4444.102564,4217.948717,4231.794871,4503.589743,4210.769230,4657.948717,4003.076923,4037.435897
119,4389.230769,4517.948717,4532.820512,4262.051282,4491.794871,4196.923076,4439.487179,4214.871794,4231.794871,4509.230769,4202.564102,4647.179487,3983.589744,4019.487179
120,4389.743589,4515.897435,4531.282051,4262.564102,4488.717948,4201.538461,4444.615384,4208.717948,4223.589743,4510.769230,4193.846153,4644.615384,3976.923077,4015.897435
121,4392.307692,4521.025641,4530.769230,4267.179487,4492.820512,4206.666666,4438.461538,4201.538461,4214.358974,4506.666666,4189.743589,4646.153846,3985.641026,4023.589743
122,4391.282051,4520.512820,4525.128205,4261.025641,4492.820512,4198.461538,4425.641025,4194.871794,4213.846153,4503.589743,4193.846153,4646.153846,3989.230770,4023.076923
123,4396.923076,4522.564102,4530.256410,4262.051282,4489.230769,4200.000000,4432.820512,4201.025641,4217.435897,4504.615384,4204.615384,4650.769230,3992.820513,4029.230769
124,4402.564102,4533.333333,4537.435897,4275.897435,4491.794871,4213.333333,4445.128205,4212.307692,4223.589743,4508.205128,4209.230769,4656.923076,3994.358975,4039.487179
125,4396.410256,4533.333333,4535.384615,4275.384615,4494.871794,4212.307692,4443.076923,4208.205128,4226.666666,4514.871794,4197.435897,4655.384615,3990.769231,4030.256410
126,4392.307692,4521.538461,4528.717948,4266.666666,4491.282051,4205.641025,4440.000000,4202.564102,4226.666666,4521.538461,4191.794871,4651.794871,3990.256411,4018.461538
127,4396.923076,4523.076923,4531.282051,4272.307692,4489.230769,4212.307692,4444.102564,4212.820512,4230.256410,4517.948717,4206.666666,4655.897435,3994.358975,4025.641025
128,4397.948717,4531.282051,4535.897435,4272.820512,4492.820512,4216.923076,4446.153846,4217.435897,4230.256410,4507.179487,4215.897435,4657.435897,3993.846154,4031.282051
129,4394.871794,4526.153846,4533.333333,4261.538461,4494.871794,4210.769230,4443.589743,4208.717948,4223.076923,4499.487179,4204.102564,4652.307692,3986.666667,4028.717948
130,4393.846153,4520.512820,4532.820512,4266.666666,4490.769230,4210.256410,4444.615384,4212.307692,4223.076923,4502.051282,4197.435897,4653.846153,3987.179488,4028.717948
131,4396.410256,4524.102564,4534.358974,4276.923076,4491.794871,4218.461538,4446.666666,4219.487179,4230.769230,4514.871794,4202.564102,4658.461538,3994.358975,4025.641025
132,4396.923076,4524.615384,4532.820512,4266.666666,4497.435897,4212.820512,4444.615384,4216.410256,4233.333333,4518.461538,4200.512820,4653.846153,3988.205129,4018.974358
133,4395.897435,4522.051282,4530.769230,4261.538461,4493.846153,4201.538461,4442.051282,4213.846153,4227.179487,4509.230769,4198.974358,4652.820512,3978.974359,4023.076923
134,4396.410256,4520.512820,4534.871794,4267.692307,4488.717948,4203.589743,4443.076923,4217.435897,4223.589743,4507.692307,4205.128205,4660.000000,3985.128206,4030.256410
135,4396.923076,4518.974358,4540.000000,4267.179487,4489.743589,4207.179487,4444.615384,4218.461538,4224.102564,4504.102564,4202.051282,4661.538461,3991.794872,4030.769230
136,4393.333333,4520.512820,4533.333333,4263.589743,4490.256410,4206.153846,4444.102564,4208.717948,4222.051282,4490.256410,4191.794871,4655.384615,3985.128206,4024.615384
137,4386.666666,4521.025641,4526.666666,4260.000000,4489.743589,4205.641025,4443.589743,4202.564102,4219.487179,4490.256410,4191.282051,4650.769230,3977.948718,4016.410256
138,4389.743589,4519.487179,4530.256410,4258.974358,4488.717948,4206.153846,4443.589743,4211.794871,4221.025641,4507.179487,4197.948717,4654.358974,3982.051283,4020.000000
139,4401.538461,4527.692307,4542.051282,4273.846153,4490.256410,4208.205128,4445.128205,4221.025641,4225.128205,4517.948717,4208.717948,4667.179487,3991.282052,4036.923076
140,4405.128205,4535.384615,4543.589743,4283.589743,4495.897435,4214.871794,4447.692307,4218.974358,4231.794871,4519.487179,4213.846153,4670.256410,3996.923077,4040.512820
141,4394.871794,4526.153846,4535.384615,4270.769230,4496.410256,4215.384615,4447.179487,4215.897435,4234.358974,4512.307692,4203.076923,4658.461538,3993.846154,4022.564102
142,4388.717948,4518.974358,4535.897435,4257.948717,4490.769230,4210.769230,4445.641025,4217.948717,4228.717948,4502.564102,4200.512820,4653.846153,3988.717949,4018.461538
143,4393.846153,4524.615384,4538.461538,4261.538461,4492.307692,4215.384615,4448.717948,4217.948717,4232.820512,4504.102564,4211.282051,4661.025641,3987.692308,4030.769230
144,4396.410256,4526.666666,4539.487179,4275.384615,4497.948717,4218.461538,4457.435897,4222.051282,4241.538461,4513.846153,4210.769230,4662.051282,3991.794872,4033.846153
145,4395.897435,4523.589743,4540.512820,4278.974358,4494.358974,4213.846153,4460.000000,4227.179487,4233.846153,4520.512820,4198.461538,4654.871794,3995.897436,4028.205128
146,4394.871794,4522.051282,4538.461538,4266.666666,4490.769230,4212.307692,4454.871794,4224.615384,4230.769230,4517.948717,4198.461538,4648.205128,3989.230770,4024.615384
147,4391.794871,4521.538461,4537.435897,4266.153846,4492.820512,4215.384615,4455.897435,4218.974358,4240.512820,4508.205128,4202.564102,4648.205128,3983.076924,4023.589743
148,4393.846153,4525.128205,4539.487179,4275.897435,4490.769230,4214.358974,4456.410256,4217.948717,4237.948717,4496.923076,4201.538461,4650.769230,3985.641026,4027.692307
149,4394.358974,4525.641025,4540.000000,4271.282051,4493.333333,4210.256410,4447.692307,4218.974358,4227.179487,4498.974358,4200.000000,4647.692307,3988.717949,4032.307692
150,4388.205128,4520.512820,4537.435897,4259.487179,4502.051282,4210.769230,4442.564102,4215.384615,4225.128205,4507.692307,4197.435897,4640.000000,3985.128206,4024.615384
151,4382.564102,4520.000000,4534.871794,4261.025641,4498.461538,4212.820512,4446.666666,4208.717948,4222.564102,4501.025641,4198.974358,4635.897435,3973.846154,4015.897435
152,4384.102564,4523.076923,4535.897435,4270.769230,4492.820512,4214.358974,4449.230769,4208.205128,4220.000000,4494.871794,4200.000000,4635.897435,3966.666667,4020.512820
153,4385.128205,4522.051282,4538.974358,4272.307692,4501.025641,4213.333333,4447.179487,4208.205128,4220.512820,4498.461538,4192.820512,4635.384615,3970.256411,4027.692307
154,4383.076923,4521.025641,4538.461538,4266.153846,4502.564102,4205.641025,4445.641025,4202.051282,4220.000000,4496.410256,4188.205128,4632.307692,3975.384616,4024.615384
155,4384.102564,4520.512820,4534.871794,4263.076923,4492.307692,4205.128205,4444.615384,4202.051282,4222.051282,4494.358974,4193.333333,4632.307692,3971.794872,4016.923076
156,4391.282051,4522.564102,4538.461538,4268.205128,4488.717948,4213.846153,4446.153846,4211.794871,4229.743589,4500.000000,4198.461538,4639.487179,3971.282052,4021.538461
157,4399.487179,4534.358974,4545.128205,4275.384615,4495.384615,4219.487179,4451.794871,4221.538461,4236.923076,4506.153846,4203.589743,4648.717948,3984.102565,4034.871794
158,4398.461538,4535.897435,4542.564102,4272.307692,4501.538461,4213.333333,4450.256410,4217.435897,4234.358974,4506.153846,4208.205128,4649.230769,3989.743590,4034.871794
159,4391.282051,4524.102564,4534.358974,4263.589743,4498.461538,4202.564102,4441.025641,4203.589743,4222.564102,4498.974358,4200.000000,4636.410256,3977.948718,4021.538461
160,4392.820512,4529.230769,4535.384615,4267.179487,4493.333333,4203.076923,4440.512820,4201.538461,4220.512820,4496.410256,4198.461538,4632.307692,3974.871795,4021.538461
161,4398.974358,4536.923076,4541.538461,4277.948717,4500.000000,4210.256410,4447.179487,4210.769230,4230.769230,4501.538461,4213.333333,4645.128205,3987.179488,4032.820512
162,4397.948717,4532.820512,4540.512820,4276.410256,4511.282051,4210.256410,4444.615384,4212.307692,4232.307692,4498.974358,4212.820512,4650.256410,3990.256411,4033.333333
163,4396.410256,4529.743589,4542.051282,4273.846153,4505.641025,4207.692307,4442.051282,4207.692307,4225.128205,4497.435897,4200.000000,4644.615384,3983.589744,4031.794871
164,4404.102564,4531.794871,4550.769230,4281.538461,4497.435897,4214.871794,4448.717948,4214.871794,4228.205128,4510.256410,4201.025641,4649.743589,3984.615385,4036.923076
165,4404.102564,4532.307692,4550.769230,4278.974358,4494.871794,4216.410256,4451.794871,4217.948717,4232.820512,4511.794871,4205.128205,4657.435897,3986.666667,4034.358974
166,4393.333333,4527.692307,4540.000000,4266.153846,4491.282051,4203.589743,4443.589743,4205.128205,4225.641025,4495.384615,4199.487179,4649.743589,3978.974359,4026.666666
167,4392.820512,4522.564102,4535.897435,4265.128205,4495.897435,4203.589743,4442.051282,4203.589743,4223.589743,4494.358974,4203.076923,4642.564102,3976.410257,4028.205128
168,4398.974358,4523.076923,4541.538461,4268.717948,4502.051282,4211.794871,4452.307692,4212.307692,4228.717948,4501.025641,4213.333333,4649.230769,3981.538462,4033.846153
169,4400.000000,4527.179487,4545.641025,4267.692307,4500.000000,4209.743589,4456.410256,4208.717948,4226.666666,4488.205128,4211.282051,4655.897435,3978.974359,4034.358974
170,4397.948717,4524.102564,4542.564102,4271.794871,4502.564102,4207.692307,4449.230769,4204.615384,4221.538461,4477.435897,4203.589743,4651.794871,3974.358975,4031.794871
171,4398.461538,4518.461538,4538.974358,4273.846153,4505.641025,4211.282051,4444.615384,4210.769230,4224.615384,4492.307692,4198.461538,4647.692307,3978.974359,4027.692307
172,4398.974358,4523.076923,4541.538461,4266.153846,4497.948717,4211.282051,4448.717948,4213.333333,4229.743589,4507.179487,4201.538461,4652.307692,3981.538462,4027.692307
173,4401.025641,4534.358974,4543.589743,4266.153846,4495.384615,4212.820512,4457.435897,4212.820512,4231.282051,4500.000000,4207.179487,4654.871794,3981.538462,4035.384615
174,4402.051282,4536.410256,4540.512820,4273.333333,4507.179487,4216.410256,4460.512820,4217.435897,4229.230769,4492.307692,4208.205128,4651.794871,3987.179488,4038.461538
175,4398.461538,4524.102564,4537.948717,4270.769230,4509.230769,4212.307692,4453.333333,4214.871794,4225.641025,4490.769230,4207.692307,4650.256410,3983.589744,4032.820512
176,4394.358974,4519.487179,4538.974358,4265.128205,4500.000000,4206.153846,4446.666666,4209.230769,4229.743589,4490.256410,4206.153846,4652.820512,3974.871795,4029.743589
177,4396.410256,4529.743589,4538.974358,4267.692307,4497.948717,4207.692307,4449.230769,4206.666666,4230.769230,4494.358974,4207.692307,4653.846153,3975.897436,4029.230769
178,4396.923076,4531.282051,4537.435897,4266.153846,4500.512820,4207.692307,4447.692307,4200.000000,4216.923076,4491.794871,4200.000000,4647.179487,3975.384616,4023.589743
179,4392.820512,4520.512820,4534.871794,4265.641025,4500.000000,4207.692307,4443.589743,4198.461538,4210.769230,4486.666666,4183.589743,4642.051282,3969.743590,4017.435897
180,4396.410256,4527.179487,4536.923076,4275.897435,4500.000000,4208.205128,4445.128205,4204.102564,4217.435897,4485.128205,4189.743589,4648.717948,3971.282052,4020.000000
181,4402.564102,4541.538461,4541.538461,4276.410256,4498.461538,4206.153846,4445.641025,4202.564102,4217.948717,4486.153846,4209.743589,4654.358974,3975.384616,4027.179487
182,4397.435897,4531.794871,4540.000000,4264.102564,4491.794871,4202.051282,4442.051282,4197.435897,4216.410256,4489.230769,4208.205128,4647.692307,3973.333334,4030.256410
183,4394.871794,4522.051282,4536.923076,4266.666666,4496.923076,4200.000000,4442.564102,4201.025641,4222.564102,4494.358974,4199.487179,4646.666666,3976.923077,4030.769230
184,4402.564102,4534.358974,4545.128205,4275.897435,4504.102564,4201.025641,4445.641025,4205.128205,4231.282051,4492.820512,4204.102564,4653.333333,3987.179488,4029.743589
185,4404.102564,4541.538461,4552.307692,4275.384615,4497.948717,4203.589743,4444.615384,4203.076923,4231.794871,4489.230769,4210.256410,4655.384615,3990.256411,4029.230769
186,4398.974358,4533.333333,4547.179487,4274.871794,4495.384615,4206.153846,4444.102564,4203.076923,4230.256410,4494.871794,4212.820512,4656.923076,3986.153847,4033.333333
187,4398.461538,4529.743589,4542.051282,4274.871794,4501.025641,4205.641025,4447.179487,4207.179487,4233.333333,4498.461538,4209.743589,4659.487179,3984.615385,4036.410256
188,4399.487179,4527.692307,4541.538461,4269.743589,4500.000000,4206.666666,4451.794871,4205.641025,4232.820512,4494.871794,4205.128205,4655.897435,3981.025642,4031.282051
189,4396.923076,4522.564102,4538.974358,4265.641025,4497.948717,4209.743589,4455.384615,4202.564102,4226.666666,4490.769230,4208.205128,4651.794871,3976.923077,4027.692307
190,4398.974358,4525.128205,4538.461538,4267.179487,4502.051282,4210.769230,4456.410256,4206.153846,4226.666666,4492.820512,4209.230769,4654.358974,3980.000000,4031.794871
191,4406.153846,4532.307692,4544.102564,4271.282051,4500.512820,4211.794871,4458.461538,4214.358974,4233.333333,4495.384615,4206.666666,4661.025641,3989.230770,4033.333333
192,4406.153846,4532.820512,4543.076923,4272.307692,4496.410256,4209.230769,4458.974358,4218.461538,4235.897435,4493.846153,4207.692307,4660.000000,3988.205129,4029.230769
193,4399.487179,4524.102564,4536.410256,4268.205128,4497.948717,4206.153846,4455.897435,4216.923076,4234.871794,4496.923076,4206.666666,4652.307692,3979.487180,4027.179487
194,4398.974358,4520.000000,4540.512820,4267.692307,4497.948717,4207.692307,4455.384615,4214.871794,4231.282051,4500.512820,4205.641025,4653.333333,3977.435898,4031.282051
195,4404.102564,4530.256410,4547.692307,4271.282051,4499.487179,4213.846153,4459.487179,4216.410256,4229.743589,4495.897435,4204.615384,4659.487179,3982.051283,4036.410256
196,4402.564102,4535.384615,4546.153846,4272.307692,4501.538461,4211.794871,4456.410256,4217.435897,4228.717948,4490.256410,4198.974358,4656.923076,3982.051283,4035.897435
197,4396.410256,4527.692307,4537.948717,4271.282051,4497.435897,4204.102564,4445.641025,4210.256410,4222.564102,4486.666666,4195.897435,4646.153846,3975.384616,4026.153846
198,4393.333333,4526.153846,4535.897435,4267.179487,4494.871794,4203.076923,4443.076923,4203.589743,4220.000000,4484.102564,4194.871794,4645.128205,3972.820513,4022.564102
199,4398.974358,4533.846153,4545.128205,4271.794871,4497.948717,4212.820512,4453.333333,4212.307692,4226.666666,4496.410256,4203.589743,4655.897435,3983.076924,4032.820512
200,4408.205128,4539.487179,4554.871794,4283.076923,4503.589743,4222.051282,4461.025641,4223.589743,4236.410256,4516.410256,4218.461538,4664.102564,3998.974359,4040.512820
201,4404.102564,4533.846153,4549.743589,4279.487179,4503.589743,4218.461538,4461.538461,4219.487179,4234.358974,4506.153846,4213.846153,4658.974358,4001.538461,4038.974358
202,4389.230769,4524.615384,4537.948717,4266.153846,4497.435897,4210.256410,4453.333333,4210.769230,4223.589743,4485.641025,4200.512820,4647.179487,3990.256411,4034.358974
203,4385.641025,4524.615384,4536.923076,4263.589743,4496.923076,4207.179487,4448.205128,4212.820512,4225.128205,4500.000000,4202.564102,4644.615384,3988.717949,4029.230769
204,4393.333333,4534.871794,4544.102564,4270.256410,4503.589743,4211.282051,4453.846153,4216.923076,4240.512820,4525.128205,4207.692307,4650.256410,4002.051282,4032.820512
205,4397.435897,4540.512820,4550.256410,4278.461538,4503.589743,4216.923076,4460.512820,4221.538461,4250.256410,4521.538461,4208.717948,4655.384615,4009.743589,4045.128205
206,4396.923076,4539.487179,4553.333333,4286.153846,4498.461538,4219.487179,4460.512820,4228.205128,4248.205128,4509.743589,4216.410256,4658.461538,4004.615384,4045.641025
207,4391.794871,4534.871794,4551.282051,4282.051282,4508.205128,4218.461538,4461.025641,4225.641025,4237.948717,4504.102564,4216.923076,4657.948717,3999.487180,4033.846153
208,4384.102564,4529.230769,4546.666666,4270.769230,4508.717948,4215.897435,4457.948717,4214.871794,4221.538461,4493.846153,4195.897435,4653.333333,3997.435898,4028.205128
209,4380.512820,4527.179487,4539.487179,4267.179487,4492.307692,4211.282051,4446.153846,4207.692307,4213.333333,4491.794871,4177.948717,4644.615384,3993.846154,4029.743589
210,4379.487179,4525.641025,4534.871794,4268.205128,4485.128205,4204.102564,4442.564102,4204.615384,4218.461538,4497.948717,4185.128205,4638.974358,3991.282052,4028.717948
211,4378.461538,4521.025641,4534.358974,4267.692307,4486.666666,4203.076923,4443.076923,4198.974358,4216.923076,4491.282051,4197.948717,4637.435897,3988.205129,4022.564102
212,4380.000000,4520.512820,4539.487179,4272.307692,4488.205128,4211.794871,4441.538461,4198.461538,4211.794871,4488.717948,4197.435897,4642.051282,3985.128206,4023.589743
213,4387.692307,4530.256410,4549.743589,4281.538461,4494.871794,4218.461538,4451.794871,4210.256410,4223.589743,4509.743589,4202.564102,4656.923076,3996.410257,4039.487179
214,4391.282051,4536.923076,4550.769230,4277.435897,4501.538461,4214.871794,4460.512820,4216.923076,4235.897435,4520.512820,4215.384615,4661.538461,4011.794871,4047.692307
215,4387.692307,4532.307692,4538.974358,4268.717948,4495.384615,4213.333333,4454.871794,4214.871794,4227.179487,4511.282051,4210.769230,4650.769230,4009.230769,4040.000000
216,4387.179487,4530.256410,4536.923076,4275.384615,4491.794871,4215.384615,4453.333333,4213.846153,4220.512820,4504.615384,4203.076923,4651.794871,4007.692307,4039.487179
217,4389.743589,4535.897435,4549.230769,4286.666666,4500.512820,4216.410256,4460.000000,4217.435897,4228.717948,4503.589743,4213.333333,4663.076923,4014.358974,4046.153846
218,4390.769230,4537.435897,4551.794871,4284.102564,4506.666666,4218.974358,4460.512820,4218.461538,4237.435897,4513.846153,4222.564102,4662.051282,4013.333333,4044.102564
219,4394.358974,4534.871794,4547.179487,4277.948717,4507.179487,4223.589743,4460.512820,4220.512820,4242.564102,4528.717948,4218.461538,4662.564102,4014.871794,4045.641025
220,4397.435897,4542.564102,4549.743589,4282.564102,4506.153846,4223.589743,4462.564102,4223.076923,4240.000000,4519.487179,4213.333333,4667.179487,4020.512820,4052.820512
221,4391.282051,4542.564102,4545.128205,4284.102564,4501.538461,4218.461538,4453.846153,4215.897435,4225.128205,4505.128205,4211.794871,4659.487179,4011.794871,4044.615384
222,4387.179487,4534.871794,4538.461538,4276.410256,4496.923076,4213.846153,4449.230769,4211.794871,4223.076923,4517.435897,4214.358974,4655.897435,4003.076923,4036.923076
223,4391.794871,4537.948717,4547.179487,4277.948717,4500.000000,4216.410256,4456.923076,4221.025641,4243.589743,4530.769230,4220.000000,4667.179487,4008.717948,4045.128205
224,4392.307692,4541.025641,4554.871794,4290.769230,4507.179487,4223.589743,4460.512820,4227.179487,4250.256410,4521.025641,4216.923076,4669.743589,4012.307692,4048.717948
225,4392.307692,4536.923076,4547.692307,4289.230769,4505.641025,4223.076923,4456.923076,4218.974358,4232.820512,4509.230769,4212.820512,4663.589743,4010.256410,4042.564102
226,4396.923076,4541.025641,4544.615384,4278.974358,4500.512820,4218.461538,4456.923076,4211.794871,4222.051282,4511.794871,4213.846153,4666.666666,4011.794871,4045.641025
227,4397.435897,4550.769230,4551.794871,4284.615384,4499.487179,4216.923076,4459.487179,4213.333333,4228.717948,4516.923076,4216.923076,4670.256410,4012.307692,4051.794871
228,4393.846153,4545.128205,4550.769230,4294.358974,4498.974358,4218.461538,4458.974358,4212.820512,4232.820512,4514.358974,4217.948717,4664.615384,4009.743589,4046.666666
229,4393.846153,4535.384615,4543.076923,4291.794871,4500.000000,4222.564102,4458.974358,4211.794871,4228.205128,4511.794871,4209.230769,4661.025641,4006.666666,4041.025641
230,4392.307692,4537.435897,4545.641025,4289.230769,4500.000000,4227.692307,4460.512820,4216.923076,4232.307692,4517.948717,4200.000000,4663.076923,4006.666666,4043.589743
231,4386.666666,4538.974358,4547.692307,4282.564102,4500.000000,4228.717948,4460.512820,4218.461538,4235.384615,4521.025641,4203.076923,4661.025641,4006.666666,4046.666666
232,4384.615384,4536.410256,4543.589743,4272.820512,4501.538461,4226.153846,4457.435897,4210.769230,4228.717948,4510.769230,4212.307692,4659.487179,4001.538461,4042.051282
233,4390.256410,4538.461538,4550.256410,4283.589743,4502.564102,4224.615384,4457.948717,4210.769230,4230.256410,4503.589743,4217.435897,4668.205128,4000.000000,4041.538461
234,4393.846153,4539.487179,4556.410256,4295.384615,4497.948717,4218.974358,4458.461538,4217.948717,4237.435897,4513.333333,4218.461538,4671.794871,4003.589743,4047.692307
235,4390.769230,4536.923076,4549.743589,4286.153846,4493.846153,4214.871794,4452.307692,4212.307692,4232.820512,4522.564102,4214.871794,4665.128205,4005.128205,4049.230769
236,4385.641025,4538.461538,4545.128205,4277.948717,4491.794871,4216.410256,4448.205128,4200.000000,4225.128205,4514.358974,4208.717948,4662.051282,4001.538461,4043.589743
237,4389.230769,4533.846153,4549.743589,4278.974358,4488.205128,4217.435897,4448.717948,4205.641025,4228.717948,4504.102564,4206.666666,4666.666666,4000.000000,4042.564102
238,4394.358974,4525.128205,4551.282051,4279.487179,4490.256410,4215.897435,4449.743589,4215.384615,4232.820512,4507.692307,4212.307692,4668.717948,3998.461539,4045.641025
239,4389.230769,4528.717948,4551.282051,4278.974358,4498.461538,4221.025641,4454.358974,4211.794871,4234.358974,4513.333333,4217.435897,4668.205128,3991.794872,4040.512820
240,4386.153846,4535.897435,4549.743589,4279.487179,4503.076923,4226.666666,4458.974358,4211.794871,4238.974358,4520.512820,4216.410256,4671.282051,3997.435898,4039.487179
241,4393.333333,4534.871794,4551.794871,4279.487179,4500.000000,4225.641025,4457.435897,4217.435897,4242.564102,4525.128205,4219.487179,4674.358974,4016.410256,4053.333333
242,4400.000000,4534.358974,4557.435897,4281.025641,4494.358974,4223.589743,4457.948717,4217.948717,4244.615384,4522.564102,4232.307692,4677.435897,4027.179487,4063.589743
243,4395.384615,4536.923076,4555.897435,4280.000000,4494.358974,4223.076923,4461.538461,4216.410256,4241.538461,4522.564102,4233.333333,4675.384615,4022.051282,4057.435897
244,4390.256410,4537.948717,4548.205128,4274.358974,4494.871794,4220.512820,4460.000000,4214.871794,4234.358974,4525.641025,4219.487179,4670.769230,4017.435897,4051.794871
245,4391.282051,4537.948717,4547.179487,4274.358974,4492.307692,4216.923076,4457.948717,4213.846153,4232.820512,4518.974358,4214.871794,4666.666666,4014.358974,4052.307692
246,4387.179487,4534.871794,4547.692307,4278.461538,4492.820512,4218.974358,4458.461538,4216.410256,4235.384615,4512.307692,4217.948717,4662.564102,4009.230769,4048.717948
247,4383.589743,4531.794871,4544.102564,4282.564102,4495.897435,4223.589743,4458.461538,4217.435897,4233.846153,4516.410256,4215.897435,4662.564102,4006.666666,4045.128205
248,4385.641025,4529.743589,4544.615384,4285.128205,4494.358974,4221.025641,4458.974358,4214.871794,4233.846153,4516.923076,4215.384615,4665.641025,4004.102564,4043.589743
249,4386.666666,4528.205128,4548.717948,4282.564102,4493.333333,4222.564102,4460.512820,4223.076923,4242.564102,4514.358974,4223.076923,4667.692307,4009.743589,4047.692307
250,4381.025641,4531.794871,4545.641025,4277.948717,4492.820512,4228.717948,4460.000000,4229.230769,4250.256410,4519.487179,4224.102564,4665.641025,4015.897435,4050.256410
251,4381.025641,4541.025641,4542.564102,4279.487179,4488.205128,4225.641025,4460.000000,4223.589743,4250.256410,4526.153846,4217.948717,4664.615384,4014.871794,4048.205128
252,4384.102564,4540.000000,4544.615384,4282.564102,4484.615384,4215.897435,4457.948717,4216.923076,4244.615384,4523.589743,4216.410256,4662.564102,4010.256410,4047.692307
253,4377.435897,4523.076923,4540.000000,4272.307692,4488.205128,4214.871794,4449.743589,4208.205128,4231.794871,4513.333333,4214.871794,4658.974358,4008.717948,4043.076923
254,4370.769230,4520.000000,4534.871794,4267.179487,4491.282051,4218.461538,4448.205128,4203.076923,4223.589743,4503.076923,4211.282051,4658.974358,4007.692307,4037.948717
255,4372.307692,4534.871794,4538.461538,4276.923076,4491.282051,4218.461538,4457.948717,4210.769230,4230.256410,4503.076923,4213.333333,4663.076923,4002.051282,4040.000000
256,4373.846153,4537.435897,4542.564102,4282.051282,4488.205128,4221.538461,4462.564102,4221.025641,4241.538461,4521.025641,4219.487179,4667.692307,4002.564102,4045.641025
257,4368.717948,4525.128205,4543.589743,4272.820512,4486.153846,4224.615384,4460.512820,4220.000000,4241.025641,4527.179487,4218.974358,4665.128205,4009.743589,4045.641025
258,4361.538461,4520.512820,4540.000000,4265.128205,4487.179487,4221.025641,4458.974358,4214.358974,4231.282051,4504.102564,4211.794871,4659.487179,4007.179487,4043.589743
259,4362.051282,4528.205128,4536.410256,4268.717948,4486.153846,4216.410256,4457.948717,4212.307692,4232.820512,4495.897435,4210.769230,4661.025641,4002.051282,4042.051282
