,AF3,F7,F3,FC5,T7,P7,O1,O2,P8,T8,FC6,F4,F8,AF4
0,4366.153846,4614.358974,4588.717948,4182.051282,4578.461538,4230.256410,4496.923076,4227.692307,4237.435897,4555.897435,4291.282051,4676.410256,3991.282052,4098.461538
1,4361.538461,4609.743589,4586.666666,4172.307692,4562.051282,4228.717948,4493.333333,4230.256410,4235.384615,4558.461538,4285.641025,4676.410256,3986.153847,4097.948717
2,4352.820512,4610.769230,4578.461538,4162.051282,4552.820512,4224.102564,4488.205128,4223.076923,4227.179487,4559.487179,4277.435897,4668.205128,3965.641026,4080.000000
3,4353.846153,4613.333333,4574.871794,4167.179487,4560.512820,4224.102564,4487.692307,4219.487179,4227.179487,4549.743589,4286.666666,4666.153846,3957.948718,4076.923076
4,4354.358974,4609.743589,4575.897435,4169.743589,4563.076923,4224.615384,4488.205128,4222.564102,4227.692307,4546.666666,4288.205128,4666.153846,3971.794872,4084.615384
5,4349.743589,4604.615384,4575.897435,4168.717948,4562.051282,4227.179487,4491.282051,4226.153846,4226.153846,4556.923076,4281.025641,4664.615384,3977.435898,4082.051282
6,4352.307692,4608.205128,4575.897435,4169.743589,4563.076923,4232.820512,4495.897435,4226.666666,4230.256410,4563.076923,4289.743589,4666.666666,3965.641026,4081.025641
7,4354.871794,4610.256410,4575.897435,4169.230769,4560.000000,4233.333333,4495.384615,4224.102564,4230.769230,4555.384615,4289.743589,4666.153846,3961.025642,4082.051282
8,4350.769230,4604.615384,4571.282051,4172.307692,4558.974358,4228.205128,4491.794871,4222.051282,4225.128205,4547.692307,4276.923076,4659.487179,3972.307693,4075.897435
9,4350.256410,4606.153846,4570.256410,4182.564102,4563.589743,4227.692307,4488.717948,4221.538461,4226.153846,4550.256410,4285.128205,4660.512820,3976.923077,4075.384615
10,4360.512820,4616.410256,4580.000000,4191.282051,4566.153846,4229.230769,4485.128205,4223.589743,4232.820512,4564.102564,4309.230769,4672.307692,3971.282052,4087.692307
11,4367.692307,4622.564102,4586.666666,4192.820512,4568.717948,4227.692307,4486.153846,4225.641025,4237.435897,4574.871794,4316.410256,4678.974358,3973.846154,4094.358974
12,4360.512820,4616.923076,4578.974358,4188.205128,4573.333333,4225.641025,4485.641025,4223.076923,4235.384615,4568.717948,4301.538461,4672.307692,3985.128206,4085.128205
13,4348.205128,4610.769230,4573.333333,4185.128205,4569.743589,4226.666666,4482.564102,4218.974358,4227.179487,4557.435897,4291.794871,4663.076923,3978.974359,4075.897435
14,4345.641025,4610.256410,4573.846153,4180.512820,4570.769230,4230.769230,4486.153846,4218.461538,4223.589743,4554.871794,4294.358974,4660.000000,3960.000000,4076.410256
15,4349.230769,4609.230769,4569.743589,4176.410256,4573.846153,4233.333333,4492.820512,4215.897435,4225.641025,4555.384615,4271.794871,4660.000000,3958.974359,4075.897435
16,4346.666666,4611.282051,4566.666666,4178.461538,4566.666666,4229.230769,4490.256410,4208.205128,4217.435897,4551.282051,4223.589743,4657.435897,3968.205129,4069.230769
17,4345.641025,4618.461538,4570.256410,4186.153846,4565.641025,4224.615384,4482.051282,4205.641025,4212.307692,4545.128205,4208.717948,4655.897435,3965.641026,4069.743589
18,4356.410256,4624.615384,4577.948717,4197.435897,4570.256410,4226.666666,4484.102564,4214.871794,4227.692307,4546.153846,4229.743589,4665.128205,3962.564103,4080.000000
19,4363.589743,4622.564102,4580.000000,4202.051282,4571.282051,4228.205128,4486.666666,4224.102564,4237.948717,4559.487179,4239.487179,4673.333333,3970.769231,4084.615384
20,4358.461538,4621.025641,4576.923076,4198.461538,4571.794871,4228.717948,4483.076923,4223.076923,4230.769230,4571.282051,4238.974358,4672.307692,3975.897436,4081.025641
21,4355.897435,4628.205128,4576.410256,4202.051282,4568.717948,4232.820512,4482.051282,4218.974358,4226.153846,4563.589743,4237.435897,4669.743589,3970.256411,4079.487179
22,4361.025641,4631.794871,4576.923076,4214.358974,4568.205128,4235.897435,4486.666666,4217.948717,4227.692307,4553.333333,4237.435897,4668.717948,3965.641026,4080.000000
23,4363.589743,4624.102564,4576.923076,4215.897435,4575.384615,4230.769230,4490.769230,4213.846153,4220.512820,4552.820512,4241.025641,4664.102564,3967.179488,4078.461538
24,4354.871794,4614.358974,4570.769230,4204.615384,4570.256410,4224.102564,4484.615384,4206.666666,4207.692307,4544.102564,4229.230769,4656.923076,3964.615385,4070.769230
25,4345.641025,4614.871794,4563.589743,4205.128205,4555.384615,4222.051282,4478.461538,4203.076923,4206.666666,4540.512820,4216.923076,4654.358974,3953.333334,4065.641025
26,4349.743589,4619.487179,4569.743589,4215.897435,4560.512820,4224.615384,4483.589743,4207.179487,4216.923076,4556.410256,4235.384615,4662.564102,3954.358975,4072.307692
27,4358.461538,4623.589743,4578.461538,4221.025641,4571.282051,4228.717948,4489.230769,4217.435897,4225.641025,4563.076923,4256.923076,4672.307692,3968.717949,4080.512820
28,4359.487179,4623.076923,4574.871794,4217.948717,4568.205128,4229.743589,4487.692307,4223.076923,4227.692307,4555.897435,4248.205128,4670.769230,3976.923077,4079.487179
29,4356.923076,4615.384615,4569.230769,4221.538461,4564.102564,4228.205128,4487.179487,4217.948717,4226.153846,4555.897435,4241.025641,4667.179487,3973.846154,4077.435897
30,4357.435897,4616.923076,4568.205128,4233.846153,4561.025641,4226.666666,4486.666666,4212.820512,4224.615384,4557.435897,4252.307692,4667.692307,3969.230770,4079.487179
31,4354.871794,4626.666666,4563.589743,4236.923076,4561.538461,4224.615384,4483.589743,4210.769230,4220.512820,4547.692307,4242.051282,4660.000000,3966.666667,4073.333333
32,4349.230769,4616.410256,4556.923076,4220.512820,4564.615384,4225.128205,4482.564102,4206.666666,4211.282051,4544.615384,4223.589743,4648.717948,3963.076924,4061.025641
33,4346.153846,4600.512820,4555.384615,4208.717948,4565.128205,4223.589743,4481.538461,4201.538461,4205.641025,4549.230769,4232.307692,4646.153846,3956.923077,4057.948717
34,4345.128205,4607.179487,4556.410256,4217.948717,4562.051282,4220.000000,4478.974358,4202.564102,4210.769230,4546.153846,4243.076923,4648.717948,3953.333334,4061.538461
35,4349.230769,4617.435897,4560.512820,4226.666666,4560.000000,4221.025641,4478.974358,4210.769230,4220.512820,4549.230769,4245.128205,4654.871794,3958.974359,4064.615384
36,4357.948717,4618.461538,4569.230769,4224.102564,4562.051282,4223.589743,4483.076923,4218.974358,4224.615384,4560.000000,4250.769230,4665.641025,3967.692308,4070.256410
37,4363.589743,4616.923076,4572.307692,4222.051282,4567.692307,4223.589743,4484.615384,4220.512820,4226.666666,4558.974358,4250.769230,4669.230769,3968.717949,4075.897435
38,4364.102564,4615.897435,4567.179487,4225.641025,4570.769230,4226.666666,4485.128205,4219.487179,4226.666666,4553.846153,4246.666666,4665.128205,3963.589744,4072.307692
39,4362.051282,4622.564102,4566.666666,4230.769230,4566.153846,4231.282051,4490.256410,4218.461538,4223.076923,4550.769230,4252.307692,4664.615384,3959.487180,4066.666666
40,4360.512820,4631.794871,4570.256410,4236.410256,4568.205128,4235.384615,4496.410256,4216.410256,4222.051282,4546.666666,4256.923076,4665.128205,3963.589744,4067.692307
41,4358.974358,4629.230769,4567.179487,4229.743589,4570.256410,4237.948717,4498.461538,4215.897435,4225.641025,4550.769230,4251.794871,4661.025641,3969.743590,4068.205128
42,4358.461538,4622.051282,4563.076923,4221.538461,4568.205128,4237.948717,4498.974358,4220.512820,4230.256410,4562.051282,4258.974358,4661.025641,3967.179488,4066.153846
43,4364.615384,4624.615384,4569.743589,4231.282051,4570.769230,4237.435897,4497.948717,4225.128205,4235.897435,4568.205128,4272.307692,4671.282051,3969.743590,4071.794871
44,4368.205128,4629.743589,4573.846153,4236.410256,4570.769230,4238.461538,4492.820512,4223.076923,4233.846153,4562.564102,4268.205128,4674.871794,3978.974359,4074.871794
45,4357.435897,4629.743589,4566.666666,4221.025641,4567.692307,4233.333333,4486.666666,4214.358974,4221.025641,4549.743589,4257.948717,4663.589743,3968.717949,4063.589743
46,4348.717948,4624.102564,4560.512820,4209.230769,4568.717948,4226.153846,4481.538461,4205.641025,4213.333333,4544.102564,4262.051282,4656.410256,3950.769231,4056.410256
47,4357.435897,4619.487179,4563.589743,4220.000000,4567.692307,4228.205128,4484.102564,4205.641025,4215.897435,4550.256410,4268.205128,4661.538461,3957.435898,4062.051282
48,4363.076923,4623.589743,4568.205128,4228.717948,4564.102564,4232.820512,4492.307692,4206.153846,4216.410256,4551.282051,4268.717948,4666.666666,3971.282052,4066.666666
49,4362.051282,4630.769230,4570.256410,4219.487179,4568.717948,4232.307692,4491.282051,4205.641025,4216.923076,4542.564102,4273.333333,4668.717948,3968.205129,4067.179487
50,4367.692307,4632.820512,4571.794871,4210.256410,4572.307692,4228.717948,4483.076923,4209.230769,4217.948717,4544.615384,4275.897435,4670.256410,3965.641026,4069.743589
51,4368.205128,4629.230769,4571.282051,4215.897435,4568.205128,4225.128205,4478.974358,4211.794871,4218.974358,4557.948717,4267.692307,4666.666666,3970.769231,4067.179487
52,4363.589743,4629.743589,4568.717948,4228.717948,4566.666666,4223.076923,4481.538461,4210.769230,4224.615384,4561.538461,4259.487179,4662.051282,3970.769231,4064.615384
53,4365.128205,4635.384615,4570.256410,4226.153846,4565.128205,4227.692307,4488.205128,4209.743589,4227.692307,4551.282051,4265.641025,4663.589743,3964.615385,4063.589743
54,4366.666666,4633.333333,4572.307692,4216.410256,4566.666666,4234.871794,4493.846153,4209.230769,4223.076923,4547.692307,4284.102564,4665.128205,3964.615385,4062.051282
55,4364.102564,4629.230769,4570.769230,4220.000000,4572.307692,4238.974358,4498.461538,4216.923076,4224.102564,4560.000000,4287.179487,4663.589743,3974.871795,4063.589743
56,4363.076923,4632.820512,4567.179487,4226.666666,4577.948717,4241.025641,4497.948717,4223.076923,4231.282051,4563.076923,4271.794871,4662.051282,3975.384616,4063.076923
57,4360.000000,4634.358974,4562.564102,4217.435897,4578.461538,4239.487179,4492.820512,4213.846153,4227.179487,4554.871794,4265.641025,4660.512820,3960.512821,4053.846153
58,4358.461538,4634.871794,4563.076923,4210.769230,4573.846153,4237.948717,4490.256410,4210.769230,4221.538461,4562.051282,4270.256410,4658.974358,3957.435898,4053.333333
59,4368.717948,4640.000000,4572.307692,4222.564102,4575.384615,4240.512820,4492.820512,4221.538461,4230.769230,4572.820512,4275.384615,4664.615384,3969.743590,4065.641025
60,4374.358974,4643.589743,4577.435897,4227.692307,4578.974358,4241.538461,4494.358974,4226.666666,4236.923076,4564.102564,4283.589743,4673.333333,3971.282052,4069.230769
61,4368.205128,4640.512820,4576.923076,4222.051282,4579.487179,4239.487179,4495.897435,4223.589743,4232.307692,4559.487179,4292.307692,4675.897435,3967.692308,4066.666666
62,4367.692307,4636.923076,4576.410256,4216.410256,4577.435897,4239.487179,4500.000000,4222.564102,4233.333333,4567.692307,4280.512820,4670.256410,3972.307693,4066.666666
63,4371.282051,4635.384615,4572.307692,4202.051282,4574.358974,4238.461538,4496.923076,4222.051282,4235.897435,4566.153846,4263.076923,4663.589743,3972.820513,4062.051282
64,4365.128205,4633.846153,4565.641025,4189.743589,4569.743589,4235.384615,4491.794871,4223.589743,4232.820512,4559.487179,4273.846153,4662.051282,3969.230770,4057.435897
65,4360.000000,4629.230769,4564.615384,4193.333333,4566.666666,4235.897435,4494.358974,4225.641025,4231.794871,4563.076923,4292.307692,4662.051282,3969.743590,4057.435897
66,4365.641025,4630.769230,4565.128205,4195.384615,4569.743589,4237.948717,4498.461538,4223.589743,4232.307692,4558.974358,4289.230769,4658.974358,3971.282052,4056.410256
67,4369.230769,4640.512820,4563.589743,4186.666666,4575.384615,4242.564102,4500.000000,4223.589743,4232.820512,4552.820512,4278.461538,4658.461538,3972.307693,4055.384615
68,4363.076923,4645.641025,4563.076923,4181.538461,4576.923076,4251.282051,4503.589743,4228.205128,4236.410256,4559.487179,4272.307692,4659.487179,3973.333334,4056.923076
69,4365.128205,4644.102564,4567.179487,4186.666666,4578.974358,4257.435897,4511.282051,4236.410256,4243.076923,4572.307692,4277.435897,4663.076923,3974.871795,4058.974358
70,4372.820512,4640.512820,4573.846153,4193.846153,4584.615384,4257.948717,4516.923076,4243.076923,4251.282051,4575.384615,4291.794871,4668.717948,3975.384616,4061.025641
71,4369.230769,4640.000000,4572.820512,4189.230769,4584.615384,4254.871794,4513.846153,4237.948717,4250.769230,4567.179487,4294.871794,4670.256410,3973.846154,4062.564102
72,4366.153846,4644.102564,4568.717948,4178.461538,4576.410256,4249.230769,4506.153846,4226.666666,4241.538461,4563.589743,4287.179487,4666.153846,3973.846154,4061.025641
73,4372.820512,4646.666666,4574.871794,4181.538461,4571.794871,4244.615384,4504.102564,4222.564102,4238.974358,4568.717948,4290.769230,4667.179487,3973.846154,4061.025641
74,4376.923076,4644.615384,4581.025641,4188.717948,4576.923076,4243.589743,4505.128205,4223.589743,4236.410256,4567.692307,4288.205128,4671.794871,3968.205129,4062.051282
75,4376.410256,4641.538461,4577.948717,4182.564102,4581.538461,4241.025641,4501.025641,4223.076923,4227.179487,4559.487179,4280.000000,4672.820512,3967.692308,4061.025641
76,4380.000000,4641.538461,4578.974358,4176.410256,4581.025641,4239.487179,4496.410256,4223.589743,4231.794871,4556.923076,4291.282051,4674.358974,3980.512821,4065.641025
77,4383.589743,4645.128205,4582.051282,4182.564102,4577.948717,4238.461538,4495.384615,4228.205128,4245.641025,4564.102564,4307.692307,4676.410256,3984.615385,4070.769230
78,4381.538461,4647.179487,4578.974358,4184.102564,4572.820512,4235.384615,4494.871794,4230.256410,4244.102564,4572.820512,4303.076923,4674.871794,3972.820513,4065.641025
79,4375.384615,4644.102564,4574.358974,4173.846153,4572.820512,4235.384615,4494.358974,4223.589743,4234.358974,4571.282051,4288.717948,4669.230769,3967.692308,4059.487179
80,4373.846153,4641.538461,4574.358974,4173.333333,4577.435897,4238.461538,4498.461538,4222.051282,4234.358974,4562.051282,4287.692307,4666.153846,3978.974359,4061.025641
81,4379.487179,4646.153846,4576.410256,4186.153846,4579.487179,4238.461538,4498.974358,4227.692307,4240.000000,4558.461538,4294.358974,4669.230769,3982.564103,4063.589743
82,4381.025641,4648.717948,4576.923076,4184.102564,4577.435897,4237.435897,4493.846153,4226.666666,4241.025641,4561.025641,4291.794871,4666.666666,3965.641026,4060.000000
83,4375.384615,4642.051282,4573.333333,4168.205128,4577.948717,4238.461538,4493.846153,4220.512820,4236.410256,4564.615384,4290.256410,4661.025641,3961.538462,4055.897435
84,4371.794871,4637.948717,4569.230769,4164.102564,4578.461538,4238.974358,4498.461538,4219.487179,4232.307692,4565.641025,4300.000000,4662.051282,3975.384616,4053.846153
85,4375.384615,4647.692307,4570.769230,4168.717948,4575.897435,4238.974358,4500.000000,4221.025641,4232.820512,4562.564102,4304.102564,4664.615384,3975.897436,4055.897435
86,4381.538461,4656.923076,4575.384615,4168.717948,4575.897435,4237.435897,4492.820512,4224.102564,4238.974358,4560.000000,4296.410256,4666.666666,3971.282052,4059.487179
87,4381.025641,4649.743589,4577.435897,4158.974358,4574.871794,4231.794871,4482.564102,4221.025641,4237.435897,4563.589743,4289.743589,4667.179487,3973.846154,4061.025641
88,4377.948717,4640.000000,4575.384615,4155.384615,4569.743589,4226.153846,4478.461538,4211.282051,4226.153846,4564.102564,4295.384615,4665.128205,3972.307693,4060.000000
89,4376.923076,4643.076923,4570.769230,4155.897435,4567.692307,4224.102564,4481.538461,4205.128205,4222.564102,4553.333333,4307.179487,4661.025641,3969.230770,4055.897435
90,4370.769230,4638.461538,4562.051282,4143.589743,4568.717948,4222.051282,4477.948717,4201.025641,4220.512820,4542.051282,4300.000000,4654.358974,3968.717949,4048.205128
91,4362.564102,4615.897435,4556.410256,4131.794871,4568.205128,4218.974358,4472.820512,4196.923076,4212.820512,4542.564102,4280.000000,4646.666666,3968.205129,4045.128205
92,4364.615384,4606.666666,4560.000000,4135.384615,4564.615384,4220.000000,4477.435897,4200.512820,4213.333333,4547.692307,4283.076923,4650.256410,3971.794872,4050.769230
93,4368.205128,4614.871794,4562.051282,4136.410256,4559.487179,4215.897435,4475.897435,4203.589743,4214.358974,4545.128205,4289.743589,4656.410256,3973.333334,4055.384615
94,4366.666666,4615.897435,4562.564102,4134.358974,4556.923076,4210.769230,4467.179487,4204.102564,4213.333333,4544.615384,4277.435897,4653.846153,3971.794872,4056.410256
95,4367.179487,4608.717948,4566.153846,4148.205128,4560.000000,4210.769230,4467.179487,4206.153846,4221.538461,4545.128205,4271.794871,4652.820512,3976.923077,4059.487179
96,4365.641025,4602.051282,4563.589743,4152.820512,4557.948717,4208.205128,4464.615384,4201.538461,4216.923076,4538.974358,4266.666666,4650.256410,3982.564103,4056.923076
97,4356.923076,4595.384615,4555.384615,4142.051282,4548.717948,4204.102564,4453.333333,4192.307692,4198.974358,4536.923076,4253.846153,4642.564102,3977.435898,4050.769230
98,4349.230769,4590.769230,4550.769230,4142.564102,4547.692307,4205.128205,4450.769230,4193.333333,4195.384615,4531.282051,4257.435897,4637.435897,3960.512821,4046.666666
99,4347.692307,4591.282051,4549.743589,4152.820512,4555.897435,4210.256410,4459.487179,4198.461538,4202.051282,4527.692307,4259.487179,4635.897435,3958.461539,4045.128205
100,4349.743589,4593.333333,4550.769230,4154.358974,4560.512820,4212.820512,4463.589743,4201.025641,4201.538461,4534.871794,4241.538461,4633.846153,3975.384616,4046.666666
101,4350.256410,4596.410256,4556.923076,4147.692307,4561.538461,4210.769230,4458.974358,4201.025641,4204.102564,4538.974358,4241.538461,4633.333333,3972.307693,4049.743589
102,4350.256410,4594.871794,4560.512820,4146.153846,4560.000000,4208.717948,4452.307692,4201.538461,4207.692307,4532.820512,4258.974358,4634.871794,3957.948718,4049.743589
103,4349.230769,4588.205128,4557.948717,4147.692307,4551.794871,4205.128205,4449.743589,4202.051282,4202.564102,4532.307692,4260.000000,4635.897435,3969.743590,4047.692307
104,4348.205128,4588.717948,4557.435897,4150.769230,4550.256410,4204.102564,4454.871794,4205.128205,4205.641025,4542.051282,4260.512820,4637.435897,3987.692308,4050.769230
105,4351.282051,4599.487179,4562.051282,4155.384615,4553.846153,4206.666666,4461.025641,4211.282051,4212.820512,4543.589743,4270.256410,4641.025641,3982.051283,4055.384615
106,4351.794871,4598.974358,4562.564102,4153.846153,4554.871794,4208.205128,4461.538461,4213.333333,4210.769230,4541.538461,4265.128205,4640.512820,3965.128206,4053.846153
107,4350.769230,4586.666666,4561.025641,4148.717948,4552.820512,4207.179487,4458.461538,4206.666666,4207.692307,4544.102564,4249.743589,4639.487179,3962.051283,4053.846153
108,4356.923076,4589.743589,4567.179487,4155.384615,4552.307692,4208.205128,4457.435897,4202.564102,4208.717948,4542.564102,4254.871794,4644.615384,3979.487180,4060.512820
109,4365.641025,4603.076923,4570.769230,4166.153846,4553.333333,4209.230769,4456.923076,4202.564102,4206.153846,4538.974358,4271.282051,4650.256410,3992.307693,4065.641025
110,4365.641025,4603.589743,4569.230769,4164.615384,4557.435897,4207.692307,4452.820512,4201.025641,4198.461538,4543.589743,4276.410256,4646.666666,3976.923077,4062.564102
111,4363.589743,4597.435897,4572.307692,4157.435897,4563.076923,4209.230769,4452.820512,4202.051282,4201.025641,4547.692307,4277.435897,4644.615384,3964.615385,4060.512820
112,4367.179487,4598.461538,4576.410256,4157.435897,4563.589743,4212.820512,4458.974358,4206.666666,4208.205128,4539.487179,4270.256410,4649.230769,3983.076924,4064.102564
113,4371.282051,4599.487179,4576.410256,4159.487179,4562.564102,4213.846153,4464.102564,4208.205128,4210.256410,4538.461538,4257.948717,4651.794871,3992.820513,4069.230769
114,4370.256410,4599.487179,4574.358974,4146.153846,4558.461538,4212.820512,4461.538461,4206.666666,4207.692307,4543.589743,4270.256410,4649.743589,3975.897436,4068.717948
115,4364.102564,4602.564102,4570.769230,4124.102564,4555.384615,4210.256410,4455.897435,4200.000000,4203.589743,4538.461538,4290.256410,4646.666666,3969.230770,4061.538461
116,4359.487179,4597.948717,4566.153846,4130.256410,4558.974358,4209.230769,4454.358974,4194.871794,4203.589743,4532.820512,4279.487179,4642.051282,3983.076924,4056.923076
117,4358.974358,4589.230769,4564.102564,4151.794871,4562.564102,4209.743589,4458.974358,4201.025641,4202.564102,4531.282051,4266.666666,4640.512820,3981.025642,4056.923076
118,4358.974358,4594.871794,4562.051282,4140.512820,4559.487179,4210.256410,4464.102564,4205.641025,4197.435897,4533.333333,4266.153846,4640.512820,3968.205129,4054.358974
119,4353.333333,4598.974358,4556.923076,4112.307692,4555.384615,4209.230769,4464.102564,4197.435897,4192.307692,4535.897435,4258.974358,4633.846153,3969.743590,4047.179487
120,4346.153846,4584.615384,4552.307692,4108.205128,4555.897435,4208.205128,4461.025641,4190.769230,4192.307692,4530.769230,4265.128205,4627.692307,3971.794872,4043.076923
121,4348.205128,4583.589743,4555.897435,4121.538461,4558.461538,4208.717948,4461.025641,4194.358974,4198.974358,4524.102564,4280.512820,4632.820512,3963.589744,4045.128205
122,4353.333333,4601.025641,4558.974358,4123.589743,4558.974358,4208.717948,4461.025641,4198.461538,4202.051282,4529.230769,4273.333333,4633.333333,3961.538462,4046.666666
123,4350.769230,4596.923076,4554.358974,4107.692307,4558.974358,4207.179487,4457.435897,4195.384615,4198.974358,4531.794871,4257.435897,4628.717948,3967.692308,4043.589743
124,4353.333333,4584.615384,4555.897435,4104.102564,4561.025641,4207.179487,4457.435897,4195.384615,4200.000000,4530.769230,4256.410256,4633.846153,3970.256411,4044.615384
125,4363.589743,4601.025641,4566.153846,4125.641025,4561.538461,4208.717948,4458.461538,4204.615384,4211.282051,4540.000000,4270.769230,4645.128205,3969.743590,4052.820512
126,4367.179487,4621.025641,4572.820512,4134.358974,4556.923076,4208.717948,4456.410256,4210.769230,4215.384615,4543.076923,4284.102564,4651.794871,3974.358975,4060.000000
127,4365.128205,4613.333333,4574.358974,4122.564102,4554.871794,4209.743589,4457.435897,4207.692307,4210.769230,4537.435897,4278.461538,4649.743589,3983.589744,4059.487179
128,4365.641025,4595.897435,4575.384615,4122.564102,4562.051282,4212.307692,4465.641025,4208.717948,4212.307692,4542.564102,4277.435897,4649.743589,3981.538462,4056.923076
129,4366.153846,4596.410256,4574.358974,4135.384615,4568.717948,4212.820512,4469.230769,4211.794871,4214.871794,4547.179487,4292.307692,4653.333333,3970.256411,4057.435897
130,4367.179487,4614.358974,4575.897435,4143.076923,4571.282051,4216.923076,4469.230769,4208.717948,4212.307692,4536.410256,4293.333333,4656.410256,3974.358975,4058.974358
131,4369.743589,4622.051282,4575.897435,4140.000000,4570.769230,4222.051282,4472.307692,4205.128205,4206.666666,4529.743589,4280.512820,4652.307692,3987.179488,4060.000000
132,4367.692307,4608.205128,4569.230769,4132.820512,4563.076923,4218.461538,4472.307692,4203.076923,4207.692307,4537.948717,4277.948717,4646.666666,3981.538462,4055.897435
133,4360.000000,4596.410256,4560.000000,4128.717948,4555.384615,4212.820512,4463.076923,4196.410256,4208.205128,4539.487179,4283.589743,4642.051282,3967.692308,4048.205128
134,4358.974358,4601.025641,4560.512820,4138.461538,4563.076923,4214.871794,4454.871794,4193.846153,4206.666666,4533.333333,4285.128205,4642.051282,3971.282052,4050.256410
135,4370.256410,4608.717948,4573.846153,4154.871794,4568.717948,4216.410256,4458.974358,4203.589743,4212.307692,4538.461538,4287.179487,4653.333333,3989.743590,4062.051282
136,4377.435897,4611.794871,4577.948717,4153.333333,4560.000000,4212.307692,4460.512820,4205.641025,4218.461538,4546.153846,4287.179487,4657.948717,3991.794872,4064.615384
137,4369.743589,4611.794871,4569.230769,4145.641025,4561.538461,4214.358974,4455.384615,4200.512820,4216.410256,4544.615384,4284.102564,4650.769230,3973.333334,4060.512820
138,4366.666666,4611.282051,4572.307692,4156.923076,4570.256410,4222.564102,4460.512820,4205.641025,4217.435897,4551.794871,4290.256410,4653.846153,3978.461539,4067.179487
139,4377.435897,4614.358974,4583.589743,4171.794871,4569.230769,4224.615384,4470.769230,4215.897435,4227.692307,4562.564102,4304.102564,4664.615384,4009.743589,4076.923076
140,4385.128205,4624.615384,4585.128205,4171.282051,4570.256410,4222.564102,4470.256410,4218.461538,4233.846153,4557.948717,4309.743589,4668.205128,4016.410256,4080.512820
141,4381.025641,4633.333333,4582.051282,4170.769230,4571.794871,4223.076923,4466.153846,4215.897435,4229.743589,4553.333333,4308.205128,4666.153846,3988.205129,4077.948717
142,4373.333333,4626.153846,4580.512820,4168.205128,4567.179487,4221.538461,4466.153846,4211.282051,4224.102564,4556.923076,4300.512820,4662.564102,3978.461539,4069.230769
143,4373.333333,4612.820512,4579.487179,4156.410256,4568.717948,4221.025641,4465.641025,4207.692307,4223.076923,4555.897435,4289.230769,4661.538461,4001.538461,4068.717948
144,4377.948717,4616.410256,4578.974358,4156.410256,4571.282051,4223.076923,4467.179487,4210.769230,4225.641025,4553.333333,4293.333333,4666.153846,4007.692307,4076.923076
145,4373.846153,4624.615384,4574.871794,4153.333333,4563.589743,4221.538461,4467.179487,4210.769230,4224.615384,4548.717948,4305.641025,4665.641025,3985.128206,4071.282051
146,4365.128205,4616.923076,4568.205128,4141.538461,4561.025641,4218.974358,4461.025641,4202.051282,4215.897435,4546.666666,4298.461538,4655.897435,3975.384616,4058.461538
147,4362.051282,4612.307692,4566.153846,4144.615384,4565.128205,4217.948717,4456.410256,4195.897435,4208.717948,4546.666666,4289.230769,4649.743589,3988.205129,4057.435897
148,4357.435897,4612.820512,4565.641025,4149.743589,4563.076923,4216.923076,4457.435897,4193.333333,4207.692307,4538.461538,4292.307692,4647.179487,3985.128206,4054.871794
149,4353.846153,4605.128205,4562.051282,4136.410256,4563.076923,4216.410256,4456.410256,4192.307692,4207.179487,4534.358974,4282.051282,4644.102564,3967.692308,4045.641025
150,4360.000000,4607.179487,4563.076923,4133.333333,4563.589743,4217.948717,4457.435897,4198.461538,4212.820512,4544.615384,4279.487179,4648.205128,3967.692308,4050.256410
151,4369.230769,4619.487179,4571.794871,4150.256410,4559.487179,4217.948717,4461.538461,4207.179487,4221.025641,4547.179487,4302.051282,4656.923076,3981.538462,4061.025641
152,4369.743589,4619.487179,4576.923076,4156.410256,4563.076923,4218.974358,4463.076923,4208.717948,4222.051282,4544.102564,4309.230769,4660.000000,3991.282052,4060.512820
153,4369.743589,4616.410256,4577.435897,4154.358974,4573.333333,4221.025641,4463.076923,4207.179487,4223.589743,4552.820512,4300.512820,4661.025641,3990.256411,4062.051282
154,4372.820512,4621.025641,4577.435897,4151.282051,4573.846153,4222.051282,4462.051282,4206.666666,4226.153846,4554.358974,4303.589743,4662.564102,3983.076924,4066.666666
155,4367.692307,4617.435897,4570.769230,4147.692307,4567.179487,4220.000000,4457.948717,4201.025641,4213.846153,4540.000000,4302.051282,4656.923076,3974.871795,4058.461538
156,4360.512820,4611.282051,4565.641025,4155.897435,4565.641025,4215.384615,4453.846153,4193.333333,4202.564102,4533.333333,4294.358974,4648.717948,3974.871795,4048.717948
157,4367.179487,4617.435897,4571.794871,4168.205128,4569.743589,4215.897435,4456.410256,4197.948717,4214.358974,4537.948717,4304.102564,4653.846153,3982.564103,4056.410256
158,4382.564102,4625.128205,4581.025641,4169.743589,4574.871794,4222.051282,4463.589743,4209.743589,4227.692307,4548.717948,4314.871794,4668.205128,3989.743590,4070.769230
159,4386.666666,4627.179487,4583.589743,4171.794871,4578.461538,4223.076923,4463.589743,4210.256410,4225.641025,4558.974358,4314.358974,4673.333333,3986.666667,4072.820512
160,4380.512820,4633.333333,4581.538461,4175.897435,4573.333333,4218.974358,4458.461538,4205.128205,4223.589743,4558.461538,4318.461538,4669.743589,3988.205129,4069.743589
161,4373.333333,4629.743589,4572.820512,4172.820512,4563.076923,4214.871794,4456.410256,4204.615384,4226.666666,4549.743589,4321.025641,4661.025641,3999.487180,4063.589743
162,4361.025641,4608.717948,4561.025641,4166.153846,4556.410256,4208.717948,4454.358974,4198.974358,4216.410256,4540.512820,4307.692307,4647.179487,3985.128206,4050.769230
163,4353.333333,4599.487179,4554.871794,4155.897435,4553.333333,4204.102564,4450.769230,4188.205128,4197.435897,4534.358974,4286.153846,4638.974358,3952.820513,4038.461538
164,4354.871794,4609.743589,4554.358974,4154.871794,4551.282051,4206.666666,4453.846153,4185.641025,4194.871794,4531.282051,4279.487179,4639.487179,3949.743590,4035.897435
165,4358.461538,4610.256410,4558.461538,4172.307692,4552.307692,4210.256410,4457.948717,4190.769230,4204.615384,4533.333333,4298.974358,4642.564102,3963.076924,4042.051282
166,4365.128205,4609.743589,4567.179487,4191.282051,4560.000000,4213.846153,4455.897435,4196.410256,4209.230769,4538.461538,4316.923076,4649.743589,3967.692308,4048.717948
167,4375.384615,4626.666666,4573.846153,4197.948717,4565.641025,4216.923076,4455.384615,4198.974358,4212.307692,4541.538461,4313.333333,4658.974358,3977.435898,4054.871794
168,4377.948717,4632.820512,4574.358974,4200.512820,4564.102564,4214.358974,4452.820512,4196.923076,4215.384615,4543.589743,4312.820512,4658.461538,3980.512821,4058.461538
169,4374.358974,4621.025641,4573.333333,4207.179487,4563.589743,4208.717948,4452.820512,4200.000000,4215.384615,4545.641025,4321.025641,4654.358974,3969.230770,4058.461538
170,4377.948717,4621.538461,4576.410256,4222.051282,4564.102564,4211.282051,4461.025641,4209.230769,4222.051282,4550.256410,4325.641025,4659.487179,3974.358975,4060.512820
171,4385.641025,4631.794871,4581.025641,4228.205128,4564.102564,4219.487179,4470.769230,4212.307692,4229.743589,4555.384615,4331.794871,4670.256410,3992.307693,4066.153846
172,4381.538461,4630.769230,4576.923076,4215.384615,4567.179487,4222.564102,4474.871794,4206.666666,4222.051282,4548.717948,4338.461538,4667.692307,3985.128206,4062.564102
173,4370.769230,4626.153846,4567.692307,4217.435897,4568.717948,4221.025641,4470.769230,4196.410256,4209.230769,4533.333333,4329.743589,4652.820512,3962.564103,4047.692307
174,4366.666666,4623.076923,4563.589743,4234.358974,4563.076923,4222.051282,4465.641025,4189.743589,4208.717948,4532.820512,4316.410256,4646.153846,3961.538462,4044.615384
175,4365.128205,4614.871794,4561.025641,4236.410256,4560.512820,4222.564102,4465.128205,4189.230769,4208.205128,4542.051282,4318.974358,4646.153846,3971.794872,4048.205128
176,4363.076923,4615.897435,4558.461538,4230.769230,4561.538461,4221.025641,4467.179487,4191.794871,4204.615384,4540.512820,4326.666666,4645.128205,3969.743590,4042.051282
177,4365.641025,4625.641025,4562.051282,4229.230769,4563.076923,4220.512820,4467.692307,4197.948717,4211.282051,4539.487179,4331.794871,4646.153846,3964.102565,4041.538461
178,4371.282051,4628.717948,4568.717948,4232.820512,4568.717948,4222.051282,4471.794871,4205.641025,4222.564102,4550.256410,4336.923076,4652.307692,3970.769231,4051.282051
179,4377.435897,4631.282051,4571.794871,4242.564102,4571.282051,4224.615384,4474.871794,4207.179487,4221.538461,4556.410256,4340.512820,4658.461538,3983.076924,4056.923076
180,4381.538461,4635.897435,4574.358974,4249.230769,4568.717948,4227.692307,4471.282051,4204.615384,4214.871794,4557.948717,4347.179487,4660.512820,3987.179488,4057.435897
181,4382.051282,4635.897435,4577.948717,4245.641025,4569.743589,4227.692307,4472.307692,4205.128205,4220.512820,4563.076923,4353.333333,4663.076923,3987.179488,4062.051282
182,4385.128205,4636.410256,4579.487179,4249.743589,4576.410256,4228.205128,4474.871794,4206.153846,4234.358974,4565.128205,4351.282051,4668.205128,3992.820513,4066.153846
183,4394.871794,4646.153846,4583.589743,4255.384615,4583.076923,4229.743589,4470.769230,4212.307692,4239.487179,4570.256410,4357.435897,4675.384615,4007.179487,4072.307692
184,4400.512820,4652.307692,4591.794871,4259.487179,4583.076923,4228.717948,4466.666666,4215.897435,4234.358974,4582.051282,4371.282051,4681.025641,4010.769230,4080.000000
185,4397.435897,4651.794871,4591.794871,4263.589743,4581.025641,4229.230769,4469.230769,4211.282051,4232.307692,4580.512820,4364.102564,4681.538461,3997.948718,4077.435897
186,4392.820512,4649.743589,4584.615384,4260.000000,4582.051282,4233.333333,4478.974358,4209.743589,4232.820512,4562.564102,4353.333333,4675.384615,3994.871795,4070.769230
187,4381.025641,4638.974358,4573.333333,4248.205128,4574.871794,4230.769230,4479.487179,4205.128205,4221.538461,4551.282051,4349.230769,4662.564102,3997.948718,4060.512820
188,4363.589743,4619.487179,4559.487179,4235.897435,4566.153846,4223.589743,4471.794871,4193.333333,4206.153846,4545.128205,4330.256410,4647.179487,3975.384616,4043.076923
189,4357.948717,4615.384615,4555.897435,4231.282051,4569.230769,4225.641025,4473.333333,4189.230769,4204.102564,4538.461538,4322.564102,4639.487179,3954.871795,4034.358974
190,4367.692307,4626.666666,4561.538461,4231.794871,4569.743589,4232.820512,4481.025641,4201.025641,4214.871794,4545.641025,4340.000000,4645.641025,3970.769231,4042.564102
191,4370.769230,4628.205128,4563.076923,4230.256410,4567.692307,4229.230769,4477.435897,4208.205128,4225.641025,4561.025641,4343.076923,4654.358974,3984.615385,4049.230769
192,4366.666666,4624.102564,4563.076923,4235.897435,4574.358974,4221.538461,4467.179487,4206.153846,4224.102564,4560.512820,4334.871794,4655.897435,3979.487180,4047.692307
193,4371.794871,4627.692307,4571.282051,4248.205128,4573.846153,4222.564102,4468.205128,4204.615384,4216.923076,4547.692307,4345.641025,4657.435897,3982.051283,4051.794871
194,4382.051282,4633.333333,4578.461538,4243.076923,4568.717948,4227.692307,4476.923076,4210.769230,4221.025641,4551.794871,4364.615384,4665.128205,3987.179488,4057.948717
195,4382.564102,4635.384615,4577.948717,4224.615384,4574.871794,4227.179487,4478.461538,4213.333333,4227.692307,4560.000000,4362.564102,4668.205128,3978.974359,4054.871794
196,4378.461538,4635.897435,4575.384615,4226.666666,4580.000000,4225.641025,4474.358974,4205.641025,4220.000000,4552.820512,4349.230769,4661.025641,3974.358975,4050.769230
197,4380.512820,4639.487179,4573.846153,4238.461538,4578.974358,4228.717948,4472.307692,4201.025641,4213.846153,4549.743589,4353.846153,4656.923076,3982.051283,4053.333333
198,4377.948717,4638.974358,4569.230769,4231.282051,4580.512820,4225.641025,4466.666666,4197.435897,4214.871794,4551.794871,4357.435897,4655.384615,3982.051283,4049.743589
199,4367.692307,4627.692307,4563.076923,4215.384615,4578.461538,4216.923076,4458.461538,4193.846153,4212.307692,4543.076923,4334.871794,4648.205128,3972.307693,4041.025641
200,4365.641025,4620.000000,4560.000000,4201.025641,4567.179487,4216.410256,4462.051282,4198.461538,4212.820512,4537.435897,4316.410256,4646.666666,3964.615385,4041.025641
201,4371.282051,4628.205128,4563.589743,4182.564102,4564.615384,4223.589743,4472.820512,4205.128205,4217.435897,4545.641025,4320.000000,4651.794871,3968.717949,4045.128205
202,4367.692307,4633.846153,4566.666666,4173.846153,4576.410256,4230.256410,4476.410256,4200.000000,4213.846153,4549.230769,4320.000000,4650.769230,3973.846154,4043.076923
203,4358.461538,4625.128205,4562.051282,4170.256410,4581.538461,4230.769230,4473.846153,4191.794871,4205.128205,4544.102564,4326.666666,4644.102564,3963.589744,4037.435897
204,4363.589743,4624.615384,4560.512820,4156.923076,4576.410256,4227.179487,4468.717948,4194.871794,4211.282051,4543.076923,4350.769230,4645.128205,3957.948718,4040.000000
205,4380.512820,4640.512820,4569.743589,4150.769230,4573.333333,4226.153846,4466.153846,4203.589743,4224.102564,4545.128205,4366.666666,4655.897435,3976.923077,4050.256410
206,4387.692307,4647.692307,4579.487179,4163.076923,4576.410256,4230.256410,4470.769230,4211.794871,4226.666666,4553.333333,4368.717948,4662.051282,3992.820513,4056.923076
207,4384.102564,4640.000000,4578.974358,4167.179487,4582.051282,4233.846153,4478.461538,4218.974358,4230.256410,4565.641025,4369.230769,4663.076923,3988.205129,4058.461538
208,4384.615384,4642.051282,4578.461538,4155.897435,4586.666666,4233.846153,4481.538461,4223.076923,4236.410256,4568.717948,4368.205128,4665.641025,3984.615385,4060.000000
209,4387.692307,4651.282051,4581.538461,4148.717948,4581.025641,4232.307692,4472.307692,4217.948717,4233.846153,4556.410256,4371.794871,4667.692307,3989.743590,4061.025641
210,4383.589743,4635.897435,4578.461538,4147.179487,4571.282051,4226.666666,4466.153846,4212.307692,4225.128205,4550.256410,4376.923076,4665.641025,3987.179488,4060.512820
211,4375.897435,4614.871794,4568.717948,4139.487179,4569.743589,4225.128205,4469.743589,4211.282051,4220.000000,4551.282051,4371.282051,4661.025641,3976.923077,4052.820512
212,4364.102564,4611.282051,4559.487179,4126.153846,4569.230769,4224.102564,4469.743589,4202.564102,4211.794871,4542.051282,4355.384615,4648.717948,3968.205129,4037.948717
213,4350.769230,4602.051282,4550.256410,4110.769230,4560.000000,4214.871794,4465.641025,4190.769230,4201.025641,4526.666666,4335.897435,4632.820512,3961.538462,4030.256410
214,4347.692307,4587.692307,4546.153846,4103.076923,4554.871794,4209.230769,4466.153846,4191.282051,4199.487179,4518.461538,4328.717948,4629.743589,3956.923077,4033.846153
215,4352.307692,4585.641025,4549.230769,4112.820512,4557.435897,4211.794871,4463.589743,4196.923076,4202.564102,4522.564102,4333.333333,4631.282051,3958.461539,4035.897435
216,4351.282051,4589.230769,4551.282051,4118.974358,4554.871794,4209.230769,4456.923076,4192.307692,4201.025641,4529.230769,4336.410256,4631.282051,3965.128206,4037.435897
217,4352.307692,4591.282051,4554.871794,4107.179487,4557.435897,4208.717948,4457.435897,4189.743589,4197.948717,4532.820512,4335.384615,4635.897435,3969.230770,4044.615384
218,4364.615384,4594.871794,4566.153846,4106.666666,4568.717948,4218.461538,4460.512820,4199.487179,4203.076923,4538.974358,4341.538461,4645.641025,3974.358975,4057.435897
219,4376.410256,4601.538461,4573.333333,4120.000000,4573.333333,4223.076923,4461.025641,4208.205128,4214.871794,4541.538461,4352.820512,4651.794871,3989.230770,4068.717948
220,4376.410256,4604.615384,4572.820512,4120.000000,4566.153846,4221.538461,4462.564102,4212.307692,4222.564102,4543.076923,4358.974358,4654.871794,4008.205128,4070.769230
221,4373.846153,4600.000000,4574.358974,4113.846153,4564.615384,4220.512820,4460.000000,4212.820512,4223.589743,4549.230769,4358.461538,4654.358974,4006.666666,4066.666666
222,4375.384615,4597.435897,4576.410256,4121.025641,4570.256410,4215.897435,4454.358974,4213.846153,4222.051282,4555.384615,4354.871794,4651.794871,3988.205129,4067.692307
223,4377.435897,4602.564102,4577.948717,4134.358974,4569.230769,4216.410256,4453.333333,4216.410256,4221.538461,4551.282051,4355.384615,4656.923076,3988.205129,4071.794871
224,4376.410256,4598.974358,4578.974358,4141.025641,4568.717948,4222.051282,4459.487179,4216.410256,4219.487179,4538.974358,4359.487179,4658.461538,4001.025641,4071.282051
225,4367.692307,4589.230769,4570.769230,4130.256410,4570.256410,4219.487179,4462.051282,4210.769230,4214.358974,4532.307692,4350.769230,4646.666666,3992.307693,4063.076923
226,4356.410256,4583.589743,4560.512820,4116.923076,4566.666666,4212.307692,4457.435897,4203.589743,4208.717948,4537.435897,4336.410256,4634.358974,3972.820513,4051.282051
227,4356.923076,4584.102564,4559.487179,4121.538461,4567.179487,4216.923076,4456.410256,4204.102564,4208.205128,4541.025641,4344.615384,4636.410256,3975.897436,4050.256410
228,4366.153846,4593.333333,4566.153846,4127.179487,4578.461538,4225.128205,4458.974358,4210.769230,4216.923076,4536.923076,4358.461538,4644.102564,3987.179488,4058.974358
229,4366.666666,4598.461538,4566.666666,4116.923076,4576.410256,4225.641025,4459.487179,4212.820512,4220.000000,4538.461538,4351.282051,4643.589743,3986.153847,4059.487179
230,4361.538461,4592.307692,4561.538461,4118.974358,4561.025641,4224.102564,4460.000000,4206.153846,4209.743589,4536.410256,4350.769230,4638.974358,3985.641026,4056.410256
231,4364.615384,4586.666666,4565.128205,4137.435897,4567.179487,4226.666666,4463.589743,4206.666666,4209.230769,4533.846153,4365.641025,4641.025641,3986.153847,4061.025641
232,4373.333333,4588.717948,4575.384615,4136.923076,4578.974358,4227.179487,4462.564102,4215.384615,4223.589743,4549.230769,4373.333333,4648.717948,3985.128206,4064.615384
233,4375.384615,4597.948717,4575.897435,4120.512820,4572.307692,4222.051282,4454.358974,4215.897435,4228.205128,4557.948717,4370.769230,4650.769230,3993.846154,4063.589743
234,4371.282051,4603.589743,4570.769230,4128.717948,4569.743589,4222.564102,4455.384615,4213.846153,4227.179487,4550.769230,4365.128205,4649.230769,4004.615384,4066.666666
235,4369.743589,4598.974358,4571.794871,4146.153846,4575.384615,4228.717948,4464.102564,4222.051282,4235.384615,4550.769230,4367.179487,4650.256410,4003.589743,4069.743589
236,4368.717948,4591.794871,4571.282051,4133.333333,4572.820512,4226.666666,4462.051282,4223.589743,4234.358974,4550.769230,4375.384615,4647.692307,3994.871795,4063.589743
237,4368.205128,4592.820512,4567.692307,4114.871794,4571.282051,4223.076923,4456.410256,4213.333333,4223.589743,4547.692307,4364.615384,4642.051282,3987.179488,4056.923076
238,4366.153846,4592.820512,4565.128205,4118.974358,4575.384615,4223.076923,4461.538461,4208.717948,4217.948717,4544.102564,4344.615384,4642.051282,3981.538462,4054.871794
239,4360.512820,4579.487179,4562.051282,4125.641025,4569.230769,4216.410256,4459.487179,4205.128205,4210.256410,4534.358974,4349.230769,4642.051282,3976.410257,4051.282051
240,4361.538461,4571.794871,4562.564102,4127.179487,4560.000000,4209.743589,4447.692307,4199.487179,4202.564102,4528.205128,4361.025641,4639.487179,3974.871795,4050.256410
241,4368.205128,4584.615384,4566.666666,4123.076923,4558.974358,4212.307692,4445.128205,4198.974358,4204.102564,4534.358974,4352.307692,4639.487179,3975.897436,4053.333333
242,4369.230769,4591.282051,4570.769230,4118.974358,4566.666666,4212.820512,4455.384615,4203.076923,4208.205128,4536.410256,4346.153846,4640.512820,3978.461539,4054.871794
243,4362.051282,4578.974358,4569.743589,4123.589743,4570.769230,4213.333333,4461.538461,4208.205128,4211.794871,4537.948717,4353.333333,4642.564102,3976.923077,4054.871794
244,4357.435897,4573.846153,4564.102564,4125.641025,4564.102564,4219.487179,4458.974358,4209.230769,4215.384615,4542.564102,4354.358974,4642.051282,3975.897436,4054.358974
245,4359.487179,4582.564102,4559.487179,4113.846153,4564.615384,4223.076923,4457.948717,4205.641025,4212.307692,4537.948717,4355.384615,4637.948717,3976.923077,4052.820512
246,4365.641025,4592.820512,4563.076923,4107.179487,4576.410256,4223.589743,4465.128205,4207.692307,4214.358974,4541.025641,4364.615384,4641.025641,3983.076924,4055.897435
247,4374.871794,4595.897435,4572.820512,4113.333333,4579.487179,4227.692307,4469.743589,4216.923076,4228.717948,4555.384615,4364.102564,4651.282051,3990.769231,4063.076923
248,4381.538461,4593.333333,4577.948717,4116.410256,4577.435897,4227.692307,4462.564102,4216.923076,4234.871794,4556.923076,4367.179487,4657.435897,3990.256411,4068.205128
249,4387.692307,4598.974358,4581.025641,4113.846153,4578.461538,4224.615384,4459.487179,4218.974358,4234.358974,4556.410256,4383.589743,4661.025641,3999.487180,4075.897435
250,4388.205128,4606.666666,4585.128205,4106.666666,4575.384615,4222.564102,4462.564102,4229.743589,4241.538461,4572.820512,4387.179487,4665.128205,4011.794871,4080.000000
251,4380.000000,4602.051282,4580.000000,4098.461538,4570.256410,4221.025641,4460.512820,4223.589743,4239.487179,4575.384615,4381.025641,4660.000000,4001.538461,4071.282051
252,4370.256410,4586.666666,4568.205128,4091.282051,4568.205128,4223.589743,4464.102564,4211.282051,4228.717948,4552.820512,4384.615384,4650.769230,3986.153847,4063.076923
253,4367.179487,4578.974358,4564.615384,4088.717948,4565.128205,4231.282051,4477.435897,4218.461538,4231.282051,4549.230769,4376.923076,4650.256410,3992.820513,4064.102564
254,4371.794871,4586.666666,4566.153846,4086.666666,4565.641025,4233.333333,4479.487179,4224.102564,4232.307692,4558.974358,4360.000000,4649.230769,3995.384616,4062.051282
255,4373.333333,4591.794871,4561.538461,4073.846153,4572.307692,4230.256410,4470.769230,4214.358974,4223.076923,4550.769230,4357.948717,4643.589743,3980.000000,4058.974358
