,AF3,F7,F3,FC5,T7,P7,O1,O2,P8,T8,FC6,F4,F8,AF4
0,4397.435897,4547.179487,4544.615384,4266.153846,4503.589743,4198.974358,4456.923076,4203.076923,4251.282051,4503.076923,4209.743589,4655.897435,3987.179488,4034.358974
1,4391.282051,4537.948717,4534.871794,4263.076923,4492.307692,4194.358974,4448.205128,4198.461538,4241.025641,4489.230769,4194.358974,4648.205128,3977.435898,4025.641025
2,4385.128205,4532.820512,4531.794871,4260.000000,4489.230769,4194.871794,4452.307692,4202.051282,4237.435897,4483.076923,4190.769230,4648.205128,3973.846154,4022.051282
3,4394.358974,4542.564102,4543.076923,4262.051282,4503.076923,4201.538461,4463.589743,4215.897435,4255.897435,4501.025641,4202.564102,4658.461538,3987.179488,4033.333333
4,4403.589743,4546.153846,4546.666666,4263.589743,4511.282051,4205.641025,4465.128205,4220.000000,4264.615384,4512.307692,4207.179487,4660.512820,3993.846154,4038.461538
5,4399.487179,4540.512820,4541.025641,4262.564102,4501.025641,4202.051282,4460.512820,4212.820512,4249.743589,4503.589743,4200.512820,4653.333333,3988.205129,4034.871794
6,4397.435897,4543.589743,4543.589743,4261.025641,4496.410256,4201.025641,4460.000000,4211.282051,4245.128205,4501.538461,4198.974358,4653.333333,3989.230770,4035.897435
7,4401.025641,4552.307692,4548.205128,4261.538461,4507.179487,4209.743589,4464.615384,4217.435897,4260.000000,4509.230769,4206.153846,4657.435897,3992.820513,4037.948717
8,4401.025641,4552.820512,4544.615384,4262.564102,4509.743589,4214.871794,4470.769230,4218.974358,4266.666666,4509.743589,4210.256410,4654.871794,3990.769231,4033.846153
9,4393.846153,4543.076923,4535.384615,4259.487179,4497.948717,4205.641025,4465.641025,4209.743589,4254.871794,4505.128205,4202.051282,4648.717948,3987.179488,4027.692307
10,4386.153846,4534.871794,4531.794871,4250.256410,4490.769230,4198.461538,4456.410256,4200.512820,4245.641025,4504.102564,4193.333333,4648.205128,3985.641026,4026.153846
11,4387.179487,4533.846153,4534.871794,4247.179487,4495.384615,4201.538461,4457.948717,4201.025641,4248.717948,4501.025641,4196.410256,4649.230769,3986.153847,4028.205128
12,4392.307692,4538.461538,4532.820512,4249.743589,4496.923076,4201.538461,4458.461538,4201.538461,4250.769230,4496.410256,4202.051282,4648.205128,3987.692308,4028.205128
13,4393.333333,4540.000000,4530.256410,4250.769230,4492.307692,4197.948717,4454.871794,4196.923076,4245.128205,4499.487179,4202.051282,4648.205128,3987.692308,4027.692307
14,4391.282051,4537.435897,4533.846153,4253.333333,4492.820512,4197.948717,4456.410256,4201.538461,4245.641025,4506.153846,4201.538461,4649.743589,3989.743590,4030.769230
15,4399.487179,4543.076923,4542.051282,4261.538461,4503.076923,4205.641025,4464.615384,4214.358974,4260.512820,4511.794871,4208.205128,4661.025641,4001.025641,4038.974358
16,4410.769230,4553.846153,4548.205128,4271.794871,4509.743589,4214.871794,4472.820512,4219.487179,4271.794871,4521.538461,4216.923076,4674.871794,4011.794871,4046.153846
17,4407.179487,4557.435897,4551.794871,4272.820512,4506.153846,4216.923076,4472.820512,4218.461538,4269.743589,4526.666666,4220.512820,4673.846153,4005.128205,4042.051282
18,4396.923076,4550.769230,4545.641025,4265.641025,4505.641025,4212.307692,4464.102564,4214.871794,4260.512820,4517.948717,4215.384615,4664.615384,3990.256411,4033.846153
19,4394.358974,4542.051282,4534.871794,4263.076923,4506.666666,4204.102564,4458.974358,4205.641025,4253.333333,4506.153846,4204.102564,4662.051282,3983.589744,4033.333333
20,4399.487179,4543.076923,4537.948717,4269.743589,4506.153846,4207.179487,4461.025641,4207.692307,4256.410256,4507.692307,4207.179487,4663.589743,3989.743590,4035.897435
21,4400.000000,4552.820512,4544.102564,4272.307692,4507.692307,4213.846153,4463.076923,4213.333333,4259.487179,4512.820512,4215.897435,4665.128205,3995.897436,4036.410256
22,4395.897435,4554.358974,4538.974358,4265.641025,4505.641025,4209.230769,4460.000000,4205.641025,4250.769230,4510.256410,4207.179487,4661.538461,3994.358975,4034.871794
23,4397.948717,4550.256410,4538.461538,4267.179487,4502.564102,4205.128205,4458.974358,4203.589743,4243.589743,4509.230769,4203.076923,4660.512820,3990.256411,4033.846153
24,4402.564102,4554.871794,4544.102564,4273.333333,4506.153846,4208.717948,4461.538461,4208.717948,4250.769230,4513.846153,4212.307692,4666.666666,3990.769231,4039.487179
25,4400.000000,4556.923076,4540.512820,4268.205128,4507.179487,4204.615384,4460.512820,4203.076923,4251.282051,4511.282051,4208.205128,4666.666666,3994.358975,4043.589743
26,4400.512820,4550.256410,4539.487179,4261.538461,4502.564102,4201.025641,4458.461538,4201.025641,4246.153846,4508.205128,4203.076923,4665.128205,3996.923077,4038.974358
27,4403.589743,4544.102564,4545.128205,4262.564102,4504.615384,4205.128205,4461.025641,4208.205128,4248.717948,4510.769230,4209.743589,4667.692307,3994.871795,4034.871794
28,4395.897435,4537.948717,4539.487179,4260.000000,4501.538461,4203.076923,4459.487179,4202.051282,4248.205128,4504.615384,4204.615384,4661.025641,3987.692308,4033.846153
29,4391.794871,4544.102564,4532.307692,4260.512820,4495.897435,4200.512820,4456.410256,4196.410256,4245.128205,4503.076923,4194.871794,4657.435897,3986.153847,4032.820512
30,4398.461538,4555.384615,4536.923076,4268.717948,4501.538461,4204.102564,4457.948717,4202.051282,4249.230769,4515.384615,4199.487179,4666.153846,3993.846154,4034.871794
31,4395.384615,4547.692307,4538.461538,4263.076923,4499.487179,4202.564102,4450.256410,4199.487179,4246.153846,4514.358974,4202.051282,4661.025641,3992.307693,4031.794871
32,4384.102564,4533.846153,4529.230769,4252.307692,4486.666666,4200.000000,4440.000000,4193.333333,4234.358974,4500.000000,4198.974358,4648.205128,3990.256411,4022.051282
33,4388.205128,4541.538461,4526.153846,4257.435897,4495.384615,4200.000000,4447.692307,4196.410256,4236.410256,4506.153846,4207.692307,4653.846153,3996.410257,4025.641025
34,4397.948717,4553.333333,4533.333333,4268.205128,4508.717948,4202.564102,4461.025641,4205.128205,4253.846153,4524.102564,4216.410256,4663.076923,3996.410257,4038.974358
35,4392.307692,4546.666666,4533.846153,4263.589743,4496.410256,4203.589743,4457.435897,4205.641025,4251.282051,4514.358974,4207.179487,4655.384615,3991.282052,4036.410256
36,4386.666666,4535.384615,4525.128205,4248.205128,4485.641025,4202.051282,4449.230769,4197.435897,4231.794871,4496.923076,4194.358974,4648.205128,3992.307693,4022.564102
37,4393.333333,4537.435897,4527.179487,4250.256410,4494.871794,4200.000000,4453.333333,4198.461538,4233.846153,4505.128205,4201.538461,4657.435897,3998.461539,4024.615384
38,4401.025641,4546.153846,4540.000000,4265.128205,4504.102564,4202.564102,4461.025641,4207.179487,4250.769230,4515.384615,4217.435897,4668.717948,4004.102564,4039.487179
39,4402.564102,4551.794871,4541.025641,4267.692307,4505.641025,4206.666666,4461.538461,4208.205128,4250.256410,4510.769230,4216.410256,4666.666666,4006.666666,4042.564102
40,4400.512820,4554.358974,4533.333333,4263.076923,4507.179487,4207.692307,4460.000000,4203.589743,4245.641025,4508.205128,4204.615384,4662.564102,3997.435898,4035.384615
41,4394.871794,4553.333333,4533.333333,4266.153846,4505.641025,4205.641025,4459.487179,4203.076923,4249.230769,4509.743589,4203.076923,4662.051282,3988.205129,4030.769230
42,4390.769230,4545.128205,4534.871794,4267.179487,4497.435897,4202.564102,4457.948717,4204.102564,4246.666666,4507.179487,4202.564102,4658.461538,3990.769231,4028.717948
43,4389.230769,4540.000000,4528.717948,4260.512820,4490.256410,4199.487179,4455.897435,4200.512820,4237.435897,4503.076923,4191.794871,4653.333333,3991.282052,4027.692307
44,4389.743589,4542.564102,4526.153846,4260.000000,4492.307692,4200.000000,4453.846153,4197.948717,4234.358974,4503.589743,4185.641025,4652.307692,3987.179488,4027.692307
45,4392.820512,4549.743589,4531.282051,4261.538461,4500.000000,4201.025641,4456.410256,4198.974358,4242.051282,4508.717948,4192.820512,4655.384615,3986.153847,4030.256410
46,4394.358974,4552.307692,4534.871794,4262.051282,4497.948717,4201.025641,4456.923076,4201.025641,4245.641025,4509.230769,4200.512820,4662.051282,3990.256411,4036.410256
47,4394.358974,4551.282051,4533.846153,4262.051282,4491.794871,4201.025641,4447.692307,4199.487179,4234.871794,4504.615384,4200.512820,4662.051282,3990.256411,4037.435897
48,4398.974358,4552.820512,4530.256410,4263.589743,4496.923076,4200.512820,4440.512820,4196.923076,4230.769230,4503.589743,4198.974358,4655.897435,3988.205129,4034.358974
49,4399.487179,4553.846153,4530.769230,4261.025641,4506.153846,4197.948717,4448.717948,4199.487179,4240.000000,4506.666666,4198.974358,4657.435897,3993.333334,4035.384615
50,4398.461538,4553.333333,4534.358974,4260.000000,4506.153846,4200.000000,4458.974358,4202.564102,4246.666666,4508.717948,4201.025641,4662.564102,4001.538461,4039.487179
51,4400.512820,4551.794871,4533.333333,4264.102564,4498.461538,4202.051282,4455.384615,4200.000000,4242.051282,4505.641025,4203.076923,4660.000000,3997.948718,4036.923076
52,4398.461538,4549.743589,4528.205128,4262.564102,4491.794871,4193.846153,4445.641025,4192.820512,4234.871794,4495.384615,4200.000000,4651.282051,3987.692308,4027.179487
53,4394.358974,4551.282051,4525.128205,4259.487179,4490.769230,4187.692307,4439.487179,4191.794871,4232.307692,4493.333333,4192.307692,4649.230769,3985.641026,4022.564102
54,4394.358974,4550.769230,4525.641025,4263.589743,4490.769230,4195.897435,4443.589743,4197.948717,4232.820512,4503.076923,4184.102564,4650.256410,3989.743590,4030.769230
55,4396.923076,4546.153846,4529.230769,4267.179487,4493.846153,4203.076923,4454.871794,4204.102564,4235.897435,4508.205128,4189.230769,4649.230769,3991.282052,4036.410256
56,4393.846153,4543.076923,4529.743589,4262.564102,4500.000000,4201.025641,4459.487179,4203.076923,4239.487179,4505.641025,4198.974358,4649.230769,3986.153847,4030.256410
57,4389.230769,4540.000000,4522.051282,4259.487179,4495.897435,4197.435897,4455.384615,4198.461538,4241.538461,4506.666666,4193.333333,4647.179487,3982.564103,4025.641025
58,4394.871794,4542.564102,4522.051282,4263.076923,4495.897435,4200.512820,4456.410256,4204.615384,4242.564102,4510.256410,4188.717948,4647.692307,3991.794872,4032.307692
59,4403.076923,4550.256410,4534.358974,4265.641025,4504.102564,4204.102564,4462.051282,4216.410256,4249.230769,4510.256410,4198.974358,4656.410256,3998.461539,4039.487179
60,4399.487179,4548.717948,4535.897435,4264.615384,4501.025641,4203.076923,4462.051282,4219.487179,4251.282051,4506.666666,4200.512820,4660.000000,3992.820513,4035.384615
61,4392.307692,4537.435897,4526.153846,4260.000000,4494.871794,4201.025641,4460.000000,4215.384615,4245.641025,4505.128205,4190.769230,4651.794871,3986.153847,4029.230769
62,4395.897435,4535.897435,4526.666666,4260.512820,4502.051282,4203.589743,4458.974358,4216.923076,4247.179487,4509.743589,4196.923076,4651.794871,3988.717949,4033.333333
63,4398.974358,4547.179487,4535.897435,4265.128205,4507.692307,4205.128205,4461.025641,4223.076923,4251.794871,4510.769230,4209.230769,4660.512820,3994.358975,4040.000000
64,4393.333333,4549.743589,4535.897435,4266.153846,4500.512820,4202.564102,4460.000000,4216.410256,4244.102564,4506.666666,4200.512820,4656.923076,3985.641026,4033.333333
65,4390.256410,4542.051282,4532.307692,4262.564102,4494.871794,4200.000000,4453.846153,4202.564102,4238.461538,4505.128205,4191.794871,4649.743589,3971.282052,4023.076923
66,4397.435897,4536.923076,4538.461538,4260.512820,4497.435897,4201.025641,4454.358974,4205.641025,4247.179487,4508.205128,4196.923076,4652.307692,3980.000000,4029.743589
67,4401.538461,4542.051282,4539.487179,4263.589743,4504.615384,4203.589743,4460.512820,4212.820512,4251.282051,4509.743589,4195.897435,4656.410256,3991.794872,4038.974358
68,4396.410256,4543.076923,4535.384615,4265.128205,4507.692307,4204.615384,4462.051282,4206.666666,4243.589743,4507.692307,4184.615384,4653.333333,3980.000000,4036.923076
69,4396.410256,4537.948717,4537.435897,4261.025641,4500.512820,4203.076923,4460.512820,4201.538461,4242.051282,4505.641025,4184.615384,4652.820512,3968.205129,4032.307692
70,4403.076923,4545.128205,4538.974358,4261.538461,4497.435897,4203.076923,4461.538461,4206.666666,4248.205128,4507.179487,4195.897435,4657.435897,3974.871795,4032.820512
71,4403.589743,4554.871794,4538.974358,4269.743589,4502.564102,4208.717948,4460.000000,4208.205128,4249.230769,4507.179487,4198.461538,4655.384615,3980.000000,4035.897435
72,4403.589743,4555.384615,4542.051282,4278.974358,4508.717948,4214.358974,4457.948717,4205.128205,4248.205128,4508.717948,4198.461538,4654.871794,3984.615385,4040.512820
73,4408.205128,4555.897435,4542.051282,4280.000000,4508.205128,4215.384615,4461.025641,4207.179487,4254.358974,4511.794871,4206.153846,4659.487179,3991.794872,4048.205128
74,4403.589743,4553.333333,4529.743589,4267.692307,4503.076923,4208.205128,4458.461538,4202.564102,4249.743589,4508.717948,4203.589743,4654.358974,3983.589744,4040.512820
75,4395.384615,4547.179487,4525.128205,4260.000000,4503.076923,4201.025641,4453.846153,4197.948717,4238.974358,4504.102564,4192.820512,4645.641025,3970.256411,4024.102564
76,4396.410256,4546.666666,4530.256410,4264.102564,4506.153846,4202.051282,4455.384615,4198.461538,4240.512820,4505.128205,4195.384615,4646.666666,3972.307693,4023.589743
77,4401.025641,4547.179487,4529.743589,4265.128205,4503.589743,4204.615384,4453.846153,4195.897435,4242.564102,4505.128205,4200.512820,4647.692307,3983.589744,4031.282051
78,4395.897435,4541.025641,4523.589743,4260.000000,4496.923076,4201.538461,4446.153846,4187.179487,4232.307692,4495.897435,4188.205128,4638.974358,3974.871795,4026.666666
79,4386.666666,4536.923076,4523.076923,4258.461538,4493.333333,4198.461538,4442.051282,4179.487179,4225.641025,4486.666666,4183.589743,4633.846153,3955.384616,4014.871794
80,4390.769230,4539.487179,4531.794871,4259.487179,4494.358974,4201.538461,4445.641025,4189.230769,4233.333333,4493.846153,4202.051282,4643.076923,3967.179488,4023.589743
81,4403.076923,4544.615384,4535.897435,4261.025641,4492.307692,4203.589743,4448.717948,4200.000000,4244.615384,4510.769230,4212.307692,4654.871794,3993.333334,4040.512820
82,4402.051282,4551.794871,4534.358974,4265.128205,4491.794871,4199.487179,4446.666666,4193.846153,4247.179487,4511.794871,4204.615384,4655.897435,3994.871795,4041.025641
83,4394.358974,4550.769230,4532.820512,4266.153846,4492.820512,4194.871794,4442.051282,4184.615384,4237.948717,4504.102564,4199.487179,4651.794871,3985.128206,4034.358974
84,4396.923076,4542.564102,4529.743589,4262.051282,4491.794871,4195.384615,4442.051282,4184.615384,4227.692307,4502.051282,4198.974358,4653.333333,3983.076924,4031.794871
85,4398.461538,4538.974358,4526.153846,4257.948717,4492.307692,4197.948717,4446.153846,4185.641025,4231.282051,4495.384615,4197.435897,4649.743589,3976.923077,4026.666666
86,4393.846153,4538.974358,4525.641025,4260.000000,4493.333333,4200.512820,4446.153846,4188.205128,4233.846153,4494.871794,4198.461538,4643.076923,3969.230770,4021.025641
87,4394.358974,4537.948717,4527.179487,4263.589743,4491.282051,4194.358974,4445.128205,4194.358974,4231.282051,4502.564102,4197.948717,4645.128205,3971.282052,4028.205128
88,4400.512820,4540.512820,4525.641025,4263.076923,4490.769230,4187.179487,4445.128205,4193.846153,4231.794871,4501.025641,4197.948717,4650.256410,3979.487180,4036.410256
89,4401.025641,4545.128205,4521.025641,4260.512820,4494.358974,4190.769230,4447.179487,4190.769230,4232.820512,4493.846153,4200.000000,4650.769230,3989.230770,4035.384615
90,4397.435897,4541.538461,4518.461538,4260.512820,4493.333333,4191.282051,4446.153846,4188.205128,4231.282051,4493.333333,4197.948717,4646.153846,3987.692308,4032.820512
91,4398.974358,4541.538461,4522.051282,4262.051282,4488.717948,4186.153846,4446.666666,4189.230769,4235.384615,4503.076923,4200.512820,4647.179487,3985.641026,4036.923076
92,4406.666666,4552.307692,4530.769230,4264.615384,4490.256410,4187.692307,4452.820512,4198.974358,4246.153846,4518.461538,4214.358974,4657.435897,3996.410257,4044.102564
93,4410.256410,4558.974358,4532.820512,4274.871794,4493.333333,4195.897435,4457.948717,4206.666666,4252.307692,4526.153846,4221.538461,4663.589743,4005.641025,4048.205128
94,4409.230769,4555.384615,4527.692307,4280.512820,4493.846153,4199.487179,4457.435897,4205.128205,4250.256410,4523.589743,4217.435897,4657.948717,4003.076923,4047.692307
95,4407.179487,4554.358974,4523.589743,4270.769230,4492.820512,4194.358974,4451.794871,4197.948717,4247.179487,4516.923076,4211.794871,4650.769230,3993.846154,4041.538461
96,4403.589743,4554.871794,4521.025641,4261.538461,4493.333333,4185.641025,4447.179487,4195.384615,4247.179487,4512.820512,4210.769230,4649.743589,3988.205129,4034.871794
97,4397.948717,4543.589743,4515.897435,4264.615384,4493.846153,4183.076923,4445.128205,4195.897435,4241.538461,4506.153846,4210.256410,4650.256410,3987.692308,4032.307692
98,4394.871794,4537.948717,4513.333333,4265.641025,4492.307692,4186.666666,4443.076923,4192.307692,4232.820512,4496.410256,4204.615384,4646.666666,3988.205129,4029.743589
99,4394.358974,4544.102564,4515.897435,4262.564102,4490.769230,4186.153846,4442.051282,4185.128205,4230.769230,4496.410256,4198.974358,4642.564102,3987.179488,4028.717948
100,4399.487179,4545.641025,4516.410256,4264.615384,4492.307692,4186.666666,4445.128205,4187.179487,4234.358974,4501.025641,4203.589743,4646.666666,3985.641026,4030.769230
101,4401.538461,4540.000000,4514.358974,4262.564102,4492.820512,4187.692307,4445.128205,4189.230769,4233.333333,4494.358974,4205.641025,4647.692307,3981.538462,4029.230769
102,4397.948717,4538.461538,4518.974358,4256.410256,4489.743589,4184.102564,4441.538461,4185.128205,4228.717948,4493.333333,4201.025641,4645.641025,3981.025642,4028.717948
103,4400.512820,4541.538461,4521.538461,4259.487179,4488.717948,4184.102564,4448.717948,4187.179487,4228.205128,4508.205128,4206.153846,4650.769230,3989.230770,4036.410256
104,4405.641025,4547.692307,4523.076923,4264.615384,4492.307692,4191.794871,4457.435897,4197.435897,4238.974358,4514.871794,4215.897435,4652.820512,3995.384616,4038.461538
105,4404.102564,4554.358974,4524.615384,4262.564102,4496.410256,4197.948717,4457.948717,4201.025641,4244.615384,4506.666666,4215.384615,4649.743589,3990.769231,4036.410256
106,4396.923076,4546.666666,4522.564102,4261.538461,4497.435897,4194.871794,4457.948717,4192.820512,4235.384615,4497.948717,4207.692307,4649.743589,3980.512821,4034.358974
107,4396.410256,4535.384615,4522.564102,4263.076923,4493.846153,4193.846153,4455.384615,4187.179487,4234.358974,4499.487179,4203.589743,4651.794871,3980.512821,4030.769230
108,4405.641025,4543.076923,4522.564102,4261.025641,4492.307692,4199.487179,4446.153846,4190.769230,4240.512820,4510.769230,4203.589743,4651.794871,3986.153847,4031.282051
109,4409.230769,4554.871794,4522.564102,4264.615384,4497.948717,4200.512820,4445.641025,4194.871794,4241.025641,4510.256410,4207.179487,4651.282051,3987.692308,4035.897435
110,4408.717948,4553.846153,4524.102564,4271.282051,4501.538461,4197.435897,4455.384615,4194.358974,4238.974358,4500.512820,4212.820512,4653.846153,3987.692308,4037.948717
111,4409.743589,4550.769230,4523.589743,4270.769230,4496.923076,4198.974358,4461.025641,4193.333333,4237.435897,4503.076923,4215.384615,4655.384615,3986.153847,4036.410256
112,4408.205128,4554.358974,4520.000000,4269.230769,4493.846153,4201.025641,4460.512820,4199.487179,4241.025641,4511.282051,4215.897435,4655.897435,3984.102565,4036.923076
113,4401.025641,4553.333333,4520.512820,4268.717948,4495.384615,4195.384615,4453.333333,4202.564102,4245.128205,4504.615384,4208.205128,4653.846153,3982.051283,4035.384615
114,4397.435897,4550.769230,4516.410256,4265.641025,4492.820512,4187.179487,4444.102564,4192.307692,4236.410256,4493.333333,4201.025641,4645.641025,3977.948718,4029.743589
115,4397.435897,4552.307692,4509.743589,4263.589743,4489.230769,4186.153846,4442.564102,4183.076923,4226.666666,4492.820512,4204.615384,4638.461538,3972.820513,4026.666666
116,4395.897435,4548.717948,4512.820512,4264.615384,4491.282051,4189.743589,4445.641025,4188.205128,4232.820512,4496.410256,4209.230769,4643.076923,3974.358975,4027.692307
117,4395.384615,4548.205128,4514.871794,4264.102564,4489.230769,4188.205128,4443.589743,4192.820512,4233.846153,4498.974358,4207.179487,4649.743589,3977.948718,4026.666666
118,4394.358974,4551.282051,4511.794871,4264.102564,4487.179487,4186.153846,4444.615384,4194.358974,4232.307692,4504.102564,4205.128205,4648.205128,3981.025642,4026.666666
119,4393.846153,4547.179487,4515.384615,4264.102564,4492.820512,4187.179487,4447.692307,4202.051282,4246.153846,4509.743589,4204.615384,4647.179487,3987.692308,4034.358974
120,4397.948717,4542.564102,4516.923076,4266.666666,4489.230769,4187.179487,4445.641025,4203.076923,4252.307692,4512.307692,4202.051282,4649.230769,3989.743590,4033.333333
121,4394.871794,4542.564102,4505.641025,4263.589743,4479.487179,4184.615384,4441.538461,4189.230769,4238.974358,4502.564102,4200.512820,4643.589743,3975.897436,4018.974358
122,4389.743589,4539.487179,4499.487179,4255.897435,4484.615384,4182.051282,4441.538461,4186.666666,4230.256410,4493.846153,4205.128205,4642.051282,3967.692308,4015.897435
123,4398.461538,4537.948717,4513.333333,4261.025641,4490.256410,4183.589743,4443.589743,4197.948717,4233.846153,4498.461538,4214.871794,4653.333333,3983.076924,4030.256410
124,4406.666666,4541.538461,4521.538461,4265.641025,4486.666666,4186.153846,4445.128205,4195.384615,4237.435897,4502.051282,4217.948717,4657.948717,3997.948718,4040.512820
125,4397.948717,4540.512820,4514.358974,4258.461538,4484.102564,4184.102564,4442.051282,4182.564102,4232.820512,4494.871794,4211.282051,4651.794871,3991.794872,4036.923076
126,4389.743589,4537.948717,4511.794871,4257.435897,4478.974358,4176.923076,4434.358974,4182.564102,4221.025641,4488.717948,4203.589743,4648.717948,3984.615385,4028.717948
127,4395.384615,4538.461538,4515.897435,4264.615384,4473.846153,4176.410256,4433.846153,4186.153846,4218.461538,4493.846153,4205.641025,4650.256410,3987.692308,4028.205128
128,4400.512820,4539.487179,4515.384615,4265.641025,4481.025641,4182.564102,4438.461538,4183.589743,4228.205128,4499.487179,4211.282051,4649.743589,3989.230770,4034.358974
129,4395.897435,4542.051282,4511.794871,4263.589743,4482.564102,4183.076923,4432.307692,4183.076923,4232.307692,4496.410256,4209.743589,4647.692307,3987.692308,4035.897435
130,4395.384615,4541.025641,4512.307692,4265.128205,4473.333333,4180.000000,4430.256410,4183.076923,4228.205128,4494.358974,4210.256410,4650.256410,3987.692308,4032.307692
131,4404.615384,4541.025641,4516.410256,4264.102564,4480.000000,4182.564102,4441.025641,4185.128205,4230.769230,4503.589743,4216.923076,4653.333333,3986.666667,4033.333333
132,4408.205128,4542.564102,4520.000000,4264.102564,4490.769230,4186.666666,4444.615384,4192.307692,4242.051282,4510.769230,4217.948717,4650.769230,3990.769231,4038.974358
133,4406.153846,4542.051282,4522.051282,4270.256410,4491.794871,4184.615384,4440.000000,4198.461538,4246.666666,4505.128205,4213.846153,4651.794871,3999.487180,4041.025641
134,4409.230769,4541.538461,4525.641025,4277.435897,4492.307692,4187.179487,4445.641025,4199.487179,4240.512820,4505.128205,4221.025641,4661.025641,4001.538461,4045.128205
135,4412.820512,4543.076923,4529.230769,4279.487179,4492.820512,4194.358974,4455.384615,4198.974358,4236.410256,4508.205128,4227.179487,4667.179487,3998.461539,4050.256410
136,4411.794871,4542.564102,4528.717948,4277.948717,4490.769230,4191.282051,4455.897435,4201.025641,4241.025641,4504.102564,4223.076923,4665.641025,3994.358975,4046.666666
137,4409.230769,4547.179487,4528.717948,4278.461538,4490.256410,4186.666666,4452.307692,4201.538461,4245.128205,4508.205128,4219.487179,4661.025641,3995.897436,4041.538461
138,4407.692307,4552.820512,4528.205128,4278.974358,4492.820512,4192.820512,4451.282051,4200.512820,4246.153846,4516.923076,4219.487179,4657.435897,4001.025641,4043.589743
139,4407.179487,4546.153846,4524.102564,4278.974358,4492.307692,4194.871794,4451.794871,4200.512820,4242.564102,4513.333333,4220.512820,4656.923076,3998.974359,4046.153846
140,4409.230769,4537.435897,4523.589743,4278.461538,4491.282051,4186.666666,4447.179487,4197.948717,4232.820512,4502.564102,4215.897435,4653.846153,3989.743590,4044.102564
141,4409.743589,4540.000000,4522.051282,4271.282051,4490.769230,4182.564102,4442.564102,4192.820512,4231.794871,4502.564102,4213.846153,4651.794871,3986.153847,4044.615384
142,4409.743589,4544.615384,4520.000000,4263.076923,4490.256410,4187.179487,4446.153846,4192.307692,4236.923076,4507.692307,4216.410256,4655.897435,3993.333334,4045.128205
143,4408.205128,4542.051282,4522.564102,4266.153846,4491.794871,4186.666666,4446.153846,4195.897435,4237.435897,4503.076923,4213.846153,4655.897435,3995.897436,4042.564102
144,4408.205128,4538.974358,4527.692307,4273.333333,4491.794871,4183.589743,4442.051282,4200.000000,4242.564102,4499.487179,4215.384615,4655.897435,3989.230770,4045.128205
145,4412.820512,4543.589743,4530.256410,4274.358974,4490.769230,4190.769230,4448.205128,4199.487179,4247.179487,4509.230769,4224.615384,4662.564102,3988.717949,4053.846153
146,4418.974358,4547.179487,4531.282051,4277.948717,4494.358974,4201.538461,4459.487179,4201.025641,4249.230769,4519.487179,4224.615384,4668.717948,4002.051282,4058.461538
147,4416.410256,4543.589743,4531.282051,4282.051282,4495.897435,4196.410256,4458.974358,4203.589743,4248.205128,4515.897435,4215.384615,4664.102564,4007.179487,4054.871794
148,4406.666666,4536.923076,4525.128205,4276.923076,4490.256410,4182.564102,4446.666666,4194.358974,4237.435897,4501.025641,4215.897435,4654.871794,3993.846154,4045.128205
149,4401.538461,4531.794871,4517.948717,4272.820512,4487.179487,4182.051282,4441.025641,4183.589743,4230.256410,4493.846153,4214.871794,4650.256410,3981.025642,4036.410256
150,4404.102564,4529.743589,4519.487179,4274.358974,4491.282051,4186.153846,4445.128205,4187.179487,4233.333333,4495.384615,4208.205128,4650.769230,3981.025642,4036.923076
151,4405.641025,4532.820512,4525.641025,4274.358974,4489.230769,4182.564102,4445.128205,4192.307692,4231.282051,4492.307692,4207.692307,4653.333333,3982.564103,4040.000000
152,4407.692307,4536.923076,4529.743589,4275.897435,4487.179487,4183.076923,4445.128205,4192.307692,4227.692307,4492.307692,4212.307692,4656.923076,3985.128206,4043.589743
153,4415.384615,4540.000000,4531.794871,4288.717948,4498.974358,4193.846153,4455.384615,4198.974358,4238.974358,4502.051282,4215.384615,4658.974358,3991.282052,4053.846153
154,4417.435897,4541.538461,4529.230769,4292.820512,4505.128205,4200.512820,4460.000000,4205.128205,4246.666666,4507.692307,4216.923076,4656.923076,3993.333334,4054.871794
155,4411.282051,4540.512820,4522.564102,4274.871794,4496.923076,4195.384615,4454.358974,4201.538461,4245.128205,4507.179487,4217.435897,4655.897435,3989.743590,4048.205128
156,4409.743589,4532.820512,4520.512820,4260.512820,4489.230769,4187.179487,4449.743589,4199.487179,4246.666666,4508.205128,4213.333333,4655.384615,3988.717949,4050.256410
157,4410.769230,4527.179487,4518.974358,4270.769230,4492.307692,4183.589743,4444.615384,4200.512820,4243.076923,4508.205128,4206.666666,4650.256410,3989.230770,4049.230769
158,4412.820512,4532.307692,4520.000000,4283.076923,4501.025641,4189.230769,4446.153846,4200.000000,4241.025641,4505.641025,4208.205128,4650.769230,3986.153847,4045.641025
159,4412.820512,4539.487179,4526.666666,4281.025641,4500.000000,4194.358974,4455.897435,4200.512820,4242.564102,4508.205128,4216.410256,4656.410256,3986.153847,4051.282051
160,4411.794871,4537.948717,4528.717948,4278.461538,4492.820512,4188.717948,4454.871794,4201.025641,4237.948717,4506.153846,4215.384615,4652.820512,3989.743590,4053.846153
161,4411.794871,4534.358974,4522.564102,4283.076923,4490.256410,4183.076923,4445.128205,4197.948717,4235.897435,4504.102564,4209.743589,4648.717948,3989.230770,4048.717948
162,4412.820512,4535.384615,4520.512820,4283.076923,4492.307692,4187.179487,4444.615384,4196.410256,4246.153846,4508.717948,4213.333333,4650.769230,3989.230770,4050.769230
163,4413.333333,4536.923076,4524.102564,4281.538461,4497.435897,4195.384615,4453.846153,4200.512820,4252.820512,4508.717948,4216.923076,4652.307692,3989.230770,4052.307692
164,4412.820512,4537.435897,4526.666666,4284.102564,4504.102564,4196.410256,4456.410256,4198.461538,4244.615384,4506.153846,4212.307692,4651.794871,3986.666667,4049.230769
165,4412.307692,4536.923076,4526.666666,4287.692307,4502.564102,4192.307692,4451.282051,4191.282051,4236.923076,4505.641025,4208.205128,4651.794871,3984.102565,4051.282051
166,4414.871794,4535.897435,4528.717948,4291.282051,4492.820512,4192.820512,4451.794871,4194.358974,4240.512820,4505.641025,4213.846153,4654.871794,3986.153847,4055.897435
167,4418.974358,4538.461538,4532.820512,4289.230769,4494.871794,4198.461538,4459.487179,4200.512820,4248.205128,4506.666666,4216.410256,4655.897435,3991.794872,4057.948717
168,4413.333333,4536.410256,4530.769230,4283.076923,4505.641025,4201.538461,4459.487179,4198.461538,4246.666666,4508.205128,4206.666666,4651.282051,3990.769231,4053.333333
169,4405.641025,4527.692307,4524.615384,4280.000000,4506.666666,4196.410256,4455.897435,4195.897435,4238.974358,4501.538461,4197.435897,4646.153846,3985.641026,4044.615384
170,4407.179487,4523.589743,4521.538461,4278.974358,4497.948717,4191.794871,4460.512820,4198.461538,4237.435897,4497.435897,4195.897435,4645.128205,3985.641026,4043.076923
171,4406.666666,4525.128205,4521.538461,4278.974358,4490.769230,4188.717948,4458.974358,4197.435897,4240.512820,4503.076923,4204.102564,4644.102564,3988.205129,4043.589743
172,4403.589743,4519.487179,4516.923076,4275.384615,4490.256410,4183.589743,4449.743589,4195.384615,4242.051282,4509.230769,4214.871794,4644.615384,3984.102565,4040.512820
173,4406.666666,4518.974358,4516.410256,4272.820512,4491.794871,4188.717948,4450.769230,4201.538461,4252.820512,4518.974358,4218.974358,4648.205128,3987.692308,4041.538461
174,4413.846153,4531.282051,4523.076923,4273.333333,4491.282051,4196.410256,4457.948717,4204.615384,4262.051282,4524.102564,4216.923076,4650.256410,3996.410257,4046.666666
175,4414.871794,4536.410256,4522.564102,4277.948717,4493.333333,4193.846153,4457.435897,4202.564102,4257.948717,4518.974358,4217.948717,4649.743589,3999.487180,4052.307692
176,4413.846153,4532.307692,4520.512820,4284.615384,4499.487179,4190.256410,4455.384615,4207.179487,4254.871794,4516.410256,4226.153846,4652.307692,4006.153846,4057.948717
177,4422.051282,4534.871794,4526.666666,4287.692307,4505.641025,4197.435897,4460.512820,4218.461538,4264.615384,4522.564102,4233.846153,4658.461538,4014.358974,4062.564102
178,4426.153846,4541.538461,4533.333333,4289.743589,4508.717948,4203.076923,4462.564102,4221.025641,4268.717948,4526.666666,4233.333333,4659.487179,4012.307692,4057.948717
179,4418.461538,4534.871794,4526.666666,4286.666666,4501.025641,4195.384615,4457.948717,4208.717948,4253.333333,4521.538461,4221.538461,4651.794871,4004.102564,4049.230769
180,4412.820512,4526.153846,4518.974358,4282.051282,4492.820512,4189.743589,4454.358974,4198.974358,4244.615384,4511.282051,4214.871794,4649.230769,4000.000000,4048.717948
181,4415.384615,4527.692307,4520.000000,4284.615384,4501.025641,4196.410256,4450.256410,4197.435897,4244.615384,4504.102564,4220.000000,4648.205128,3996.923077,4049.230769
182,4411.794871,4527.692307,4518.974358,4285.128205,4506.666666,4195.384615,4442.564102,4188.205128,4233.846153,4504.102564,4212.307692,4638.974358,3991.794872,4037.948717
183,4405.641025,4519.487179,4514.358974,4280.512820,4494.871794,4187.692307,4441.025641,4182.051282,4228.717948,4504.102564,4203.589743,4635.897435,3995.897436,4032.307692
184,4410.769230,4518.461538,4516.410256,4277.435897,4488.717948,4189.743589,4449.743589,4194.358974,4242.564102,4506.666666,4216.923076,4646.666666,4002.564102,4042.051282
185,4417.435897,4527.179487,4521.538461,4283.076923,4495.897435,4194.871794,4451.794871,4203.076923,4247.692307,4512.820512,4226.153846,4653.333333,3999.487180,4048.717948
186,4415.897435,4526.666666,4522.564102,4286.153846,4497.435897,4192.307692,4449.743589,4198.461538,4239.487179,4510.256410,4222.051282,4651.282051,3999.487180,4047.179487
187,4413.846153,4523.076923,4527.179487,4281.538461,4493.846153,4191.282051,4453.846153,4198.974358,4243.589743,4506.666666,4225.641025,4651.794871,4005.128205,4044.615384
188,4416.923076,4524.102564,4531.282051,4280.000000,4491.794871,4189.743589,4452.307692,4202.051282,4253.333333,4508.717948,4226.666666,4655.897435,3997.435898,4044.102564
189,4418.461538,4524.615384,4525.641025,4279.487179,4489.230769,4185.641025,4443.589743,4200.000000,4246.153846,4507.179487,4215.384615,4655.897435,3988.717949,4044.102564
190,4417.435897,4526.153846,4524.102564,4272.820512,4490.769230,4186.666666,4444.615384,4195.897435,4235.897435,4503.589743,4213.333333,4653.333333,3997.435898,4045.641025
191,4414.871794,4526.153846,4530.769230,4272.820512,4493.333333,4187.179487,4447.692307,4194.358974,4240.512820,4505.128205,4217.948717,4651.282051,4004.615384,4047.179487
192,4415.384615,4522.564102,4533.846153,4285.641025,4490.256410,4190.256410,4446.666666,4197.435897,4243.589743,4507.692307,4214.358974,4652.307692,4000.512820,4045.128205
193,4422.564102,4522.564102,4534.358974,4288.717948,4495.897435,4200.000000,4455.384615,4200.512820,4238.974358,4508.205128,4216.923076,4658.461538,3998.974359,4048.717948
194,4425.128205,4528.205128,4534.871794,4282.051282,4504.615384,4201.025641,4460.512820,4199.487179,4239.487179,4506.153846,4225.128205,4659.487179,3998.461539,4056.923076
195,4419.487179,4528.717948,4527.179487,4282.564102,4498.974358,4191.282051,4450.769230,4198.461538,4240.000000,4504.102564,4223.589743,4653.846153,3993.846154,4055.897435
196,4414.358974,4523.589743,4521.025641,4282.564102,4490.256410,4185.128205,4444.102564,4196.923076,4238.974358,4506.666666,4215.897435,4649.743589,3997.948718,4047.179487
197,4413.846153,4521.538461,4522.564102,4275.897435,4491.282051,4186.153846,4442.564102,4197.435897,4243.076923,4508.205128,4212.307692,4649.230769,4002.051282,4042.564102
198,4412.307692,4522.564102,4521.538461,4274.358974,4494.871794,4186.666666,4443.589743,4198.974358,4238.974358,4506.153846,4214.871794,4649.230769,3996.923077,4044.615384
199,4414.871794,4525.128205,4522.564102,4278.974358,4495.897435,4191.282051,4452.307692,4200.512820,4235.384615,4508.717948,4219.487179,4653.333333,4000.512820,4052.307692
200,4418.974358,4525.641025,4526.153846,4277.948717,4493.846153,4195.897435,4456.410256,4202.051282,4243.589743,4505.128205,4221.538461,4653.333333,4007.179487,4057.948717
201,4413.333333,4524.615384,4522.051282,4273.846153,4494.871794,4192.307692,4446.153846,4199.487179,4242.564102,4494.871794,4215.384615,4643.589743,3996.923077,4047.692307
202,4410.769230,4522.564102,4521.538461,4274.871794,4498.974358,4192.307692,4440.000000,4195.897435,4236.410256,4498.461538,4210.769230,4641.538461,3987.692308,4037.435897
203,4417.435897,4525.128205,4527.179487,4280.000000,4502.051282,4202.051282,4449.230769,4201.538461,4244.615384,4508.205128,4214.871794,4650.769230,3993.333334,4046.153846
204,4419.487179,4524.102564,4524.615384,4281.538461,4501.538461,4202.051282,4457.948717,4206.153846,4248.205128,4506.153846,4216.923076,4651.282051,3994.358975,4052.307692
205,4413.333333,4520.512820,4522.051282,4280.512820,4496.923076,4195.384615,4457.948717,4204.102564,4242.051282,4504.102564,4214.871794,4645.128205,3989.743590,4045.641025
206,4413.333333,4527.692307,4528.717948,4278.974358,4495.384615,4199.487179,4456.410256,4204.615384,4244.615384,4512.307692,4215.384615,4649.230769,3992.820513,4044.102564
207,4416.410256,4532.820512,4528.205128,4278.974358,4495.897435,4200.512820,4453.333333,4204.102564,4243.076923,4513.333333,4212.307692,4653.846153,3994.871795,4045.128205
208,4412.307692,4524.615384,4519.487179,4281.025641,4492.307692,4192.307692,4446.666666,4197.435897,4233.846153,4504.102564,4206.153846,4646.666666,3992.307693,4042.051282
209,4408.205128,4520.000000,4518.974358,4277.948717,4493.333333,4191.282051,4442.564102,4199.487179,4235.384615,4507.179487,4209.743589,4646.666666,3993.846154,4047.179487
210,4416.410256,4525.641025,4529.230769,4278.974358,4502.051282,4200.000000,4448.205128,4208.717948,4246.153846,4517.948717,4224.615384,4660.000000,4003.076923,4058.974358
211,4425.641025,4526.666666,4534.871794,4285.128205,4497.435897,4201.025641,4449.743589,4207.179487,4247.692307,4515.384615,4233.846153,4667.179487,4007.179487,4060.000000
212,4424.615384,4523.076923,4534.871794,4284.615384,4494.358974,4196.923076,4444.102564,4201.025641,4241.025641,4505.641025,4229.230769,4665.128205,4002.564102,4055.384615
213,4420.000000,4524.615384,4537.948717,4280.512820,4503.589743,4198.461538,4443.589743,4204.615384,4244.102564,4507.179487,4220.000000,4667.179487,4002.564102,4058.461538
214,4420.512820,4525.641025,4536.923076,4281.538461,4503.589743,4199.487179,4446.153846,4206.666666,4248.717948,4512.307692,4217.435897,4668.205128,4004.102564,4058.974358
215,4416.410256,4523.076923,4531.282051,4278.974358,4500.000000,4196.923076,4443.076923,4200.512820,4242.564102,4508.717948,4220.000000,4663.589743,4001.025641,4052.307692
216,4408.205128,4518.461538,4532.307692,4275.384615,4503.589743,4197.435897,4446.666666,4197.948717,4239.487179,4505.128205,4218.461538,4663.076923,3998.461539,4045.641025
217,4415.384615,4525.641025,4540.000000,4281.025641,4504.615384,4205.128205,4457.435897,4205.128205,4245.641025,4512.820512,4215.384615,4668.205128,4000.000000,4048.205128
218,4429.230769,4536.923076,4545.128205,4288.205128,4506.153846,4210.769230,4462.051282,4214.358974,4250.769230,4519.487179,4215.897435,4670.256410,4003.589743,4056.410256
219,4427.179487,4532.307692,4542.051282,4284.615384,4508.205128,4210.769230,4460.512820,4215.897435,4248.205128,4517.948717,4223.589743,4668.717948,4005.128205,4060.000000
220,4420.000000,4523.076923,4539.487179,4281.025641,4504.102564,4209.230769,4462.051282,4211.794871,4246.666666,4516.410256,4230.769230,4668.205128,4005.128205,4058.461538
221,4423.076923,4524.102564,4540.512820,4283.076923,4504.615384,4206.153846,4462.564102,4214.358974,4252.307692,4521.025641,4225.641025,4671.282051,4000.512820,4053.333333
222,4423.589743,4524.615384,4541.538461,4280.000000,4507.179487,4208.205128,4460.512820,4214.871794,4251.282051,4517.948717,4214.871794,4671.794871,3993.333334,4050.769230
223,4418.974358,4522.051282,4540.000000,4276.923076,4506.153846,4214.358974,4459.487179,4206.153846,4240.512820,4508.205128,4215.897435,4665.641025,3994.358975,4053.846153
224,4420.000000,4527.692307,4533.846153,4282.564102,4508.717948,4209.743589,4458.974358,4206.666666,4237.435897,4510.769230,4220.000000,4659.487179,4002.051282,4056.923076
225,4415.897435,4523.076923,4527.692307,4283.076923,4505.641025,4200.000000,4455.897435,4211.794871,4247.179487,4515.384615,4216.923076,4656.410256,3998.461539,4051.282051
226,4409.230769,4508.717948,4530.256410,4277.435897,4497.948717,4202.051282,4452.820512,4208.717948,4249.743589,4512.307692,4213.846153,4656.410256,3991.282052,4043.589743
227,4409.230769,4511.794871,4532.820512,4278.974358,4500.512820,4202.564102,4446.666666,4201.538461,4236.410256,4506.153846,4210.769230,4654.871794,3994.358975,4043.589743
228,4413.333333,4524.615384,4529.230769,4287.692307,4503.589743,4198.461538,4443.076923,4198.974358,4229.743589,4506.666666,4209.230769,4654.358974,4002.051282,4050.256410
229,4418.974358,4533.846153,4533.333333,4293.333333,4502.564102,4201.538461,4452.820512,4208.205128,4240.512820,4515.897435,4218.461538,4660.000000,4007.179487,4057.435897
230,4422.051282,4534.871794,4542.051282,4290.769230,4502.564102,4202.051282,4457.435897,4215.897435,4248.717948,4522.051282,4224.615384,4664.102564,4005.128205,4056.410256
231,4421.538461,4527.692307,4539.487179,4283.076923,4496.410256,4199.487179,4447.179487,4210.256410,4246.153846,4517.435897,4222.051282,4662.564102,3998.974359,4051.282051
232,4420.000000,4520.000000,4534.358974,4276.410256,4492.820512,4198.974358,4442.564102,4205.641025,4246.153846,4512.820512,4215.897435,4662.564102,3997.435898,4050.769230
233,4420.000000,4523.076923,4541.538461,4276.410256,4503.076923,4200.512820,4447.692307,4212.307692,4246.153846,4515.897435,4216.410256,4665.641025,4002.564102,4054.358974
234,4422.051282,4528.205128,4547.179487,4281.538461,4507.692307,4200.512820,4446.153846,4216.410256,4242.051282,4516.923076,4226.153846,4666.666666,4006.153846,4061.538461
235,4424.102564,4525.128205,4543.589743,4282.051282,4501.538461,4200.000000,4447.179487,4213.846153,4249.230769,4518.461538,4234.871794,4670.256410,4008.205128,4062.564102
236,4425.128205,4526.666666,4546.153846,4280.512820,4504.615384,4203.589743,4456.923076,4219.487179,4263.589743,4522.564102,4235.384615,4675.384615,4013.333333,4061.025641
237,4427.179487,4529.230769,4552.307692,4285.128205,4508.717948,4204.615384,4462.051282,4227.179487,4265.128205,4526.666666,4236.410256,4674.871794,4017.435897,4064.615384
238,4426.666666,4526.153846,4546.153846,4288.717948,4505.641025,4201.538461,4457.948717,4224.102564,4255.897435,4526.153846,4237.948717,4670.256410,4013.846153,4063.589743
239,4415.897435,4522.051282,4535.384615,4283.589743,4504.102564,4199.487179,4447.692307,4214.358974,4249.230769,4516.410256,4226.666666,4660.000000,4005.128205,4053.333333
240,4410.769230,4523.589743,4535.384615,4280.512820,4501.025641,4200.000000,4442.564102,4211.282051,4245.641025,4510.256410,4213.846153,4652.307692,4001.538461,4048.205128
241,4418.461538,4526.153846,4538.461538,4283.076923,4495.384615,4200.512820,4446.153846,4215.384615,4244.615384,4515.384615,4216.923076,4653.846153,4006.666666,4053.846153
242,4417.435897,4522.051282,4533.333333,4279.487179,4492.820512,4198.974358,4447.179487,4212.307692,4246.153846,4514.871794,4216.923076,4652.820512,4008.205128,4052.307692
243,4411.282051,4521.538461,4529.743589,4273.333333,4491.794871,4196.923076,4442.051282,4207.692307,4242.564102,4506.666666,4210.769230,4647.179487,3997.435898,4044.615384
244,4415.384615,4523.076923,4532.307692,4275.897435,4493.846153,4197.948717,4445.128205,4210.256410,4238.974358,4508.717948,4211.794871,4647.692307,3987.692308,4044.615384
245,4422.564102,4525.128205,4539.487179,4280.000000,4502.051282,4202.051282,4456.410256,4213.846153,4245.128205,4512.820512,4216.410256,4653.846153,3994.871795,4051.282051
246,4424.102564,4531.794871,4542.051282,4280.512820,4508.205128,4203.589743,4462.051282,4216.923076,4247.179487,4511.282051,4213.333333,4657.435897,4003.589743,4052.820512
247,4418.461538,4531.282051,4537.435897,4283.076923,4505.641025,4200.000000,4453.333333,4216.923076,4236.410256,4507.179487,4211.794871,4657.948717,3996.923077,4046.666666
248,4412.307692,4522.051282,4533.333333,4283.076923,4503.589743,4197.435897,4441.025641,4213.333333,4232.307692,4505.128205,4214.871794,4653.333333,3988.717949,4041.025641
249,4416.923076,4521.538461,4535.897435,4281.538461,4505.128205,4200.000000,4446.153846,4212.307692,4242.051282,4507.179487,4215.384615,4652.820512,3993.846154,4045.128205
250,4428.205128,4529.743589,4539.487179,4289.743589,4505.128205,4201.025641,4459.487179,4217.435897,4249.743589,4514.358974,4215.384615,4660.000000,4005.641025,4055.384615
251,4423.589743,4525.641025,4536.923076,4288.205128,4503.589743,4197.948717,4453.333333,4213.333333,4243.076923,4516.410256,4212.820512,4657.948717,4003.076923,4053.846153
252,4416.410256,4521.538461,4536.410256,4279.487179,4504.102564,4197.435897,4442.564102,4206.153846,4239.487179,4507.692307,4210.769230,4654.871794,3993.846154,4046.153846
253,4425.641025,4533.846153,4547.179487,4284.615384,4506.666666,4202.051282,4453.333333,4212.820512,4247.179487,4508.717948,4220.512820,4664.615384,3996.923077,4053.846153
254,4431.282051,4541.025641,4556.410256,4287.179487,4507.179487,4203.589743,4464.102564,4221.025641,4251.282051,4522.051282,4231.282051,4673.846153,4004.615384,4066.153846
255,4429.230769,4536.923076,4556.923076,4283.076923,4506.666666,4202.564102,4458.974358,4218.974358,4253.333333,4525.641025,4230.769230,4675.384615,4010.256410,4069.230769
256,4431.282051,4534.871794,4555.897435,4290.769230,4508.205128,4202.051282,4457.435897,4217.948717,4255.897435,4522.051282,4229.230769,4676.410256,4018.461538,4068.205128
257,4434.358974,4540.000000,4552.820512,4298.461538,4507.692307,4201.538461,4460.000000,4220.000000,4253.333333,4524.102564,4233.846153,4675.384615,4023.076923,4068.205128
258,4431.794871,4539.487179,4547.179487,4294.358974,4505.641025,4201.538461,4457.948717,4217.948717,4247.179487,4526.666666,4229.230769,4672.307692,4019.487179,4066.666666
259,4429.230769,4530.769230,4549.230769,4294.871794,4505.128205,4201.538461,4457.435897,4214.871794,4248.205128,4522.051282,4217.948717,4670.256410,4017.435897,4064.102564
