,AF3,F7,F3,FC5,T7,P7,O1,O2,P8,T8,FC6,F4,F8,AF4
0,4440.512820,4535.897435,4542.051282,4265.128205,4495.384615,4198.461538,4447.692307,4232.307692,4244.615384,4506.666666,4228.717948,4658.461538,4023.589743,4088.717948
1,4428.205128,4535.384615,4535.897435,4263.589743,4489.230769,4198.974358,4442.564102,4222.051282,4234.871794,4495.384615,4212.820512,4652.820512,4012.820512,4077.948717
2,4425.641025,4532.307692,4535.384615,4265.641025,4489.743589,4201.538461,4442.564102,4216.923076,4230.769230,4495.897435,4207.692307,4652.307692,4006.153846,4075.897435
3,4430.256410,4533.846153,4539.487179,4263.589743,4494.358974,4199.487179,4444.102564,4223.076923,4233.846153,4506.153846,4217.435897,4655.897435,4017.435897,4084.615384
4,4433.846153,4536.410256,4540.000000,4256.410256,4492.307692,4201.538461,4445.641025,4224.102564,4235.897435,4504.615384,4211.794871,4658.461538,4021.538461,4082.051282
5,4428.205128,4523.076923,4532.820512,4250.769230,4488.717948,4201.025641,4445.641025,4217.948717,4229.743589,4489.743589,4199.487179,4650.769230,4003.076923,4067.692307
6,4425.641025,4516.410256,4530.256410,4256.923076,4491.282051,4198.974358,4450.769230,4216.410256,4228.205128,4487.692307,4204.615384,4642.564102,3997.435898,4066.153846
7,4437.435897,4531.794871,4536.923076,4265.128205,4494.871794,4202.051282,4457.948717,4220.512820,4233.333333,4498.974358,4213.846153,4647.179487,4010.769230,4075.897435
8,4445.641025,4539.487179,4538.974358,4262.564102,4495.897435,4204.102564,4456.410256,4223.589743,4232.820512,4504.615384,4204.615384,4652.820512,4012.820512,4077.435897
9,4446.666666,4536.923076,4538.461538,4262.051282,4495.897435,4202.564102,4452.820512,4225.128205,4233.333333,4507.179487,4194.871794,4652.820512,4007.692307,4074.871794
10,4455.384615,4538.461538,4542.564102,4266.153846,4496.923076,4204.615384,4452.307692,4223.076923,4236.923076,4506.666666,4205.641025,4654.358974,4012.307692,4079.487179
11,4461.025641,4534.358974,4542.051282,4257.948717,4492.820512,4197.948717,4445.128205,4213.333333,4228.205128,4491.794871,4213.846153,4652.307692,4013.333333,4077.435897
12,4449.743589,4524.102564,4534.358974,4247.692307,4487.692307,4190.256410,4438.974358,4207.179487,4214.871794,4477.435897,4203.589743,4644.615384,3998.461539,4066.666666
13,4441.025641,4520.512820,4530.769230,4247.692307,4487.179487,4193.333333,4443.589743,4210.256410,4216.923076,4480.512820,4194.358974,4637.948717,3985.128206,4064.102564
14,4448.717948,4520.000000,4533.333333,4249.230769,4490.256410,4191.282051,4444.102564,4215.897435,4226.153846,4489.743589,4202.051282,4640.000000,3988.717949,4070.256410
15,4457.948717,4521.025641,4536.923076,4252.307692,4490.769230,4188.717948,4441.025641,4223.076923,4236.923076,4496.410256,4211.282051,4650.769230,4004.615384,4074.358974
16,4460.000000,4531.794871,4541.538461,4258.461538,4490.769230,4197.948717,4447.179487,4231.794871,4245.128205,4505.128205,4215.384615,4659.487179,4015.897435,4077.435897
17,4463.076923,4542.051282,4545.128205,4263.589743,4493.333333,4203.589743,4451.794871,4230.769230,4242.564102,4512.307692,4217.435897,4658.461538,4017.948717,4082.564102
18,4465.641025,4540.000000,4544.102564,4261.025641,4495.384615,4198.974358,4447.692307,4217.435897,4232.307692,4509.743589,4214.871794,4654.871794,4014.871794,4082.051282
19,4461.025641,4533.333333,4538.974358,4253.333333,4493.846153,4196.410256,4441.538461,4212.307692,4224.102564,4498.974358,4208.717948,4654.871794,4009.743589,4077.948717
20,4456.410256,4526.666666,4534.871794,4247.179487,4491.794871,4196.410256,4441.538461,4214.871794,4221.025641,4495.897435,4203.076923,4649.230769,4009.230769,4073.846153
21,4460.000000,4522.051282,4535.897435,4248.205128,4491.794871,4194.871794,4444.102564,4215.384615,4223.589743,4497.435897,4203.589743,4645.128205,4012.820512,4069.743589
22,4462.564102,4529.230769,4536.923076,4250.769230,4492.820512,4195.897435,4444.102564,4222.564102,4230.256410,4496.410256,4210.256410,4649.230769,4008.717948,4070.769230
23,4461.025641,4536.410256,4539.487179,4248.717948,4492.820512,4198.461538,4444.102564,4230.769230,4235.897435,4500.512820,4214.358974,4654.358974,4005.641025,4075.897435
24,4461.025641,4529.743589,4542.051282,4248.717948,4491.282051,4197.948717,4445.641025,4225.641025,4237.948717,4505.641025,4213.333333,4652.820512,4001.025641,4072.820512
25,4458.974358,4518.461538,4534.871794,4249.230769,4489.230769,4190.769230,4438.461538,4216.923076,4232.820512,4495.897435,4205.641025,4645.128205,3990.769231,4064.102564
26,4458.461538,4520.512820,4529.230769,4247.179487,4488.717948,4184.102564,4427.692307,4214.871794,4225.128205,4487.692307,4197.435897,4644.102564,3991.794872,4064.102564
27,4469.743589,4532.820512,4541.538461,4249.230769,4490.256410,4185.641025,4432.820512,4215.384615,4229.230769,4495.897435,4197.435897,4652.820512,4008.205128,4074.871794
28,4476.410256,4536.410256,4546.153846,4252.820512,4490.769230,4191.282051,4442.564102,4216.923076,4233.333333,4496.923076,4206.666666,4656.923076,4013.846153,4076.923076
29,4470.769230,4531.282051,4537.948717,4249.743589,4494.358974,4196.410256,4447.179487,4224.615384,4230.256410,4489.230769,4215.897435,4650.769230,4004.615384,4069.230769
30,4472.820512,4532.820512,4542.051282,4252.307692,4502.564102,4204.102564,4457.435897,4232.307692,4237.435897,4495.384615,4209.743589,4652.307692,4002.051282,4070.256410
31,4476.923076,4540.000000,4547.179487,4260.512820,4501.025641,4204.615384,4461.538461,4230.256410,4243.076923,4503.589743,4195.384615,4657.948717,4003.589743,4075.384615
32,4466.153846,4536.923076,4536.923076,4256.923076,4490.256410,4192.820512,4445.128205,4221.025641,4228.717948,4497.948717,4192.307692,4651.282051,3998.461539,4069.743589
33,4452.307692,4526.666666,4531.794871,4248.205128,4486.666666,4186.153846,4435.384615,4213.333333,4220.512820,4489.230769,4200.512820,4644.102564,3998.461539,4064.102564
34,4448.717948,4523.589743,4534.871794,4249.743589,4488.205128,4186.666666,4441.538461,4207.179487,4225.641025,4490.256410,4202.564102,4647.692307,4001.025641,4067.179487
35,4448.717948,4526.666666,4535.897435,4252.820512,4488.205128,4188.205128,4443.589743,4204.615384,4226.153846,4493.846153,4195.897435,4650.769230,4001.538461,4071.794871
36,4445.128205,4525.641025,4537.948717,4249.230769,4490.769230,4191.282051,4441.025641,4209.743589,4225.128205,4494.358974,4193.333333,4645.128205,3997.948718,4069.743589
37,4441.025641,4520.000000,4537.948717,4247.692307,4492.307692,4191.282051,4441.025641,4213.333333,4222.564102,4491.794871,4203.589743,4642.564102,3993.846154,4065.641025
38,4450.769230,4526.153846,4537.435897,4257.435897,4487.179487,4185.128205,4442.564102,4212.307692,4220.512820,4488.205128,4214.358974,4648.717948,3995.384616,4069.743589
39,4459.487179,4538.461538,4544.102564,4263.589743,4484.102564,4184.615384,4443.076923,4214.871794,4227.692307,4488.717948,4209.743589,4655.897435,4004.615384,4075.384615
40,4449.230769,4535.897435,4547.179487,4255.897435,4486.666666,4188.717948,4441.538461,4216.410256,4232.820512,4494.358974,4203.076923,4655.897435,4008.205128,4072.307692
41,4440.000000,4528.717948,4542.564102,4246.153846,4489.743589,4186.153846,4441.538461,4216.923076,4229.743589,4500.000000,4210.769230,4656.410256,4004.615384,4071.794871
42,4443.589743,4529.230769,4540.512820,4248.205128,4490.256410,4185.128205,4444.102564,4222.564102,4233.846153,4497.948717,4217.948717,4658.461538,4005.128205,4076.923076
43,4445.128205,4531.282051,4541.025641,4258.461538,4489.230769,4188.717948,4443.589743,4228.717948,4236.410256,4494.871794,4209.743589,4656.410256,4005.128205,4073.333333
44,4443.589743,4529.230769,4538.974358,4263.076923,4489.743589,4186.153846,4440.000000,4230.256410,4230.769230,4500.512820,4199.487179,4651.282051,4000.512820,4064.102564
45,4444.615384,4527.179487,4536.923076,4254.358974,4490.256410,4183.589743,4442.564102,4225.128205,4232.820512,4501.538461,4200.512820,4647.692307,3997.435898,4063.589743
46,4445.128205,4525.641025,4538.974358,4248.717948,4489.230769,4189.230769,4444.615384,4218.461538,4233.846153,4492.307692,4204.615384,4647.692307,3998.461539,4066.153846
47,4442.051282,4522.564102,4537.948717,4256.410256,4488.205128,4193.333333,4446.153846,4216.410256,4225.128205,4487.692307,4197.435897,4647.179487,3999.487180,4061.538461
48,4439.487179,4526.153846,4535.897435,4259.487179,4491.282051,4194.871794,4450.769230,4222.051282,4222.564102,4492.820512,4194.358974,4646.666666,3998.974359,4062.564102
49,4440.512820,4537.948717,4538.461538,4260.000000,4496.923076,4200.512820,4454.871794,4228.717948,4232.307692,4500.000000,4208.205128,4650.256410,4001.538461,4069.743589
50,4443.589743,4539.487179,4538.461538,4264.102564,4498.461538,4198.461538,4451.282051,4225.641025,4230.256410,4500.000000,4212.820512,4651.282051,4000.000000,4066.666666
51,4441.538461,4531.794871,4534.358974,4257.435897,4494.358974,4186.153846,4445.128205,4217.435897,4216.923076,4490.769230,4203.076923,4647.179487,3990.256411,4057.948717
52,4437.435897,4529.743589,4533.846153,4247.179487,4490.256410,4182.564102,4442.051282,4215.384615,4214.871794,4484.615384,4194.871794,4645.128205,3985.128206,4054.358974
53,4438.461538,4530.256410,4536.923076,4251.794871,4490.769230,4188.717948,4441.538461,4218.974358,4218.974358,4489.230769,4191.794871,4645.128205,3986.153847,4055.897435
54,4442.564102,4523.589743,4539.487179,4258.974358,4492.820512,4187.692307,4444.102564,4222.564102,4221.025641,4491.282051,4188.717948,4645.641025,3987.179488,4056.923076
55,4444.102564,4525.128205,4543.589743,4255.384615,4491.794871,4189.230769,4451.794871,4227.692307,4227.692307,4489.743589,4189.230769,4649.743589,3988.717949,4055.897435
56,4444.102564,4535.897435,4544.615384,4250.256410,4491.794871,4196.923076,4458.974358,4232.307692,4233.333333,4498.461538,4196.923076,4654.358974,3992.820513,4056.923076
57,4452.820512,4540.000000,4542.564102,4250.256410,4493.846153,4200.512820,4459.487179,4232.307692,4230.769230,4502.564102,4199.487179,4651.794871,3994.358975,4060.512820
58,4459.487179,4538.974358,4542.564102,4250.256410,4494.358974,4199.487179,4456.410256,4231.282051,4230.769230,4498.461538,4191.282051,4648.205128,3993.846154,4056.410256
59,4452.307692,4534.358974,4543.589743,4251.282051,4493.333333,4200.000000,4460.512820,4233.333333,4233.846153,4501.025641,4183.076923,4651.282051,3994.871795,4051.794871
60,4442.051282,4525.128205,4539.487179,4250.256410,4490.769230,4201.538461,4462.564102,4235.897435,4227.179487,4501.025641,4183.076923,4651.794871,3988.205129,4053.333333
61,4440.512820,4523.076923,4530.256410,4246.666666,4489.230769,4198.461538,4457.435897,4233.333333,4221.538461,4492.820512,4185.641025,4644.102564,3981.025642,4051.282051
62,4444.102564,4535.384615,4530.769230,4248.205128,4490.769230,4197.435897,4458.461538,4231.794871,4225.641025,4494.871794,4188.717948,4642.051282,3989.230770,4050.769230
63,4446.666666,4538.974358,4535.384615,4250.769230,4493.333333,4201.025641,4461.538461,4228.717948,4227.692307,4500.000000,4189.743589,4647.692307,3997.948718,4052.820512
64,4445.128205,4524.615384,4529.230769,4247.692307,4492.307692,4198.461538,4451.794871,4218.974358,4222.051282,4490.769230,4181.025641,4644.615384,3990.256411,4047.692307
65,4442.051282,4518.974358,4522.051282,4246.153846,4488.717948,4187.692307,4445.128205,4212.820512,4216.923076,4486.153846,4178.461538,4637.948717,3978.974359,4042.051282
66,4445.641025,4525.641025,4526.666666,4246.666666,4488.717948,4185.641025,4451.282051,4222.564102,4220.000000,4496.923076,4185.641025,4640.000000,3980.512821,4044.615384
67,4446.666666,4524.102564,4529.743589,4245.641025,4489.743589,4190.769230,4450.769230,4228.205128,4222.564102,4500.512820,4190.769230,4645.128205,3983.589744,4045.641025
68,4443.589743,4518.461538,4524.102564,4243.076923,4487.692307,4187.692307,4442.051282,4222.564102,4221.538461,4494.871794,4188.205128,4644.615384,3980.000000,4044.102564
69,4449.743589,4521.538461,4524.102564,4244.102564,4488.205128,4186.666666,4442.051282,4224.102564,4223.076923,4494.358974,4182.564102,4641.025641,3982.051283,4047.692307
70,4454.358974,4525.128205,4524.615384,4242.051282,4491.282051,4190.769230,4445.128205,4225.128205,4222.564102,4494.871794,4184.102564,4637.435897,3987.179488,4045.641025
71,4447.179487,4524.102564,4522.051282,4235.897435,4487.692307,4189.230769,4443.589743,4224.102564,4224.102564,4492.820512,4189.230769,4635.384615,3984.102565,4040.000000
72,4443.076923,4521.025641,4523.076923,4234.871794,4482.564102,4184.615384,4443.589743,4225.641025,4226.153846,4493.333333,4182.564102,4635.897435,3978.461539,4041.025641
73,4443.589743,4519.487179,4520.512820,4242.564102,4486.153846,4184.102564,4443.589743,4225.641025,4224.102564,4493.333333,4175.384615,4633.846153,3976.410257,4042.564102
74,4446.153846,4525.128205,4518.974358,4246.666666,4491.282051,4189.230769,4447.179487,4225.128205,4222.564102,4493.846153,4181.025641,4633.846153,3977.435898,4041.025641
75,4453.846153,4534.871794,4531.282051,4247.179487,4491.794871,4197.435897,4458.461538,4232.307692,4231.794871,4498.974358,4188.717948,4643.076923,3985.641026,4044.615384
76,4461.025641,4540.512820,4539.487179,4257.435897,4492.307692,4203.076923,4462.564102,4237.948717,4238.461538,4503.589743,4195.384615,4650.256410,3993.333334,4050.769230
77,4458.974358,4541.538461,4531.794871,4262.564102,4493.846153,4200.512820,4454.871794,4233.846153,4233.333333,4500.512820,4197.948717,4648.717948,3988.717949,4054.871794
78,4458.461538,4538.974358,4530.256410,4253.846153,4493.846153,4194.358974,4453.333333,4229.743589,4227.692307,4496.410256,4195.384615,4645.641025,3985.128206,4053.333333
79,4457.435897,4531.282051,4530.769230,4248.205128,4491.794871,4190.769230,4455.897435,4222.051282,4221.538461,4492.307692,4184.102564,4640.000000,3982.051283,4044.102564
80,4446.666666,4517.435897,4518.461538,4243.076923,4488.717948,4185.641025,4448.205128,4215.897435,4213.333333,4481.025641,4171.794871,4629.230769,3968.205129,4031.794871
81,4438.974358,4507.692307,4513.846153,4231.794871,4482.564102,4180.512820,4438.461538,4215.897435,4208.717948,4472.820512,4167.692307,4625.641025,3958.461539,4026.153846
82,4442.051282,4509.230769,4522.051282,4227.692307,4477.435897,4180.000000,4440.512820,4215.897435,4212.820512,4481.025641,4170.256410,4634.358974,3964.102565,4029.743589
83,4443.076923,4511.794871,4525.641025,4233.846153,4475.384615,4178.461538,4444.615384,4220.000000,4221.025641,4490.256410,4172.820512,4640.000000,3970.769231,4035.384615
84,4431.282051,4506.666666,4514.871794,4230.769230,4473.846153,4172.820512,4435.897435,4220.000000,4218.974358,4483.076923,4170.769230,4632.307692,3965.128206,4029.230769
85,4425.641025,4507.179487,4508.717948,4225.128205,4476.923076,4175.384615,4429.743589,4213.333333,4211.282051,4477.948717,4172.307692,4626.666666,3962.051283,4023.589743
86,4438.974358,4520.000000,4524.615384,4234.871794,4486.666666,4186.666666,4442.564102,4216.410256,4221.538461,4493.846153,4184.102564,4641.025641,3977.948718,4036.923076
87,4448.205128,4526.666666,4538.461538,4248.205128,4492.820512,4190.256410,4455.384615,4227.179487,4236.410256,4505.128205,4196.410256,4656.923076,3989.230770,4049.230769
88,4445.641025,4522.564102,4528.205128,4246.666666,4488.717948,4187.179487,4449.230769,4223.589743,4227.179487,4498.461538,4192.820512,4651.282051,3980.000000,4045.128205
89,4440.512820,4522.564102,4517.948717,4241.025641,4487.692307,4185.128205,4440.000000,4215.384615,4219.487179,4491.282051,4183.589743,4640.512820,3973.333334,4041.538461
90,4435.897435,4526.153846,4522.051282,4244.102564,4490.256410,4185.641025,4443.589743,4217.435897,4230.256410,4492.820512,4182.051282,4642.051282,3978.974359,4043.076923
91,4430.769230,4526.153846,4521.538461,4242.051282,4488.205128,4186.666666,4445.641025,4217.948717,4230.256410,4493.846153,4180.512820,4640.000000,3979.487180,4039.487179
92,4428.205128,4521.025641,4512.820512,4231.794871,4487.179487,4183.076923,4436.923076,4212.307692,4213.846153,4489.743589,4180.000000,4632.307692,3975.384616,4034.358974
93,4426.153846,4518.974358,4514.358974,4231.282051,4488.717948,4183.076923,4432.307692,4207.179487,4211.282051,4485.641025,4184.102564,4637.948717,3976.410257,4037.435897
94,4424.102564,4521.538461,4521.538461,4240.512820,4488.205128,4188.205128,4440.512820,4210.256410,4222.564102,4490.256410,4185.641025,4647.692307,3983.076924,4043.076923
95,4421.538461,4524.615384,4526.153846,4247.692307,4491.282051,4187.692307,4447.179487,4218.974358,4230.256410,4498.974358,4188.717948,4649.743589,3985.641026,4044.102564
96,4416.923076,4527.179487,4526.153846,4246.666666,4493.333333,4186.153846,4444.102564,4222.051282,4233.333333,4501.025641,4200.512820,4649.230769,3981.025642,4044.615384
97,4410.769230,4525.128205,4526.153846,4247.692307,4490.769230,4189.743589,4443.589743,4220.512820,4235.384615,4498.974358,4203.589743,4647.692307,3981.538462,4045.641025
98,4405.128205,4523.076923,4525.641025,4248.717948,4489.743589,4192.820512,4448.717948,4221.538461,4232.307692,4500.000000,4191.794871,4641.025641,3984.102565,4042.564102
99,4398.461538,4525.641025,4520.000000,4240.512820,4491.794871,4188.717948,4446.666666,4220.000000,4229.230769,4496.410256,4184.102564,4634.358974,3980.512821,4038.461538
100,4391.794871,4523.076923,4516.410256,4236.923076,4490.256410,4185.128205,4442.051282,4216.410256,4229.230769,4491.794871,4188.717948,4635.897435,3982.051283,4039.487179
101,4389.230769,4518.974358,4521.538461,4248.205128,4491.282051,4187.179487,4444.615384,4218.461538,4227.692307,4494.358974,4191.282051,4638.974358,3990.769231,4043.589743
102,4386.666666,4524.102564,4522.564102,4248.205128,4490.256410,4188.717948,4443.589743,4223.076923,4224.615384,4494.871794,4184.102564,4639.487179,3991.282052,4044.102564
103,4376.410256,4521.025641,4512.820512,4232.307692,4483.076923,4178.461538,4430.256410,4217.948717,4220.512820,4484.615384,4170.769230,4635.384615,3990.256411,4042.051282
104,4364.615384,4507.692307,4508.717948,4229.230769,4484.102564,4170.256410,4423.589743,4210.256410,4218.461538,4480.512820,4163.589743,4629.230769,3994.358975,4043.076923
105,4359.487179,4506.666666,4512.307692,4236.923076,4488.717948,4178.974358,4430.769230,4206.666666,4215.897435,4480.000000,4167.692307,4625.641025,3990.256411,4044.615384
106,4351.794871,4509.230769,4506.666666,4231.282051,4480.512820,4181.025641,4430.769230,4201.025641,4204.102564,4468.205128,4165.128205,4621.025641,3983.589744,4039.487179
107,4345.641025,4502.564102,4502.051282,4228.717948,4474.358974,4172.820512,4424.102564,4198.461538,4197.435897,4456.410256,4156.410256,4619.487179,3986.153847,4036.923076
108,4354.358974,4506.666666,4512.307692,4242.051282,4484.615384,4178.461538,4431.282051,4210.769230,4211.794871,4467.179487,4163.076923,4630.256410,3993.846154,4049.230769
109,4363.076923,4520.512820,4521.538461,4250.256410,4493.333333,4190.256410,4443.076923,4220.000000,4224.102564,4481.538461,4180.512820,4642.564102,3996.410257,4061.538461
110,4358.461538,4524.615384,4523.589743,4245.128205,4492.307692,4190.769230,4442.564102,4215.384615,4216.923076,4477.435897,4183.589743,4642.564102,3997.948718,4060.000000
111,4349.230769,4522.564102,4524.615384,4245.128205,4491.794871,4188.205128,4438.461538,4215.384615,4214.871794,4473.333333,4171.794871,4639.487179,4004.102564,4058.974358
112,4342.564102,4525.128205,4521.025641,4247.692307,4491.282051,4187.692307,4435.897435,4219.487179,4217.435897,4478.461538,4170.256410,4641.025641,4005.641025,4062.051282
113,4340.000000,4526.153846,4518.974358,4245.128205,4491.282051,4184.615384,4432.820512,4214.871794,4214.358974,4480.000000,4175.384615,4639.487179,3999.487180,4060.000000
114,4343.076923,4521.538461,4524.102564,4246.666666,4492.307692,4186.666666,4436.923076,4215.384615,4214.871794,4479.487179,4176.410256,4638.974358,4001.538461,4064.102564
115,4342.564102,4525.128205,4529.743589,4251.282051,4492.820512,4193.333333,4445.128205,4227.179487,4224.102564,4484.615384,4182.051282,4644.615384,4015.384615,4072.307692
116,4339.487179,4535.384615,4533.846153,4250.769230,4496.410256,4200.000000,4447.692307,4235.897435,4233.333333,4493.333333,4190.769230,4652.307692,4022.564102,4072.820512
117,4340.000000,4534.871794,4536.410256,4249.743589,4500.000000,4198.974358,4446.666666,4235.384615,4237.435897,4498.974358,4190.256410,4653.846153,4019.487179,4073.333333
118,4332.307692,4523.589743,4529.743589,4249.230769,4494.358974,4187.692307,4444.102564,4227.692307,4227.692307,4489.230769,4183.589743,4647.179487,4008.205128,4071.794871
119,4320.000000,4517.435897,4523.589743,4248.205128,4488.205128,4183.589743,4441.538461,4220.512820,4213.333333,4476.923076,4177.948717,4643.076923,4001.538461,4065.128205
120,4321.025641,4524.102564,4525.128205,4248.205128,4492.307692,4193.846153,4443.589743,4221.538461,4220.000000,4484.615384,4175.897435,4647.692307,4008.717948,4066.666666
121,4324.102564,4531.282051,4530.256410,4249.743589,4495.897435,4198.974358,4444.615384,4223.589743,4234.871794,4499.487179,4183.076923,4653.333333,4014.871794,4072.307692
122,4315.897435,4528.717948,4529.230769,4248.717948,4491.794871,4189.230769,4442.051282,4221.025641,4227.692307,4498.974358,4189.230769,4649.743589,4012.307692,4069.230769
123,4307.692307,4521.538461,4525.641025,4243.589743,4488.717948,4181.538461,4440.512820,4215.897435,4213.333333,4489.743589,4185.128205,4642.051282,4010.769230,4063.589743
124,4313.333333,4522.564102,4526.666666,4240.512820,4490.256410,4184.102564,4441.025641,4213.846153,4213.846153,4488.717948,4183.076923,4642.564102,4011.282051,4063.589743
125,4326.666666,4526.666666,4529.743589,4244.102564,4490.769230,4186.153846,4441.538461,4218.974358,4223.076923,4491.794871,4183.076923,4648.205128,4008.205128,4064.102564
126,4336.923076,4523.076923,4529.743589,4248.717948,4488.717948,4184.615384,4441.538461,4223.589743,4226.666666,4490.256410,4183.076923,4649.230769,4006.666666,4062.051282
127,4342.051282,4523.076923,4530.769230,4245.128205,4488.717948,4184.615384,4442.564102,4226.153846,4226.666666,4491.282051,4184.102564,4648.717948,4011.282051,4063.076923
128,4350.769230,4530.256410,4537.948717,4244.615384,4490.256410,4189.743589,4444.102564,4228.205128,4230.256410,4499.487179,4185.128205,4652.307692,4013.333333,4066.666666
129,4362.564102,4534.358974,4541.025641,4255.897435,4495.897435,4198.974358,4447.179487,4232.820512,4235.384615,4500.512820,4185.641025,4655.384615,4010.769230,4069.230769
130,4370.769230,4536.923076,4542.564102,4264.615384,4500.000000,4202.564102,4449.743589,4234.871794,4236.923076,4500.512820,4188.205128,4656.923076,4011.794871,4073.333333
131,4365.128205,4535.897435,4543.589743,4257.435897,4496.410256,4197.948717,4447.179487,4229.743589,4230.769230,4499.487179,4186.153846,4656.923076,4009.230769,4070.769230
132,4348.205128,4525.128205,4532.820512,4241.538461,4489.230769,4188.717948,4441.538461,4217.948717,4219.487179,4486.153846,4175.897435,4645.128205,3992.307693,4055.897435
133,4339.487179,4516.410256,4522.051282,4236.410256,4488.205128,4183.076923,4440.000000,4212.820512,4212.307692,4478.974358,4175.384615,4634.871794,3982.051283,4049.230769
134,4343.076923,4521.025641,4527.179487,4242.051282,4490.256410,4184.102564,4443.076923,4216.923076,4215.897435,4485.128205,4175.897435,4643.076923,3991.282052,4055.384615
135,4344.102564,4526.666666,4533.333333,4245.128205,4490.769230,4186.153846,4443.589743,4217.948717,4219.487179,4489.743589,4170.769230,4650.256410,3994.871795,4053.846153
136,4339.487179,4521.538461,4527.179487,4244.615384,4491.282051,4185.641025,4442.051282,4214.871794,4216.923076,4487.179487,4172.307692,4644.102564,3984.102565,4047.179487
137,4336.923076,4517.948717,4522.051282,4245.128205,4491.282051,4184.615384,4440.512820,4214.871794,4214.871794,4479.487179,4177.435897,4637.948717,3976.923077,4047.179487
138,4338.461538,4524.615384,4526.153846,4246.153846,4491.794871,4185.641025,4440.512820,4217.435897,4214.871794,4476.923076,4177.948717,4638.974358,3980.512821,4050.256410
139,4341.025641,4529.743589,4525.641025,4246.666666,4492.307692,4186.666666,4445.128205,4214.871794,4215.384615,4482.564102,4173.333333,4643.076923,3990.769231,4052.820512
140,4341.538461,4527.692307,4522.051282,4248.205128,4490.256410,4184.615384,4439.487179,4210.256410,4214.871794,4483.589743,4168.717948,4643.589743,3995.897436,4049.743589
141,4338.461538,4518.461538,4522.051282,4244.615384,4488.205128,4181.538461,4426.666666,4208.205128,4213.333333,4475.897435,4170.769230,4637.948717,3986.153847,4043.076923
142,4336.923076,4511.282051,4522.051282,4235.384615,4488.205128,4182.051282,4430.256410,4208.205128,4213.846153,4477.948717,4184.615384,4636.410256,3976.410257,4043.076923
143,4337.948717,4515.384615,4520.512820,4237.435897,4488.717948,4183.076923,4438.974358,4211.282051,4216.410256,4486.153846,4186.666666,4641.538461,3988.717949,4050.256410
144,4339.487179,4525.128205,4524.102564,4247.179487,4489.743589,4184.102564,4440.000000,4216.923076,4217.948717,4489.743589,4179.487179,4645.128205,4003.076923,4054.871794
145,4336.410256,4526.666666,4530.256410,4248.717948,4489.743589,4186.153846,4441.538461,4219.487179,4217.435897,4490.769230,4184.102564,4645.128205,3998.461539,4053.333333
146,4329.743589,4522.564102,4529.230769,4244.102564,4489.230769,4186.153846,4442.564102,4217.948717,4216.923076,4490.256410,4187.179487,4646.666666,3990.256411,4051.794871
147,4327.179487,4523.076923,4523.589743,4243.589743,4490.256410,4180.000000,4437.948717,4211.794871,4217.948717,4484.102564,4177.435897,4643.589743,3990.256411,4052.820512
148,4325.128205,4523.076923,4520.512820,4244.615384,4487.179487,4177.948717,4438.461538,4208.205128,4216.923076,4475.384615,4171.282051,4637.948717,3989.743590,4050.256410
149,4321.025641,4523.589743,4525.128205,4246.666666,4484.615384,4183.076923,4444.102564,4213.846153,4217.435897,4477.948717,4177.435897,4640.000000,3994.358975,4048.717948
150,4318.974358,4526.666666,4531.282051,4248.205128,4487.179487,4186.153846,4444.615384,4221.025641,4220.000000,4485.128205,4183.076923,4644.615384,3998.461539,4052.820512
151,4314.358974,4525.128205,4527.692307,4247.179487,4489.230769,4184.102564,4442.564102,4217.435897,4218.461538,4478.974358,4182.051282,4641.538461,3988.717949,4052.307692
152,4309.743589,4522.564102,4525.641025,4248.717948,4488.205128,4183.076923,4442.564102,4212.307692,4216.410256,4470.769230,4180.512820,4638.974358,3982.051283,4048.717948
153,4310.769230,4523.589743,4530.769230,4251.282051,4484.102564,4186.153846,4444.102564,4217.435897,4218.974358,4479.487179,4183.589743,4644.102564,3993.333334,4051.794871
154,4312.307692,4525.128205,4533.846153,4246.153846,4478.461538,4182.051282,4441.538461,4218.461538,4218.461538,4486.153846,4186.666666,4646.153846,3995.897436,4053.333333
155,4312.307692,4521.025641,4529.743589,4241.025641,4478.974358,4175.897435,4435.897435,4207.179487,4215.384615,4474.871794,4176.410256,4639.487179,3983.589744,4048.205128
156,4318.974358,4524.615384,4527.692307,4243.589743,4487.179487,4180.512820,4440.000000,4206.153846,4217.435897,4469.230769,4168.205128,4635.384615,3982.051283,4048.717948
157,4329.743589,4535.897435,4535.384615,4248.205128,4492.820512,4190.769230,4450.769230,4220.512820,4222.564102,4475.897435,4180.000000,4642.564102,3990.769231,4057.948717
158,4326.666666,4529.743589,4536.410256,4247.692307,4488.205128,4191.282051,4451.282051,4221.025641,4221.025641,4472.820512,4188.205128,4646.153846,3985.641026,4057.948717
159,4305.641025,4508.717948,4522.564102,4233.846153,4476.923076,4177.435897,4435.384615,4202.564102,4208.205128,4454.358974,4168.205128,4631.282051,3967.179488,4037.948717
160,4290.256410,4499.487179,4509.743589,4217.948717,4471.794871,4166.666666,4423.076923,4193.846153,4196.923076,4437.435897,4148.717948,4615.897435,3958.974359,4021.538461
161,4299.487179,4510.769230,4511.282051,4220.000000,4475.897435,4171.794871,4427.692307,4199.487179,4202.564102,4433.333333,4154.871794,4618.461538,3966.666667,4027.692307
162,4305.641025,4518.461538,4518.461538,4231.794871,4477.948717,4175.384615,4432.820512,4203.589743,4215.384615,4437.435897,4169.743589,4627.692307,3973.333334,4038.461538
163,4297.435897,4516.410256,4520.512820,4233.846153,4475.384615,4172.820512,4427.179487,4204.102564,4217.948717,4434.358974,4174.871794,4628.717948,3974.871795,4039.487179
164,4290.256410,4517.435897,4522.051282,4231.282051,4476.923076,4178.974358,4424.102564,4203.076923,4214.358974,4427.179487,4172.820512,4630.256410,3979.487180,4038.974358
165,4287.179487,4517.435897,4523.589743,4233.846153,4480.000000,4183.589743,4429.230769,4202.564102,4212.307692,4428.717948,4165.128205,4632.307692,3976.923077,4040.512820
166,4280.000000,4516.410256,4520.512820,4233.333333,4477.435897,4179.487179,4430.256410,4201.025641,4211.794871,4428.717948,4159.487179,4626.666666,3967.692308,4034.871794
167,4270.769230,4515.384615,4515.384615,4229.743589,4479.487179,4176.923076,4429.230769,4199.487179,4211.794871,4423.076923,4161.538461,4622.564102,3964.615385,4028.205128
168,4265.641025,4514.871794,4514.871794,4229.743589,4485.128205,4177.435897,4430.769230,4198.461538,4211.794871,4423.589743,4165.641025,4626.153846,3968.717949,4030.769230
169,4264.102564,4511.794871,4515.897435,4229.230769,4482.051282,4174.358974,4430.256410,4198.461538,4210.769230,4426.153846,4166.153846,4627.179487,3971.794872,4033.846153
170,4267.692307,4508.205128,4516.410256,4230.256410,4476.410256,4168.205128,4426.666666,4197.948717,4212.307692,4427.692307,4169.230769,4624.102564,3970.769231,4033.333333
171,4274.358974,4512.820512,4517.948717,4232.820512,4478.461538,4171.794871,4428.205128,4198.461538,4216.923076,4428.205128,4171.794871,4629.230769,3965.641026,4032.820512
172,4278.461538,4516.410256,4516.923076,4228.205128,4481.538461,4177.948717,4430.256410,4198.974358,4215.897435,4426.153846,4168.717948,4633.333333,3967.179488,4032.307692
173,4277.948717,4510.769230,4511.794871,4222.051282,4476.923076,4174.358974,4427.179487,4201.538461,4213.333333,4425.128205,4167.692307,4626.666666,3970.769231,4030.256410
174,4278.974358,4505.128205,4510.769230,4227.692307,4476.923076,4170.256410,4426.666666,4206.666666,4218.461538,4431.794871,4168.717948,4628.205128,3970.256411,4031.794871
175,4282.564102,4508.205128,4517.435897,4234.871794,4482.564102,4175.384615,4429.743589,4205.641025,4223.589743,4436.923076,4166.666666,4638.461538,3973.846154,4036.923076
176,4281.025641,4513.333333,4518.461538,4232.307692,4479.487179,4174.871794,4429.230769,4200.512820,4217.948717,4431.794871,4172.307692,4637.948717,3972.820513,4035.384615
177,4282.564102,4515.897435,4516.410256,4230.256410,4475.897435,4166.666666,4429.230769,4199.487179,4212.820512,4425.641025,4182.051282,4632.307692,3966.666667,4034.358974
178,4289.743589,4521.025641,4516.923076,4232.820512,4480.512820,4169.230769,4431.282051,4201.025641,4216.923076,4427.179487,4175.384615,4633.333333,3972.307693,4035.897435
179,4295.384615,4521.025641,4521.025641,4234.358974,4482.564102,4175.897435,4430.256410,4200.000000,4215.384615,4426.153846,4168.205128,4635.897435,3976.923077,4033.846153
180,4305.641025,4521.025641,4522.564102,4235.384615,4485.128205,4176.410256,4431.794871,4199.487179,4212.307692,4424.615384,4176.923076,4636.923076,3971.794872,4036.923076
181,4314.358974,4522.051282,4521.538461,4237.435897,4484.102564,4173.333333,4434.358974,4202.051282,4215.384615,4430.769230,4182.564102,4637.948717,3971.794872,4042.564102
182,4313.846153,4520.000000,4520.512820,4236.410256,4478.461538,4169.230769,4430.769230,4201.025641,4216.923076,4435.897435,4179.487179,4636.410256,3976.923077,4039.487179
183,4315.384615,4518.974358,4520.000000,4234.358974,4479.487179,4169.230769,4429.230769,4198.974358,4215.384615,4431.282051,4176.923076,4637.435897,3974.358975,4033.846153
184,4319.487179,4520.000000,4520.000000,4234.358974,4485.128205,4175.384615,4433.333333,4200.512820,4215.897435,4430.769230,4170.256410,4637.435897,3969.230770,4033.846153
185,4318.461538,4518.974358,4518.974358,4236.410256,4480.000000,4179.487179,4432.307692,4203.076923,4213.846153,4432.307692,4167.692307,4632.307692,3963.076924,4033.846153
186,4321.025641,4512.820512,4518.461538,4234.871794,4475.384615,4176.410256,4427.692307,4202.051282,4212.820512,4429.230769,4173.846153,4633.333333,3962.564103,4032.307692
187,4327.179487,4507.179487,4520.000000,4231.282051,4478.461538,4173.846153,4428.717948,4200.000000,4213.846153,4426.153846,4173.333333,4637.948717,3969.743590,4032.307692
188,4325.641025,4507.692307,4519.487179,4230.256410,4475.897435,4173.333333,4428.717948,4200.000000,4208.205128,4427.179487,4169.743589,4635.384615,3968.717949,4031.282051
189,4323.589743,4507.692307,4514.358974,4229.743589,4475.897435,4169.230769,4426.153846,4201.538461,4207.179487,4426.153846,4168.205128,4631.282051,3961.025642,4028.717948
190,4324.102564,4505.641025,4509.230769,4224.615384,4477.435897,4168.205128,4424.102564,4195.384615,4209.743589,4424.102564,4167.692307,4630.769230,3959.487180,4027.179487
191,4323.076923,4508.205128,4510.256410,4220.000000,4475.384615,4172.307692,4426.153846,4192.820512,4211.794871,4429.743589,4173.846153,4633.846153,3966.666667,4029.230769
192,4323.589743,4509.743589,4509.743589,4219.487179,4477.435897,4172.820512,4427.692307,4197.948717,4213.846153,4433.846153,4171.282051,4632.820512,3969.230770,4028.205128
193,4324.615384,4504.615384,4503.589743,4216.410256,4477.435897,4169.743589,4424.102564,4192.307692,4207.692307,4427.692307,4156.923076,4624.615384,3955.897436,4020.512820
194,4324.615384,4503.589743,4503.076923,4219.487179,4474.871794,4169.743589,4423.589743,4187.179487,4203.589743,4421.025641,4154.358974,4618.461538,3949.230770,4020.000000
195,4331.282051,4506.153846,4509.230769,4228.205128,4474.358974,4171.282051,4428.717948,4197.948717,4212.307692,4426.666666,4166.153846,4622.564102,3960.000000,4026.153846
196,4339.487179,4507.692307,4511.282051,4230.769230,4475.384615,4170.769230,4430.256410,4205.641025,4214.871794,4434.358974,4173.846153,4626.153846,3966.153847,4024.615384
197,4337.948717,4506.666666,4507.692307,4228.717948,4472.820512,4166.153846,4423.589743,4197.435897,4201.025641,4429.743589,4169.230769,4621.538461,3955.384616,4017.435897
198,4335.897435,4504.102564,4503.076923,4223.589743,4469.743589,4165.641025,4422.051282,4187.692307,4196.410256,4424.102564,4158.974358,4616.923076,3948.717949,4016.410256
199,4337.435897,4509.743589,4502.564102,4221.025641,4474.871794,4170.256410,4427.692307,4191.282051,4207.179487,4430.256410,4157.435897,4615.897435,3954.358975,4020.512820
200,4332.307692,4517.435897,4505.128205,4224.615384,4481.025641,4173.333333,4429.230769,4200.000000,4212.307692,4435.384615,4166.153846,4619.487179,3961.025642,4020.512820
201,4326.153846,4510.256410,4504.615384,4230.256410,4477.948717,4171.282051,4425.128205,4201.538461,4206.666666,4431.794871,4172.820512,4621.025641,3962.051283,4019.487179
202,4327.179487,4506.153846,4504.102564,4229.743589,4473.846153,4168.717948,4425.128205,4197.948717,4203.076923,4434.358974,4173.333333,4621.025641,3958.974359,4024.615384
203,4328.205128,4518.461538,4510.256410,4229.743589,4476.923076,4169.743589,4427.692307,4194.358974,4206.666666,4437.948717,4171.282051,4624.102564,3960.512821,4028.717948
204,4325.128205,4524.615384,4512.820512,4231.794871,4478.461538,4171.282051,4426.666666,4193.846153,4206.153846,4435.384615,4174.871794,4627.179487,3967.692308,4026.153846
205,4326.153846,4522.051282,4511.794871,4233.333333,4477.435897,4173.333333,4426.666666,4196.923076,4203.589743,4437.948717,4182.564102,4631.282051,3975.384616,4029.743589
206,4328.205128,4520.512820,4512.820512,4236.410256,4481.025641,4173.846153,4427.692307,4192.307692,4204.615384,4442.564102,4177.435897,4633.333333,3977.948718,4035.897435
207,4322.051282,4515.384615,4511.794871,4233.333333,4482.564102,4171.282051,4426.153846,4187.179487,4203.076923,4438.974358,4166.153846,4630.769230,3977.948718,4033.333333
208,4314.871794,4514.871794,4512.307692,4230.256410,4479.487179,4169.230769,4424.615384,4191.794871,4201.538461,4440.512820,4171.794871,4628.717948,3982.051283,4035.897435
209,4312.820512,4525.641025,4515.384615,4233.846153,4479.487179,4171.282051,4425.128205,4195.384615,4202.564102,4446.666666,4187.179487,4630.769230,3991.282052,4047.179487
210,4304.102564,4524.102564,4515.897435,4234.358974,4478.974358,4174.871794,4426.666666,4191.794871,4204.102564,4442.564102,4184.102564,4630.769230,3996.923077,4051.794871
211,4295.384615,4510.769230,4516.923076,4231.794871,4477.948717,4174.358974,4429.230769,4190.769230,4206.153846,4442.051282,4170.769230,4628.717948,3996.410257,4051.282051
212,4291.794871,4507.692307,4516.410256,4233.333333,4478.974358,4172.307692,4423.589743,4189.230769,4203.589743,4447.179487,4173.333333,4629.743589,3995.384616,4052.307692
213,4283.589743,4507.179487,4511.282051,4233.333333,4478.461538,4170.256410,4413.846153,4183.076923,4197.435897,4437.435897,4178.461538,4626.153846,3991.794872,4045.641025
214,4281.025641,4506.666666,4508.717948,4230.256410,4473.333333,4170.769230,4417.435897,4185.641025,4197.948717,4432.307692,4173.333333,4621.025641,3989.230770,4043.076923
215,4294.871794,4514.358974,4513.846153,4233.846153,4475.897435,4175.897435,4428.205128,4196.410256,4205.128205,4445.128205,4169.230769,4628.205128,3997.435898,4053.333333
216,4308.717948,4525.641025,4518.974358,4241.025641,4487.179487,4183.076923,4429.230769,4200.000000,4207.692307,4449.743589,4173.333333,4637.435897,4010.256410,4062.051282
217,4310.769230,4525.128205,4521.025641,4247.179487,4487.179487,4185.128205,4426.666666,4196.410256,4209.743589,4447.692307,4177.948717,4634.358974,4011.282051,4058.974358
218,4309.230769,4519.487179,4518.974358,4246.153846,4481.538461,4183.076923,4429.743589,4195.897435,4210.256410,4452.307692,4178.974358,4630.256410,3999.487180,4051.794871
219,4307.692307,4519.487179,4517.948717,4233.333333,4483.589743,4182.564102,4427.692307,4200.000000,4207.179487,4451.282051,4178.461538,4632.820512,3993.333334,4049.230769
220,4312.820512,4521.538461,4523.589743,4233.333333,4487.692307,4184.615384,4427.179487,4204.102564,4210.256410,4449.743589,4178.974358,4635.384615,4002.564102,4054.358974
221,4321.538461,4524.102564,4528.717948,4247.179487,4489.743589,4188.205128,4437.435897,4206.666666,4217.435897,4457.435897,4189.230769,4638.461538,4015.897435,4061.538461
222,4317.948717,4525.128205,4528.717948,4250.769230,4484.102564,4187.179487,4439.487179,4203.589743,4215.384615,4459.487179,4192.820512,4637.435897,4011.282051,4060.512820
223,4308.717948,4523.076923,4525.641025,4244.615384,4480.000000,4183.076923,4430.256410,4195.384615,4205.641025,4450.256410,4175.897435,4630.769230,3997.435898,4053.333333
224,4306.666666,4520.512820,4520.512820,4241.538461,4483.076923,4183.589743,4426.666666,4190.256410,4203.076923,4447.692307,4168.717948,4631.282051,3997.435898,4051.794871
225,4307.692307,4524.615384,4519.487179,4238.974358,4482.564102,4183.589743,4428.205128,4191.282051,4205.641025,4450.256410,4174.871794,4634.358974,4002.051282,4056.410256
226,4306.666666,4533.333333,4525.128205,4244.615384,4481.538461,4183.076923,4424.615384,4197.435897,4206.666666,4455.897435,4185.641025,4634.358974,4003.589743,4058.974358
227,4310.769230,4533.846153,4531.794871,4251.794871,4486.153846,4185.128205,4424.615384,4204.102564,4210.769230,4466.153846,4195.384615,4640.512820,4007.692307,4060.512820
228,4307.179487,4525.641025,4527.692307,4238.461538,4485.128205,4184.102564,4429.230769,4200.000000,4208.205128,4466.666666,4190.769230,4642.051282,4008.205128,4063.076923
229,4295.897435,4520.512820,4518.461538,4230.769230,4480.000000,4181.025641,4426.666666,4191.794871,4203.589743,4459.487179,4181.538461,4634.358974,4004.615384,4061.025641
230,4297.948717,4526.153846,4520.512820,4244.102564,4487.179487,4182.564102,4423.589743,4199.487179,4213.846153,4463.589743,4190.256410,4637.435897,4007.692307,4057.435897
231,4311.282051,4535.897435,4530.769230,4253.333333,4496.410256,4188.205128,4432.820512,4214.358974,4227.179487,4476.410256,4200.512820,4648.205128,4014.358974,4062.051282
232,4312.307692,4539.487179,4533.846153,4251.282051,4491.282051,4189.230769,4438.461538,4210.769230,4222.051282,4480.000000,4190.256410,4647.179487,4014.358974,4063.589743
233,4300.000000,4533.846153,4528.205128,4245.128205,4480.512820,4185.641025,4428.717948,4200.512820,4212.307692,4470.769230,4181.538461,4641.025641,4003.076923,4055.897435
234,4299.487179,4524.615384,4521.538461,4236.923076,4479.487179,4183.589743,4422.051282,4201.538461,4213.846153,4464.615384,4177.948717,4636.923076,3993.846154,4047.179487
235,4308.205128,4518.974358,4517.948717,4230.769230,4485.641025,4182.564102,4423.589743,4200.000000,4211.282051,4468.205128,4170.769230,4632.820512,3998.974359,4044.102564
236,4312.820512,4520.000000,4519.487179,4233.846153,4483.076923,4182.051282,4424.615384,4196.410256,4210.769230,4474.871794,4177.948717,4634.358974,4005.128205,4044.102564
237,4315.384615,4526.153846,4519.487179,4233.333333,4476.923076,4183.076923,4422.564102,4199.487179,4216.923076,4476.410256,4189.743589,4635.897435,4002.051282,4045.128205
238,4319.487179,4526.153846,4515.384615,4230.256410,4478.461538,4184.102564,4420.512820,4198.974358,4214.871794,4473.333333,4186.666666,4631.794871,3996.410257,4043.076923
239,4324.615384,4522.564102,4514.871794,4238.461538,4482.564102,4181.538461,4421.538461,4194.871794,4212.307692,4471.794871,4182.051282,4629.743589,3995.897436,4040.000000
240,4332.307692,4529.743589,4522.564102,4248.205128,4483.076923,4180.512820,4426.153846,4197.435897,4214.871794,4475.384615,4188.717948,4634.358974,4001.538461,4042.051282
241,4342.564102,4533.333333,4526.153846,4245.128205,4480.000000,4182.564102,4427.179487,4201.025641,4215.897435,4482.051282,4192.307692,4636.923076,4004.615384,4045.128205
242,4347.692307,4529.230769,4520.512820,4240.512820,4479.487179,4182.051282,4424.615384,4201.025641,4216.923076,4481.538461,4191.794871,4634.358974,4004.102564,4046.666666
243,4355.897435,4532.307692,4521.538461,4247.692307,4487.692307,4183.076923,4427.692307,4202.564102,4223.076923,4482.051282,4195.897435,4636.410256,4007.692307,4050.769230
244,4366.153846,4538.974358,4526.153846,4251.794871,4491.282051,4187.179487,4435.384615,4204.615384,4223.589743,4490.769230,4200.000000,4641.025641,4007.179487,4051.282051
245,4367.692307,4537.435897,4522.564102,4247.179487,4488.205128,4189.230769,4437.948717,4207.179487,4222.051282,4495.384615,4198.974358,4637.435897,3998.974359,4046.153846
246,4370.256410,4536.923076,4521.025641,4246.666666,4488.717948,4185.641025,4433.333333,4210.769230,4229.230769,4494.871794,4192.820512,4635.897435,4000.512820,4048.205128
247,4382.051282,4541.538461,4525.641025,4250.769230,4490.256410,4186.153846,4430.256410,4212.820512,4233.846153,4493.333333,4185.641025,4643.589743,4008.717948,4053.846153
248,4390.256410,4540.000000,4523.076923,4251.794871,4491.794871,4192.307692,4429.743589,4213.333333,4229.230769,4492.307692,4185.641025,4644.102564,4007.692307,4048.717948
249,4390.769230,4538.461538,4520.000000,4247.692307,4490.769230,4191.282051,4431.282051,4214.871794,4229.230769,4498.461538,4197.435897,4640.000000,4004.102564,4046.666666
250,4397.948717,4541.538461,4526.666666,4248.717948,4489.743589,4189.743589,4436.923076,4213.846153,4234.358974,4507.179487,4211.282051,4645.641025,4007.179487,4055.897435
251,4410.256410,4543.589743,4530.769230,4256.410256,4493.333333,4196.923076,4439.487179,4210.769230,4231.282051,4505.128205,4212.307692,4650.769230,4011.794871,4063.589743
252,4418.974358,4547.179487,4530.256410,4263.076923,4494.358974,4200.000000,4437.948717,4211.794871,4230.256410,4504.615384,4206.153846,4648.717948,4016.923076,4064.102564
253,4426.153846,4552.820512,4530.769230,4266.666666,4491.794871,4198.974358,4443.589743,4218.461538,4238.974358,4515.384615,4209.743589,4649.743589,4022.051282,4062.051282
254,4430.256410,4552.820512,4530.256410,4260.512820,4491.794871,4198.974358,4447.179487,4222.564102,4244.102564,4518.461538,4215.897435,4647.692307,4016.410256,4061.025641
255,4423.589743,4544.102564,4519.487179,4242.051282,4487.179487,4190.769230,4435.897435,4213.333333,4233.846153,4508.717948,4207.179487,4637.435897,4006.153846,4054.871794
