,AF3,F7,F3,FC5,T7,P7,O1,O2,P8,T8,FC6,F4,F8,AF4
0,4306.666666,4485.128205,4470.769230,4226.153846,4450.769230,4171.282051,4412.307692,4193.333333,4205.641025,4462.564102,4181.538461,4609.743589,3965.128206,4018.974358
1,4310.256410,4485.641025,4471.794871,4233.333333,4451.282051,4170.769230,4413.333333,4195.897435,4211.794871,4465.641025,4175.384615,4608.205128,3963.589744,4022.564102
2,4316.410256,4494.358974,4476.410256,4233.846153,4454.871794,4174.358974,4413.333333,4198.974358,4216.410256,4466.666666,4168.717948,4614.871794,3970.769231,4025.128205
3,4317.435897,4494.358974,4481.538461,4231.794871,4454.871794,4174.358974,4410.769230,4205.641025,4221.025641,4473.846153,4182.564102,4621.025641,3975.897436,4024.102564
4,4311.794871,4483.076923,4478.461538,4231.794871,4451.282051,4167.692307,4407.692307,4206.666666,4218.974358,4480.000000,4198.974358,4612.307692,3967.179488,4023.076923
5,4307.179487,4483.076923,4474.358974,4229.230769,4448.205128,4165.128205,4408.205128,4197.948717,4214.358974,4480.000000,4186.153846,4604.615384,3965.128206,4025.641025
6,4310.769230,4487.692307,4473.846153,4228.717948,4450.769230,4171.282051,4411.794871,4194.358974,4216.410256,4481.538461,4176.410256,4607.692307,3973.333334,4025.641025
7,4311.794871,4483.076923,4472.820512,4231.282051,4453.333333,4173.333333,4414.871794,4198.974358,4217.435897,4481.538461,4186.153846,4606.153846,3972.820513,4018.461538
8,4308.717948,4484.615384,4473.333333,4229.743589,4453.333333,4170.769230,4414.358974,4199.487179,4212.820512,4477.435897,4181.025641,4604.615384,3967.692308,4016.410256
9,4311.282051,4491.794871,4475.384615,4230.769230,4451.794871,4172.820512,4413.846153,4193.846153,4206.666666,4472.820512,4173.333333,4609.230769,3968.717949,4024.615384
10,4316.410256,4491.282051,4478.461538,4239.487179,4454.871794,4177.948717,4417.948717,4195.897435,4211.282051,4470.256410,4179.487179,4608.205128,3968.717949,4027.692307
11,4311.794871,4485.641025,4475.897435,4232.307692,4457.948717,4177.435897,4416.923076,4203.076923,4220.512820,4471.282051,4181.025641,4602.051282,3964.102565,4020.512820
12,4304.102564,4483.076923,4469.230769,4218.461538,4452.307692,4170.769230,4409.230769,4200.512820,4220.000000,4474.358974,4174.871794,4602.051282,3955.384616,4016.923076
13,4306.153846,4483.589743,4469.743589,4227.179487,4450.769230,4168.717948,4411.282051,4198.974358,4213.846153,4472.307692,4180.000000,4603.076923,3955.384616,4018.461538
14,4311.282051,4482.564102,4476.410256,4237.948717,4458.974358,4175.384615,4420.000000,4203.076923,4214.358974,4470.256410,4184.102564,4602.564102,3963.076924,4013.846153
15,4312.820512,4481.025641,4481.538461,4232.307692,4458.974358,4177.948717,4417.435897,4199.487179,4214.358974,4469.743589,4169.230769,4605.641025,3964.615385,4008.717948
16,4312.307692,4482.051282,4480.000000,4230.769230,4453.846153,4173.333333,4407.179487,4190.256410,4209.743589,4461.538461,4162.564102,4603.589743,3961.538462,4012.820512
17,4309.743589,4484.615384,4478.461538,4235.897435,4453.333333,4172.820512,4406.153846,4187.692307,4211.794871,4458.461538,4175.897435,4599.487179,3957.948718,4020.000000
18,4308.205128,4485.128205,4477.948717,4234.358974,4454.358974,4175.384615,4408.205128,4188.205128,4210.256410,4465.128205,4187.692307,4601.025641,3955.384616,4018.461538
19,4311.794871,4486.666666,4479.487179,4231.794871,4453.846153,4174.358974,4406.153846,4189.743589,4205.128205,4473.333333,4186.153846,4604.102564,3961.538462,4010.256410
20,4313.846153,4488.205128,4482.564102,4236.923076,4455.897435,4174.871794,4407.179487,4195.384615,4211.282051,4483.076923,4183.076923,4602.564102,3968.205129,4014.871794
21,4310.256410,4487.179487,4481.025641,4239.487179,4454.871794,4176.410256,4413.846153,4194.358974,4214.358974,4480.000000,4182.564102,4601.538461,3964.615385,4022.051282
22,4307.692307,4484.102564,4474.871794,4233.846153,4451.282051,4170.256410,4414.871794,4185.641025,4203.076923,4465.641025,4173.846153,4598.974358,3957.948718,4011.794871
23,4304.102564,4482.051282,4471.794871,4228.205128,4450.256410,4166.666666,4409.230769,4181.538461,4195.897435,4462.051282,4165.641025,4590.256410,3953.846154,4002.051282
24,4300.512820,4482.564102,4474.871794,4230.256410,4450.769230,4170.769230,4410.769230,4186.153846,4205.641025,4469.743589,4169.743589,4587.179487,3952.307693,4014.871794
25,4300.512820,4483.076923,4477.435897,4229.743589,4450.769230,4170.256410,4414.871794,4189.743589,4209.230769,4465.641025,4177.435897,4591.794871,3954.358975,4024.102564
26,4303.076923,4484.615384,4476.923076,4225.128205,4450.256410,4168.717948,4410.769230,4188.205128,4195.897435,4461.538461,4175.897435,4595.384615,3956.410257,4012.307692
27,4310.256410,4490.769230,4483.589743,4234.871794,4453.846153,4175.897435,4412.307692,4191.282051,4196.410256,4469.743589,4171.794871,4598.974358,3964.102565,4010.769230
28,4316.923076,4495.384615,4490.769230,4248.205128,4456.410256,4178.461538,4422.051282,4200.512820,4214.871794,4474.358974,4179.487179,4603.589743,3974.358975,4025.641025
29,4314.871794,4487.179487,4488.717948,4242.051282,4454.358974,4171.282051,4425.641025,4204.615384,4216.410256,4472.307692,4192.307692,4600.512820,3970.256411,4031.282051
30,4310.256410,4481.025641,4485.641025,4230.256410,4452.820512,4171.282051,4423.589743,4201.538461,4207.179487,4468.205128,4188.717948,4593.333333,3956.410257,4019.487179
31,4306.153846,4483.076923,4484.102564,4233.333333,4452.820512,4174.871794,4421.025641,4191.282051,4205.128205,4463.076923,4171.282051,4588.717948,3951.794872,4007.692307
32,4301.538461,4482.564102,4477.435897,4236.410256,4450.769230,4168.205128,4413.846153,4181.538461,4197.948717,4454.358974,4168.205128,4585.128205,3951.794872,4009.230769
33,4304.615384,4488.717948,4477.435897,4231.282051,4450.256410,4164.615384,4410.769230,4184.615384,4192.307692,4451.794871,4179.487179,4592.307692,3954.358975,4018.974358
34,4313.333333,4497.948717,4485.641025,4233.846153,4451.794871,4172.307692,4414.871794,4192.820512,4200.512820,4461.538461,4178.461538,4603.076923,3961.025642,4022.051282
35,4311.282051,4492.307692,4485.128205,4236.923076,4447.692307,4170.256410,4413.333333,4191.794871,4206.666666,4468.717948,4165.641025,4603.589743,3961.538462,4008.717948
36,4304.102564,4486.153846,4477.948717,4232.820512,4446.153846,4160.512820,4410.256410,4189.743589,4206.153846,4467.692307,4167.692307,4596.923076,3954.358975,4001.025641
37,4300.000000,4485.641025,4476.410256,4231.282051,4447.179487,4162.564102,4414.358974,4187.692307,4206.666666,4464.102564,4173.846153,4589.230769,3950.256411,4009.230769
38,4293.846153,4474.871794,4473.333333,4231.794871,4444.102564,4165.641025,4410.769230,4182.564102,4202.051282,4458.461538,4166.153846,4583.076923,3946.153847,4008.717948
39,4293.333333,4472.307692,4470.256410,4231.282051,4443.076923,4158.974358,4404.102564,4180.512820,4191.794871,4449.230769,4170.769230,4584.102564,3943.076924,4002.051282
40,4303.076923,4487.692307,4476.923076,4229.230769,4446.153846,4160.512820,4407.692307,4188.717948,4194.358974,4452.820512,4186.153846,4591.794871,3952.307693,4011.794871
41,4306.153846,4492.820512,4482.564102,4230.769230,4449.743589,4169.230769,4411.794871,4193.333333,4211.282051,4470.256410,4175.897435,4595.384615,3961.025642,4020.512820
42,4304.615384,4485.641025,4482.051282,4236.410256,4451.282051,4169.743589,4407.179487,4191.794871,4213.846153,4474.871794,4166.666666,4594.358974,3959.487180,4010.769230
43,4307.692307,4484.615384,4482.051282,4235.384615,4448.205128,4165.641025,4407.179487,4193.846153,4203.076923,4469.743589,4180.000000,4597.435897,3963.589744,4010.769230
44,4308.717948,4489.743589,4484.102564,4229.743589,4444.615384,4163.589743,4410.769230,4193.846153,4201.025641,4465.128205,4184.102564,4600.512820,3969.230770,4022.564102
45,4308.717948,4491.794871,4484.615384,4234.871794,4446.666666,4163.076923,4412.307692,4193.333333,4208.717948,4461.538461,4184.615384,4600.512820,3963.589744,4020.000000
46,4314.358974,4489.743589,4489.230769,4245.128205,4451.794871,4168.205128,4418.974358,4197.435897,4210.769230,4461.538461,4191.794871,4605.641025,3958.974359,4015.897435
47,4315.384615,4486.666666,4492.820512,4240.512820,4449.743589,4173.846153,4422.051282,4194.871794,4206.153846,4465.641025,4185.128205,4610.769230,3966.666667,4022.564102
48,4306.153846,4486.153846,4486.153846,4231.794871,4446.153846,4169.743589,4411.794871,4186.153846,4203.076923,4469.743589,4174.358974,4604.102564,3966.153847,4022.051282
49,4299.487179,4487.179487,4479.487179,4231.282051,4446.153846,4162.051282,4407.179487,4186.153846,4202.564102,4470.256410,4174.871794,4595.384615,3953.333334,4012.820512
50,4297.948717,4489.230769,4480.512820,4233.333333,4444.102564,4162.051282,4413.846153,4189.230769,4200.000000,4461.025641,4178.461538,4599.487179,3954.358975,4010.256410
51,4293.846153,4483.589743,4481.025641,4228.205128,4441.025641,4164.615384,4412.820512,4185.128205,4190.256410,4447.179487,4175.384615,4601.025641,3957.435898,4009.230769
52,4291.794871,4479.487179,4480.000000,4221.538461,4444.615384,4164.615384,4408.205128,4183.589743,4187.692307,4448.205128,4163.076923,4595.384615,3952.820513,4008.717948
53,4301.025641,4488.205128,4485.641025,4226.153846,4451.794871,4170.256410,4417.948717,4190.256410,4197.435897,4458.461538,4162.564102,4601.025641,3957.435898,4013.846153
54,4314.358974,4495.897435,4496.410256,4240.000000,4456.923076,4175.897435,4429.230769,4201.538461,4210.256410,4470.256410,4184.102564,4616.410256,3968.205129,4026.666666
55,4318.461538,4496.923076,4500.512820,4250.769230,4460.512820,4178.974358,4428.717948,4207.179487,4216.410256,4481.538461,4196.410256,4618.974358,3967.692308,4033.846153
56,4308.205128,4496.410256,4492.307692,4246.666666,4456.410256,4177.948717,4426.666666,4197.948717,4205.641025,4469.230769,4181.538461,4607.692307,3957.435898,4025.128205
57,4289.743589,4484.102564,4476.923076,4228.205128,4448.205128,4169.230769,4420.512820,4185.128205,4189.743589,4442.564102,4164.615384,4597.948717,3946.153847,4006.666666
58,4283.076923,4468.205128,4469.230769,4214.871794,4446.153846,4159.487179,4412.820512,4180.512820,4187.692307,4436.923076,4158.974358,4589.230769,3937.948718,3998.461539
59,4292.307692,4471.794871,4472.820512,4219.487179,4446.666666,4165.128205,4418.974358,4183.076923,4195.897435,4454.358974,4161.025641,4585.128205,3942.051283,4011.282051
60,4296.410256,4480.512820,4478.974358,4229.230769,4445.641025,4173.333333,4429.230769,4192.307692,4205.128205,4466.666666,4163.589743,4591.282051,3948.205129,4016.410256
61,4293.333333,4484.102564,4482.564102,4230.769230,4451.794871,4172.307692,4429.743589,4198.974358,4209.743589,4463.589743,4167.179487,4601.025641,3949.230770,4001.025641
62,4295.897435,4489.230769,4482.564102,4226.666666,4455.384615,4172.820512,4428.717948,4194.871794,4200.000000,4450.256410,4168.717948,4601.538461,3950.769231,3994.358975
63,4295.384615,4480.512820,4478.461538,4221.025641,4449.230769,4170.769230,4425.128205,4190.256410,4188.205128,4441.538461,4158.974358,4589.743589,3944.615385,4005.128205
64,4288.205128,4468.717948,4476.410256,4221.025641,4445.128205,4164.102564,4422.564102,4191.794871,4193.333333,4445.641025,4150.256410,4585.641025,3934.358975,4002.051282
65,4291.794871,4475.384615,4480.512820,4229.743589,4448.717948,4165.641025,4429.230769,4193.846153,4201.025641,4450.769230,4156.923076,4597.435897,3941.538462,3994.871795
66,4301.025641,4485.641025,4487.692307,4234.871794,4449.230769,4169.230769,4431.282051,4197.435897,4202.051282,4453.846153,4173.333333,4608.205128,3957.948718,4005.641025
67,4300.512820,4482.564102,4491.794871,4226.666666,4445.128205,4164.102564,4426.666666,4200.512820,4207.179487,4457.435897,4186.153846,4609.230769,3957.435898,4014.358974
68,4297.948717,4476.923076,4489.743589,4217.948717,4441.538461,4161.538461,4426.153846,4197.948717,4207.179487,4457.435897,4182.051282,4610.769230,3953.333334,4006.666666
69,4298.461538,4474.871794,4486.153846,4217.435897,4442.051282,4163.589743,4425.128205,4192.820512,4193.846153,4451.794871,4167.179487,4612.307692,3962.051283,4001.538461
70,4298.974358,4474.871794,4485.128205,4220.512820,4443.589743,4162.564102,4417.435897,4189.743589,4190.256410,4452.307692,4167.692307,4609.743589,3964.102565,4006.666666
71,4297.948717,4478.974358,4484.102564,4220.512820,4441.538461,4160.000000,4412.820512,4192.820512,4204.102564,4460.000000,4180.000000,4609.230769,3958.461539,4012.820512
72,4302.564102,4484.615384,4486.666666,4220.512820,4441.025641,4162.051282,4416.923076,4200.512820,4213.333333,4467.179487,4184.102564,4615.384615,3965.641026,4017.948717
73,4306.666666,4485.128205,4491.794871,4218.974358,4447.179487,4166.666666,4422.051282,4200.512820,4207.692307,4466.666666,4181.538461,4620.000000,3973.333334,4015.384615
74,4296.410256,4475.897435,4485.641025,4213.333333,4448.205128,4165.641025,4416.410256,4192.307692,4195.897435,4457.948717,4175.384615,4607.179487,3961.538462,4006.666666
75,4288.717948,4472.307692,4476.410256,4215.897435,4446.153846,4162.051282,4408.717948,4188.205128,4194.871794,4452.820512,4167.692307,4596.410256,3954.871795,4005.641025
76,4298.974358,4480.512820,4482.564102,4223.589743,4449.230769,4164.102564,4411.282051,4191.282051,4203.076923,4455.897435,4176.410256,4607.179487,3964.615385,4011.794871
77,4306.666666,4485.641025,4490.256410,4223.076923,4451.282051,4169.230769,4416.410256,4195.897435,4206.153846,4461.025641,4185.641025,4618.974358,3965.128206,4012.307692
78,4305.641025,4480.000000,4488.205128,4217.435897,4447.692307,4166.666666,4415.384615,4198.461538,4204.102564,4468.205128,4171.794871,4615.897435,3956.923077,4010.769230
79,4306.153846,4473.846153,4489.743589,4217.948717,4447.692307,4164.615384,4413.846153,4196.410256,4205.128205,4471.282051,4166.666666,4614.871794,3960.512821,4016.410256
80,4305.128205,4469.743589,4492.820512,4221.025641,4448.717948,4168.717948,4414.358974,4193.846153,4205.128205,4462.564102,4184.615384,4616.410256,3969.743590,4015.384615
81,4303.589743,4471.282051,4487.692307,4220.000000,4445.128205,4169.230769,4417.948717,4192.820512,4201.025641,4455.897435,4184.615384,4609.230769,3964.102565,4004.615384
82,4302.051282,4473.846153,4478.974358,4213.846153,4444.102564,4166.153846,4418.461538,4189.230769,4196.410256,4455.897435,4167.179487,4601.538461,3949.230770,3998.974359
83,4296.923076,4469.743589,4477.435897,4216.410256,4444.102564,4160.512820,4413.333333,4188.205128,4193.846153,4451.282051,4167.692307,4601.025641,3950.769231,4001.025641
84,4299.487179,4467.179487,4482.564102,4227.692307,4441.025641,4161.538461,4418.461538,4194.871794,4201.025641,4452.307692,4172.307692,4603.589743,3966.153847,4002.564102
85,4305.641025,4473.846153,4484.615384,4225.128205,4443.076923,4171.794871,4424.615384,4195.384615,4209.743589,4463.076923,4159.487179,4609.230769,3968.205129,4001.538461
86,4305.128205,4482.564102,4482.564102,4221.538461,4451.282051,4173.846153,4421.538461,4192.307692,4210.256410,4465.641025,4159.487179,4615.384615,3960.000000,4000.512820
87,4305.128205,4481.025641,4481.538461,4228.717948,4452.307692,4168.205128,4420.000000,4192.820512,4204.615384,4458.461538,4177.435897,4617.948717,3960.512821,4004.102564
88,4309.743589,4476.923076,4483.076923,4227.179487,4448.717948,4169.743589,4423.076923,4191.282051,4199.487179,4458.461538,4185.128205,4616.410256,3963.589744,4005.128205
89,4309.743589,4481.538461,4484.102564,4220.512820,4450.256410,4174.358974,4423.076923,4189.743589,4199.487179,4465.641025,4175.897435,4614.871794,3965.641026,4004.615384
90,4313.846153,4487.179487,4488.717948,4230.256410,4453.333333,4173.846153,4422.564102,4198.461538,4206.153846,4470.769230,4178.974358,4617.435897,3974.871795,4016.923076
91,4324.615384,4488.205128,4496.923076,4238.461538,4454.358974,4171.794871,4423.589743,4203.076923,4211.282051,4470.256410,4188.205128,4623.076923,3984.615385,4028.205128
92,4325.128205,4488.717948,4497.435897,4227.179487,4450.769230,4169.230769,4417.948717,4197.948717,4210.256410,4467.179487,4181.538461,4626.666666,3982.564103,4018.461538
93,4316.923076,4488.717948,4491.282051,4225.641025,4448.205128,4168.717948,4415.384615,4201.025641,4213.333333,4469.743589,4182.564102,4626.153846,3980.512821,4010.256410
94,4315.384615,4482.564102,4487.692307,4235.384615,4450.256410,4172.307692,4420.512820,4202.564102,4213.333333,4473.846153,4194.358974,4622.564102,3984.102565,4019.487179
95,4316.410256,4470.769230,4484.102564,4228.205128,4449.743589,4169.230769,4417.948717,4190.769230,4205.128205,4469.743589,4182.051282,4616.410256,3980.512821,4017.435897
96,4311.794871,4472.820512,4481.538461,4220.000000,4448.205128,4163.076923,4410.769230,4185.128205,4203.589743,4464.615384,4168.205128,4614.871794,3974.871795,4005.128205
97,4312.307692,4484.102564,4487.692307,4228.205128,4448.205128,4165.641025,4416.410256,4194.358974,4208.717948,4467.692307,4178.461538,4617.435897,3976.410257,4007.179487
98,4316.923076,4481.025641,4492.307692,4228.205128,4448.205128,4171.794871,4423.076923,4203.589743,4214.358974,4470.769230,4184.615384,4616.410256,3978.974359,4017.435897
99,4314.358974,4471.282051,4487.692307,4218.461538,4448.205128,4169.230769,4419.487179,4201.538461,4220.000000,4470.256410,4178.974358,4615.897435,3981.025642,4020.000000
100,4312.307692,4476.923076,4486.666666,4225.641025,4449.743589,4166.153846,4415.384615,4195.897435,4218.974358,4468.717948,4182.051282,4615.384615,3982.564103,4011.282051
101,4322.564102,4488.717948,4496.923076,4235.897435,4454.358974,4175.897435,4417.435897,4194.358974,4211.794871,4469.230769,4189.743589,4619.487179,3982.051283,4009.743589
102,4330.256410,4492.820512,4502.051282,4233.333333,4457.435897,4183.076923,4422.051282,4200.000000,4213.333333,4478.974358,4198.461538,4630.256410,3983.589744,4022.564102
103,4326.666666,4491.794871,4497.948717,4232.820512,4454.871794,4175.384615,4423.076923,4204.102564,4221.025641,4487.692307,4197.948717,4630.769230,3985.641026,4029.230769
104,4322.564102,4484.102564,4496.923076,4234.871794,4452.820512,4172.307692,4417.435897,4201.025641,4225.641025,4481.538461,4182.051282,4620.000000,3981.538462,4017.435897
105,4325.128205,4484.615384,4497.948717,4232.307692,4455.384615,4176.410256,4413.333333,4197.435897,4222.051282,4470.256410,4175.384615,4617.948717,3975.384616,4013.846153
106,4328.717948,4497.435897,4496.923076,4235.897435,4455.384615,4175.897435,4418.461538,4194.871794,4213.846153,4466.666666,4189.230769,4620.512820,3977.948718,4026.153846
107,4326.153846,4490.256410,4495.897435,4241.538461,4451.794871,4172.307692,4418.974358,4191.282051,4206.666666,4465.641025,4195.384615,4615.897435,3978.461539,4024.615384
108,4320.000000,4473.333333,4492.307692,4237.435897,4449.230769,4171.282051,4413.846153,4186.666666,4201.538461,4460.512820,4186.666666,4613.333333,3968.205129,4011.282051
109,4317.948717,4478.461538,4492.307692,4229.230769,4448.717948,4168.717948,4416.410256,4189.230769,4204.615384,4459.487179,4181.538461,4615.384615,3965.128206,4009.230769
110,4323.589743,4487.179487,4497.435897,4231.282051,4451.794871,4167.692307,4421.025641,4197.435897,4220.000000,4467.692307,4186.153846,4615.384615,3978.461539,4022.051282
111,4328.205128,4485.641025,4500.000000,4237.435897,4452.820512,4172.307692,4417.948717,4198.461538,4226.153846,4474.358974,4182.051282,4615.384615,3990.256411,4028.205128
112,4328.205128,4487.692307,4501.538461,4235.384615,4451.282051,4175.897435,4415.384615,4195.384615,4217.435897,4473.846153,4169.743589,4614.358974,3986.666667,4018.461538
113,4332.307692,4493.333333,4506.153846,4230.769230,4455.897435,4174.871794,4421.538461,4200.512820,4215.897435,4477.435897,4180.000000,4615.384615,3977.948718,4014.871794
114,4335.384615,4494.871794,4505.128205,4235.384615,4458.974358,4175.384615,4426.153846,4204.615384,4221.025641,4482.051282,4200.512820,4617.435897,3981.025642,4025.128205
115,4330.769230,4496.923076,4502.051282,4240.000000,4452.820512,4176.410256,4423.076923,4198.461538,4223.076923,4474.871794,4195.897435,4611.282051,3986.153847,4029.230769
116,4326.153846,4497.435897,4504.102564,4235.897435,4449.230769,4174.358974,4417.948717,4195.384615,4221.538461,4465.128205,4187.692307,4605.128205,3983.076924,4021.025641
117,4329.743589,4491.794871,4505.641025,4236.923076,4451.794871,4172.307692,4416.410256,4197.948717,4219.487179,4468.717948,4191.282051,4609.230769,3982.051283,4018.461538
118,4332.820512,4489.743589,4505.128205,4245.641025,4454.871794,4172.307692,4416.923076,4195.384615,4217.435897,4472.820512,4192.307692,4609.230769,3985.641026,4024.102564
119,4331.794871,4494.358974,4505.128205,4240.000000,4455.384615,4175.384615,4415.384615,4192.307692,4213.333333,4469.743589,4193.333333,4602.051282,3981.538462,4020.512820
120,4333.333333,4500.512820,4504.615384,4228.205128,4456.923076,4179.487179,4415.384615,4196.410256,4213.333333,4475.897435,4193.333333,4602.564102,3983.589744,4014.358974
121,4334.358974,4497.948717,4502.051282,4232.820512,4459.487179,4177.435897,4415.384615,4195.384615,4213.846153,4481.025641,4187.692307,4604.615384,3993.333334,4020.512820
122,4329.743589,4487.692307,4500.512820,4236.923076,4456.923076,4174.871794,4415.897435,4190.256410,4206.666666,4467.179487,4191.794871,4600.512820,3986.153847,4027.692307
123,4329.230769,4486.666666,4503.589743,4231.282051,4455.897435,4177.435897,4421.538461,4195.384615,4208.205128,4466.153846,4198.974358,4605.641025,3981.538462,4024.615384
124,4341.025641,4497.948717,4512.307692,4237.948717,4460.000000,4177.435897,4425.128205,4208.717948,4224.615384,4484.615384,4196.923076,4615.384615,3993.333334,4026.153846
125,4346.666666,4502.564102,4517.435897,4249.230769,4462.564102,4176.410256,4422.564102,4213.846153,4230.769230,4492.820512,4202.564102,4615.897435,4000.512820,4033.846153
126,4343.589743,4498.461538,4514.871794,4248.205128,4463.076923,4185.128205,4428.205128,4210.769230,4225.641025,4494.871794,4212.307692,4615.897435,3996.410257,4035.384615
127,4343.076923,4501.538461,4513.846153,4248.205128,4464.615384,4188.717948,4434.358974,4208.205128,4223.589743,4496.410256,4202.051282,4613.846153,3989.743590,4031.794871
128,4339.487179,4504.615384,4513.846153,4251.282051,4466.153846,4180.512820,4429.230769,4205.641025,4220.000000,4486.153846,4185.641025,4605.128205,3985.128206,4028.717948
129,4333.846153,4497.948717,4509.230769,4242.564102,4464.615384,4178.974358,4424.102564,4201.538461,4216.410256,4473.846153,4181.025641,4601.025641,3985.641026,4030.769230
130,4334.358974,4497.435897,4505.641025,4238.974358,4460.512820,4181.025641,4424.102564,4198.974358,4217.435897,4471.794871,4182.051282,4603.589743,3985.641026,4030.769230
131,4336.923076,4504.102564,4507.692307,4242.051282,4458.461538,4175.384615,4425.641025,4202.051282,4219.487179,4477.948717,4184.615384,4602.051282,3981.025642,4025.128205
132,4334.871794,4500.512820,4509.743589,4237.435897,4461.538461,4172.820512,4428.205128,4206.666666,4222.564102,4486.153846,4189.230769,4602.051282,3980.512821,4022.564102
133,4338.974358,4497.948717,4514.358974,4238.974358,4464.615384,4180.512820,4430.769230,4211.282051,4224.615384,4482.051282,4196.410256,4613.846153,3987.692308,4032.307692
134,4348.717948,4508.205128,4522.564102,4252.820512,4468.205128,4187.179487,4432.307692,4217.435897,4224.615384,4478.974358,4204.615384,4617.435897,3996.923077,4041.025641
135,4348.205128,4512.820512,4522.051282,4254.358974,4470.256410,4186.153846,4432.820512,4216.923076,4227.692307,4486.666666,4199.487179,4605.128205,3999.487180,4033.333333
136,4341.538461,4506.666666,4512.820512,4241.538461,4465.641025,4181.025641,4429.743589,4205.641025,4225.128205,4479.487179,4185.641025,4595.897435,3994.871795,4022.564102
137,4342.564102,4508.205128,4513.333333,4246.666666,4465.641025,4179.487179,4429.743589,4202.564102,4218.461538,4466.666666,4186.666666,4599.487179,3992.820513,4028.717948
138,4349.230769,4514.871794,4521.025641,4263.589743,4472.307692,4187.179487,4432.307692,4212.820512,4222.564102,4480.512820,4199.487179,4603.589743,3990.256411,4036.410256
139,4349.743589,4510.769230,4520.000000,4261.538461,4470.256410,4191.282051,4430.256410,4212.307692,4226.666666,4490.769230,4195.897435,4600.512820,3983.076924,4025.128205
140,4344.102564,4502.564102,4515.897435,4250.256410,4465.128205,4185.641025,4426.153846,4202.051282,4216.923076,4474.358974,4182.564102,4598.461538,3984.102565,4022.564102
141,4341.538461,4505.128205,4513.846153,4251.794871,4467.179487,4181.025641,4427.179487,4202.051282,4208.717948,4468.205128,4183.076923,4596.410256,3990.769231,4035.897435
142,4341.538461,4510.256410,4508.717948,4252.307692,4467.692307,4181.538461,4428.205128,4204.102564,4211.794871,4476.410256,4187.692307,4587.692307,3988.717949,4030.256410
143,4343.589743,4510.256410,4505.128205,4247.692307,4462.564102,4180.000000,4424.615384,4198.974358,4211.794871,4469.230769,4187.179487,4588.717948,3981.538462,4016.923076
144,4344.102564,4512.820512,4510.256410,4250.769230,4462.564102,4174.871794,4426.666666,4199.487179,4210.256410,4462.564102,4188.205128,4598.461538,3981.025642,4027.179487
145,4342.051282,4509.743589,4512.820512,4248.717948,4466.153846,4178.461538,4430.256410,4207.179487,4212.307692,4471.282051,4186.666666,4594.871794,3985.128206,4036.923076
146,4338.974358,4497.435897,4507.692307,4241.538461,4465.128205,4181.025641,4429.230769,4210.256410,4213.846153,4478.461538,4180.000000,4587.692307,3986.153847,4023.589743
147,4341.538461,4499.487179,4508.717948,4250.256410,4465.641025,4180.512820,4432.820512,4212.307692,4216.410256,4476.410256,4185.641025,4596.410256,3985.128206,4019.487179
148,4346.153846,4510.256410,4515.897435,4256.923076,4470.256410,4185.128205,4440.000000,4213.846153,4223.589743,4477.435897,4198.974358,4604.102564,3987.179488,4037.435897
149,4343.589743,4503.589743,4514.358974,4247.179487,4472.307692,4188.205128,4434.871794,4208.205128,4225.128205,4479.487179,4195.384615,4598.974358,3991.794872,4043.076923
150,4344.102564,4497.948717,4511.794871,4247.692307,4469.743589,4188.717948,4429.743589,4211.794871,4225.641025,4485.641025,4194.358974,4599.487179,3995.384616,4031.794871
151,4353.846153,4510.256410,4522.051282,4261.538461,4472.307692,4189.743589,4439.487179,4225.128205,4232.307692,4498.461538,4211.282051,4610.769230,4003.589743,4035.897435
152,4357.948717,4519.487179,4530.769230,4261.538461,4478.461538,4190.769230,4445.641025,4224.615384,4233.333333,4501.538461,4212.820512,4612.820512,4008.205128,4051.282051
153,4350.769230,4515.897435,4526.666666,4246.666666,4473.333333,4187.692307,4441.538461,4216.410256,4226.666666,4489.743589,4200.000000,4602.564102,3998.461539,4046.153846
154,4347.692307,4510.256410,4524.102564,4245.128205,4464.102564,4184.615384,4437.948717,4218.974358,4221.538461,4478.974358,4200.512820,4600.000000,3990.256411,4034.358974
155,4350.769230,4502.564102,4524.102564,4256.410256,4461.538461,4178.974358,4431.794871,4217.948717,4221.538461,4478.461538,4193.333333,4603.076923,3989.743590,4036.410256
156,4347.179487,4500.000000,4520.512820,4256.923076,4462.564102,4177.948717,4427.692307,4209.743589,4222.051282,4481.538461,4182.051282,4597.948717,3988.717949,4041.025641
157,4346.153846,4510.256410,4523.589743,4255.384615,4464.102564,4186.666666,4439.487179,4215.897435,4224.102564,4485.128205,4194.358974,4596.410256,3992.820513,4043.589743
158,4352.820512,4512.820512,4531.794871,4262.051282,4467.179487,4189.230769,4447.179487,4224.615384,4225.641025,4487.179487,4205.128205,4602.564102,4000.000000,4041.538461
159,4356.410256,4509.230769,4529.743589,4263.076923,4467.692307,4184.102564,4437.948717,4220.512820,4223.076923,4484.615384,4198.461538,4602.051282,4001.025641,4040.512820
160,4358.461538,4513.846153,4528.205128,4260.000000,4466.153846,4182.051282,4435.384615,4217.948717,4223.076923,4483.589743,4206.666666,4598.974358,4004.615384,4053.333333
161,4361.025641,4514.358974,4533.333333,4261.538461,4469.230769,4183.589743,4444.615384,4226.666666,4230.769230,4490.769230,4216.410256,4603.076923,4008.205128,4061.538461
162,4356.923076,4508.717948,4532.307692,4257.435897,4472.820512,4186.666666,4444.615384,4226.666666,4233.333333,4496.923076,4207.179487,4603.076923,4001.538461,4046.666666
163,4353.333333,4512.307692,4527.179487,4249.230769,4469.743589,4189.230769,4433.846153,4214.358974,4223.076923,4491.794871,4204.102564,4593.846153,3992.820513,4037.948717
164,4357.948717,4521.538461,4528.205128,4254.358974,4469.743589,4188.717948,4430.769230,4209.743589,4216.410256,4485.128205,4210.256410,4592.820512,3990.256411,4048.205128
165,4366.153846,4525.128205,4532.307692,4266.666666,4476.410256,4191.794871,4439.487179,4218.974358,4225.641025,4486.666666,4206.666666,4598.974358,3993.846154,4056.410256
166,4368.205128,4528.205128,4533.846153,4266.666666,4475.897435,4194.358974,4442.051282,4223.589743,4229.743589,4487.692307,4198.461538,4598.974358,3996.923077,4051.282051
167,4362.051282,4527.179487,4530.256410,4256.410256,4472.307692,4190.256410,4431.794871,4217.948717,4223.589743,4486.153846,4189.230769,4591.794871,3993.333334,4041.538461
168,4360.512820,4525.641025,4529.743589,4257.948717,4474.871794,4189.230769,4428.205128,4218.461538,4224.615384,4489.743589,4186.666666,4588.717948,3994.871795,4050.256410
169,4364.102564,4529.743589,4536.410256,4269.230769,4473.333333,4190.769230,4431.282051,4221.025641,4225.128205,4488.205128,4198.974358,4589.230769,3998.974359,4062.564102
170,4362.564102,4525.128205,4538.974358,4268.717948,4466.153846,4188.205128,4429.743589,4215.897435,4221.538461,4484.615384,4214.358974,4593.333333,3996.923077,4054.358974
171,4363.589743,4518.461538,4537.435897,4260.512820,4469.230769,4190.256410,4431.282051,4217.435897,4227.692307,4491.282051,4212.820512,4602.051282,3997.948718,4050.769230
172,4366.666666,4520.000000,4537.435897,4264.102564,4475.384615,4193.333333,4434.358974,4225.128205,4234.358974,4491.282051,4206.153846,4602.564102,4003.589743,4061.538461
173,4361.025641,4521.538461,4536.410256,4266.153846,4472.307692,4187.179487,4429.230769,4217.948717,4227.692307,4486.666666,4204.102564,4595.897435,3996.410257,4056.410256
174,4356.923076,4519.487179,4533.333333,4263.589743,4468.205128,4185.128205,4426.153846,4210.769230,4223.589743,4491.282051,4198.974358,4594.871794,3987.179488,4044.102564
175,4356.923076,4514.871794,4530.256410,4263.076923,4467.179487,4188.717948,4430.256410,4216.410256,4224.615384,4489.230769,4195.384615,4593.333333,3987.179488,4046.153846
176,4350.769230,4506.666666,4528.717948,4256.923076,4467.692307,4184.102564,4428.205128,4216.923076,4220.512820,4477.948717,4195.384615,4586.153846,3987.692308,4044.615384
177,4354.358974,4507.692307,4530.769230,4254.358974,4470.769230,4183.076923,4427.692307,4214.358974,4226.153846,4480.512820,4196.923076,4588.717948,3988.717949,4041.538461
178,4365.128205,4521.025641,4533.846153,4265.641025,4474.358974,4193.846153,4437.948717,4224.102564,4239.487179,4490.769230,4200.512820,4599.487179,3994.358975,4050.256410
179,4367.179487,4527.692307,4536.923076,4273.846153,4475.897435,4199.487179,4442.051282,4231.282051,4242.564102,4493.846153,4209.743589,4603.076923,4000.512820,4063.076923
180,4368.717948,4528.205128,4540.000000,4271.794871,4478.974358,4193.846153,4434.871794,4227.179487,4241.025641,4501.025641,4222.051282,4609.743589,4006.153846,4065.128205
181,4371.282051,4530.769230,4537.948717,4272.307692,4477.435897,4191.794871,4433.846153,4222.051282,4239.487179,4511.282051,4215.897435,4618.461538,4007.692307,4058.461538
182,4366.153846,4529.230769,4532.307692,4266.666666,4471.282051,4191.794871,4435.384615,4217.948717,4234.871794,4509.230769,4200.000000,4615.384615,4006.666666,4055.897435
183,4363.589743,4529.230769,4531.794871,4262.051282,4471.282051,4187.179487,4432.307692,4216.410256,4233.333333,4500.000000,4202.564102,4613.333333,4003.589743,4064.102564
184,4364.615384,4530.256410,4533.333333,4270.769230,4470.769230,4186.153846,4430.256410,4214.871794,4231.282051,4493.846153,4214.871794,4613.846153,4001.025641,4067.692307
185,4361.538461,4524.615384,4530.256410,4272.307692,4466.666666,4187.179487,4430.769230,4207.692307,4224.615384,4492.820512,4208.205128,4605.641025,3996.410257,4053.846153
186,4365.128205,4524.615384,4529.230769,4271.794871,4468.717948,4188.717948,4433.333333,4210.256410,4233.333333,4498.974358,4196.410256,4606.153846,3999.487180,4052.820512
187,4373.846153,4535.384615,4533.333333,4275.897435,4476.923076,4192.820512,4440.512820,4222.564102,4244.615384,4505.128205,4202.564102,4620.512820,4010.256410,4070.256410
188,4370.769230,4532.307692,4532.820512,4270.256410,4478.974358,4195.897435,4444.615384,4221.025641,4231.282051,4498.974358,4204.615384,4618.461538,4004.615384,4068.717948
189,4363.076923,4522.051282,4530.769230,4267.179487,4476.410256,4195.384615,4442.051282,4212.820512,4219.487179,4493.333333,4197.435897,4604.615384,3987.692308,4047.179487
190,4362.564102,4524.615384,4528.717948,4277.948717,4475.384615,4192.820512,4437.435897,4216.923076,4227.692307,4500.512820,4195.384615,4604.102564,3985.641026,4040.512820
191,4362.564102,4523.076923,4523.076923,4273.333333,4471.794871,4188.717948,4433.333333,4218.974358,4229.743589,4493.846153,4185.641025,4606.153846,3991.794872,4051.282051
192,4359.487179,4519.487179,4523.589743,4257.435897,4471.794871,4187.179487,4436.410256,4211.794871,4225.641025,4483.589743,4173.846153,4601.025641,3990.769231,4051.794871
193,4361.025641,4523.589743,4526.153846,4264.102564,4477.435897,4192.307692,4444.102564,4218.461538,4232.307692,4500.000000,4188.717948,4603.589743,3987.179488,4042.564102
194,4363.076923,4525.128205,4522.051282,4268.717948,4479.487179,4195.897435,4445.128205,4229.743589,4238.974358,4512.307692,4212.820512,4609.743589,3991.794872,4046.666666
195,4362.051282,4518.461538,4519.487179,4254.358974,4474.358974,4190.769230,4443.076923,4225.128205,4237.948717,4501.025641,4212.820512,4610.769230,4004.102564,4061.538461
196,4362.564102,4515.384615,4523.589743,4256.410256,4473.333333,4187.692307,4445.641025,4220.512820,4238.974358,4493.846153,4200.512820,4612.820512,4010.769230,4062.564102
197,4366.666666,4521.025641,4525.641025,4267.179487,4479.487179,4193.846153,4446.153846,4226.153846,4242.564102,4505.641025,4196.410256,4618.974358,4005.641025,4052.820512
198,4373.846153,4527.179487,4526.666666,4267.179487,4483.589743,4200.512820,4447.692307,4228.717948,4242.564102,4513.333333,4203.589743,4619.487179,4003.589743,4057.948717
199,4375.384615,4523.589743,4530.256410,4269.230769,4484.615384,4203.076923,4450.769230,4228.205128,4237.435897,4505.641025,4211.282051,4617.948717,4007.179487,4069.230769
200,4369.743589,4512.820512,4530.769230,4272.820512,4482.051282,4200.512820,4448.717948,4226.666666,4236.410256,4499.487179,4207.179487,4618.461538,4005.641025,4066.153846
201,4370.256410,4512.820512,4529.230769,4266.666666,4481.025641,4195.897435,4445.641025,4228.205128,4244.615384,4505.641025,4205.641025,4622.051282,4008.717948,4055.897435
202,4373.846153,4518.461538,4528.205128,4262.564102,4481.538461,4195.384615,4447.179487,4228.205128,4247.692307,4512.307692,4215.384615,4621.538461,4013.333333,4056.923076
203,4367.692307,4512.820512,4526.153846,4263.076923,4478.974358,4196.410256,4443.076923,4221.538461,4240.000000,4509.230769,4209.743589,4614.871794,4005.128205,4062.564102
204,4366.153846,4508.717948,4526.153846,4261.025641,4479.487179,4194.358974,4442.051282,4217.435897,4235.897435,4502.051282,4196.410256,4614.871794,3999.487180,4058.974358
205,4381.538461,4515.384615,4532.307692,4267.179487,4486.153846,4200.000000,4454.358974,4229.230769,4242.564102,4505.128205,4204.102564,4627.692307,4011.794871,4056.410256
206,4387.179487,4522.051282,4538.974358,4273.846153,4491.282051,4207.179487,4460.000000,4237.948717,4246.153846,4516.923076,4220.000000,4634.358974,4023.076923,4063.076923
207,4377.435897,4519.487179,4533.333333,4267.692307,4485.641025,4202.564102,4447.179487,4229.230769,4242.051282,4514.358974,4210.769230,4626.153846,4013.333333,4063.589743
208,4381.538461,4523.589743,4530.256410,4265.128205,4484.102564,4199.487179,4442.051282,4222.051282,4247.179487,4498.974358,4203.076923,4623.076923,4003.589743,4062.564102
209,4397.948717,4535.897435,4542.051282,4281.538461,4494.358974,4209.230769,4452.307692,4229.230769,4253.333333,4507.692307,4223.076923,4636.410256,4017.435897,4071.794871
210,4403.076923,4537.948717,4549.230769,4291.282051,4501.025641,4215.384615,4454.358974,4232.307692,4244.615384,4521.538461,4228.205128,4643.589743,4029.230769,4077.948717
211,4395.384615,4532.820512,4538.461538,4276.410256,4495.897435,4208.205128,4445.641025,4225.641025,4237.948717,4512.820512,4209.743589,4631.794871,4017.435897,4075.384615
212,4389.230769,4528.205128,4528.205128,4267.179487,4487.692307,4203.076923,4443.076923,4222.564102,4244.102564,4505.641025,4208.205128,4618.461538,4004.615384,4067.692307
213,4385.128205,4525.128205,4526.666666,4272.820512,4484.102564,4203.076923,4444.615384,4224.615384,4245.128205,4510.256410,4213.846153,4617.435897,4008.717948,4060.512820
214,4384.615384,4525.128205,4524.615384,4275.897435,4482.564102,4198.461538,4444.615384,4221.025641,4237.435897,4504.102564,4208.205128,4618.461538,4013.333333,4063.589743
215,4388.205128,4528.717948,4525.641025,4273.846153,4483.076923,4195.384615,4443.589743,4216.923076,4235.897435,4495.384615,4210.256410,4618.461538,4006.153846,4070.256410
216,4390.256410,4526.666666,4527.179487,4270.769230,4484.102564,4200.512820,4445.128205,4222.051282,4244.102564,4503.076923,4207.692307,4623.589743,4003.076923,4064.615384
217,4392.820512,4523.589743,4530.769230,4269.743589,4488.205128,4206.666666,4451.794871,4231.794871,4253.846153,4511.794871,4194.871794,4631.794871,4015.897435,4062.051282
218,4393.846153,4527.692307,4540.000000,4277.948717,4493.333333,4206.153846,4456.923076,4235.384615,4251.282051,4511.794871,4206.153846,4634.871794,4027.692307,4072.820512
219,4390.769230,4528.717948,4539.487179,4282.564102,4490.256410,4204.102564,4451.282051,4228.717948,4239.487179,4511.794871,4225.641025,4630.256410,4023.076923,4076.923076
220,4388.205128,4525.641025,4533.846153,4277.948717,4487.179487,4206.666666,4445.128205,4226.153846,4240.512820,4515.384615,4226.666666,4628.205128,4014.358974,4073.846153
221,4390.256410,4527.692307,4535.897435,4278.974358,4489.743589,4208.205128,4446.153846,4232.307692,4250.769230,4514.358974,4220.512820,4630.769230,4011.794871,4070.256410
222,4391.282051,4527.179487,4536.923076,4280.512820,4489.230769,4203.589743,4445.641025,4233.333333,4250.769230,4509.743589,4216.410256,4629.230769,4013.846153,4065.641025
223,4388.205128,4523.076923,4534.358974,4278.461538,4484.615384,4200.000000,4443.589743,4225.641025,4240.512820,4506.666666,4207.179487,4624.615384,4017.435897,4070.769230
224,4387.692307,4523.589743,4535.897435,4278.461538,4483.589743,4203.589743,4443.589743,4222.051282,4236.410256,4506.153846,4198.461538,4627.179487,4019.487179,4079.487179
225,4392.820512,4532.820512,4540.512820,4281.538461,4487.179487,4206.666666,4446.153846,4228.205128,4242.051282,4510.769230,4212.307692,4633.846153,4020.000000,4077.948717
226,4399.487179,4541.538461,4541.538461,4285.128205,4494.871794,4209.230769,4449.743589,4229.743589,4245.641025,4514.871794,4237.435897,4634.358974,4017.948717,4075.384615
227,4398.974358,4541.025641,4539.487179,4285.128205,4500.512820,4212.307692,4448.205128,4224.615384,4242.051282,4512.307692,4238.461538,4633.333333,4016.410256,4083.076923
228,4392.307692,4535.384615,4533.846153,4275.897435,4496.923076,4209.230769,4442.564102,4221.025641,4237.948717,4507.692307,4210.769230,4629.743589,4018.974358,4085.128205
229,4387.179487,4530.256410,4528.205128,4270.769230,4493.333333,4206.666666,4442.051282,4220.512820,4234.871794,4506.666666,4201.538461,4621.025641,4017.435897,4073.333333
230,4387.692307,4526.153846,4526.666666,4280.512820,4495.897435,4207.179487,4443.589743,4218.974358,4233.846153,4508.205128,4212.307692,4615.384615,4010.256410,4062.051282
231,4392.820512,4528.717948,4527.692307,4287.692307,4494.358974,4207.179487,4440.512820,4220.000000,4237.435897,4511.794871,4209.743589,4616.923076,4008.717948,4066.666666
232,4394.358974,4534.871794,4529.230769,4279.487179,4492.307692,4206.666666,4436.923076,4220.512820,4241.025641,4505.641025,4202.564102,4615.897435,4007.692307,4074.871794
233,4394.871794,4532.820512,4531.794871,4274.358974,4496.410256,4209.230769,4438.974358,4220.512820,4243.076923,4490.256410,4209.743589,4614.871794,4006.153846,4071.282051
234,4399.487179,4532.820512,4535.897435,4286.153846,4498.974358,4211.282051,4446.666666,4220.000000,4239.487179,4497.948717,4222.564102,4620.000000,4013.333333,4072.820512
235,4399.487179,4536.923076,4535.384615,4292.820512,4491.282051,4206.153846,4443.076923,4215.384615,4228.717948,4512.820512,4215.384615,4620.512820,4016.923076,4083.076923
236,4392.307692,4531.282051,4530.769230,4283.589743,4483.589743,4202.051282,4428.205128,4214.358974,4229.230769,4503.589743,4199.487179,4613.333333,4008.205128,4082.564102
237,4389.230769,4524.615384,4531.282051,4276.923076,4485.641025,4199.487179,4430.256410,4216.923076,4239.487179,4494.871794,4204.615384,4611.282051,4001.025641,4066.666666
238,4391.282051,4526.666666,4533.846153,4278.461538,4487.692307,4200.000000,4441.025641,4218.974358,4240.512820,4503.589743,4220.512820,4615.384615,4002.564102,4061.025641
239,4387.179487,4526.153846,4532.307692,4274.871794,4484.615384,4201.025641,4439.487179,4220.000000,4234.358974,4506.666666,4213.846153,4616.923076,4012.307692,4072.307692
240,4381.025641,4517.948717,4530.256410,4263.076923,4482.051282,4198.461538,4434.358974,4216.923076,4228.717948,4498.461538,4200.000000,4613.333333,4012.820512,4074.358974
241,4381.538461,4517.948717,4532.820512,4261.025641,4482.564102,4197.435897,4438.974358,4217.948717,4231.794871,4498.461538,4214.871794,4613.846153,4005.128205,4066.666666
242,4387.179487,4524.615384,4535.897435,4270.769230,4483.589743,4200.512820,4440.000000,4221.538461,4236.410256,4504.102564,4228.717948,4618.974358,4008.717948,4068.717948
243,4384.615384,4520.000000,4530.769230,4274.358974,4480.000000,4196.410256,4431.794871,4214.871794,4230.769230,4504.615384,4210.769230,4613.846153,4012.820512,4071.794871
244,4381.025641,4515.897435,4529.743589,4273.846153,4481.025641,4192.820512,4434.871794,4213.333333,4228.205128,4498.461538,4199.487179,4607.179487,4008.205128,4070.256410
245,4388.205128,4525.641025,4541.025641,4281.025641,4489.230769,4204.615384,4451.282051,4225.641025,4237.948717,4494.871794,4218.461538,4615.384615,4013.333333,4072.820512
246,4388.205128,4526.153846,4547.179487,4284.615384,4491.794871,4211.794871,4455.897435,4227.179487,4241.025641,4502.051282,4230.769230,4621.025641,4019.487179,4073.333333
247,4383.589743,4517.435897,4541.025641,4279.487179,4485.641025,4204.102564,4446.153846,4222.051282,4237.948717,4511.794871,4221.538461,4615.384615,4010.256410,4071.794871
248,4384.615384,4517.948717,4540.000000,4275.897435,4485.641025,4201.538461,4444.615384,4225.128205,4242.051282,4514.358974,4211.794871,4615.384615,4007.179487,4071.282051
249,4384.102564,4517.435897,4543.589743,4271.794871,4488.717948,4204.102564,4448.205128,4222.564102,4240.512820,4507.179487,4208.717948,4619.487179,4009.743589,4063.589743
250,4383.589743,4518.461538,4543.589743,4271.282051,4485.641025,4204.615384,4443.076923,4215.384615,4230.256410,4500.000000,4210.769230,4616.923076,4007.179487,4064.102564
251,4387.692307,4530.256410,4546.666666,4276.923076,4488.717948,4208.717948,4443.076923,4218.974358,4230.769230,4501.538461,4217.435897,4617.435897,4011.282051,4078.974358
252,4387.692307,4532.820512,4548.717948,4275.384615,4494.358974,4210.256410,4442.564102,4221.025641,4236.410256,4504.615384,4214.358974,4620.000000,4011.794871,4078.974358
253,4382.051282,4522.051282,4543.076923,4263.076923,4488.717948,4201.025641,4428.717948,4209.743589,4229.230769,4496.410256,4206.666666,4613.846153,4001.538461,4061.538461
254,4382.564102,4523.076923,4547.179487,4265.641025,4484.102564,4198.974358,4427.692307,4207.692307,4224.615384,4493.846153,4215.897435,4614.358974,4005.128205,4058.461538
255,4390.769230,4533.846153,4560.512820,4284.615384,4489.743589,4206.666666,4444.102564,4221.538461,4237.948717,4511.282051,4223.589743,4628.205128,4019.487179,4077.948717
256,4396.410256,4538.461538,4566.153846,4289.743589,4489.230769,4206.153846,4448.717948,4227.692307,4249.743589,4521.025641,4210.769230,4630.769230,4016.410256,4086.666666
257,4389.230769,4527.692307,4558.461538,4273.333333,4482.051282,4197.948717,4437.948717,4219.487179,4242.564102,4509.230769,4200.512820,4617.435897,4002.564102,4069.230769
258,4380.000000,4514.871794,4551.282051,4267.179487,4482.564102,4196.923076,4434.871794,4213.333333,4228.717948,4498.461538,4207.692307,4613.846153,4003.076923,4058.461538
259,4380.000000,4518.974358,4550.769230,4272.820512,4483.076923,4197.435897,4435.384615,4211.282051,4222.564102,4498.461538,4208.717948,4614.358974,4007.692307,4068.717948
