,AF3,F7,F3,FC5,T7,P7,O1,O2,P8,T8,FC6,F4,F8,AF4
0,4374.358974,4519.487179,4538.974358,4274.358974,4503.076923,4187.179487,4438.974358,4207.692307,4216.923076,4489.230769,4214.871794,4651.282051,3994.871795,4041.025641
1,4371.794871,4511.282051,4536.923076,4268.205128,4498.461538,4187.179487,4433.333333,4206.666666,4215.897435,4498.974358,4214.358974,4646.666666,4001.025641,4040.000000
2,4369.230769,4503.589743,4532.820512,4270.256410,4496.923076,4185.128205,4428.205128,4208.205128,4224.102564,4504.615384,4216.410256,4644.102564,3997.435898,4035.897435
3,4370.256410,4508.717948,4531.282051,4273.333333,4497.948717,4183.589743,4431.794871,4211.282051,4227.692307,4502.051282,4213.846153,4644.102564,3992.307693,4033.846153
4,4361.538461,4508.205128,4530.256410,4263.589743,4490.256410,4182.564102,4428.717948,4202.564102,4216.410256,4488.717948,4209.230769,4638.461538,3986.666667,4028.717948
5,4356.923076,4504.102564,4531.282051,4260.000000,4487.692307,4183.589743,4423.589743,4197.948717,4210.769230,4485.641025,4208.205128,4633.846153,3986.153847,4024.615384
6,4360.512820,4506.153846,4526.666666,4266.666666,4493.846153,4184.102564,4428.205128,4203.589743,4217.435897,4492.820512,4206.153846,4633.333333,3991.282052,4025.128205
7,4356.410256,4505.128205,4520.000000,4261.025641,4492.307692,4181.538461,4427.179487,4200.512820,4215.897435,4489.743589,4199.487179,4630.256410,3989.743590,4026.153846
8,4358.461538,4504.615384,4525.128205,4257.435897,4490.769230,4180.512820,4424.102564,4197.948717,4211.794871,4484.615384,4199.487179,4629.743589,3987.692308,4027.692307
9,4371.282051,4510.769230,4536.923076,4270.769230,4491.794871,4185.128205,4433.846153,4209.743589,4223.076923,4489.230769,4209.743589,4638.974358,3996.410257,4033.846153
10,4369.743589,4512.307692,4536.923076,4275.897435,4491.794871,4186.153846,4441.538461,4216.923076,4229.230769,4493.846153,4217.435897,4646.153846,4001.025641,4036.410256
11,4361.538461,4507.179487,4528.717948,4265.128205,4491.282051,4183.589743,4434.358974,4209.230769,4224.615384,4491.794871,4217.948717,4640.512820,3991.282052,4028.717948
12,4363.076923,4503.589743,4531.794871,4260.512820,4492.307692,4183.076923,4428.717948,4201.538461,4222.564102,4488.717948,4212.820512,4636.410256,3985.641026,4023.076923
13,4365.641025,4503.589743,4536.410256,4267.179487,4493.333333,4185.128205,4430.769230,4203.076923,4223.076923,4485.641025,4208.205128,4642.051282,3991.282052,4024.102564
14,4365.641025,4505.128205,4535.897435,4268.205128,4492.307692,4186.666666,4430.256410,4203.076923,4222.564102,4485.641025,4212.820512,4643.076923,3990.769231,4025.128205
15,4364.615384,4505.641025,4534.871794,4264.615384,4491.794871,4184.615384,4427.692307,4201.025641,4221.025641,4485.641025,4217.435897,4638.461538,3981.538462,4024.102564
16,4359.487179,4507.692307,4529.230769,4263.076923,4491.282051,4184.615384,4428.717948,4202.051282,4218.461538,4480.000000,4208.717948,4638.974358,3984.615385,4026.153846
17,4358.974358,4505.128205,4521.025641,4261.538461,4489.743589,4181.538461,4427.179487,4199.487179,4214.358974,4473.333333,4201.538461,4638.461538,3992.820513,4028.205128
18,4362.564102,4496.410256,4521.025641,4260.000000,4483.076923,4170.769230,4424.102564,4195.384615,4211.282051,4470.769230,4209.743589,4633.846153,3988.717949,4027.179487
19,4364.102564,4501.025641,4526.666666,4263.076923,4482.564102,4171.794871,4426.153846,4199.487179,4215.384615,4473.333333,4218.461538,4637.948717,3990.769231,4033.846153
20,4367.179487,4511.794871,4528.205128,4267.179487,4490.769230,4184.615384,4429.230769,4204.615384,4220.512820,4476.410256,4218.974358,4648.717948,4002.564102,4040.512820
21,4366.153846,4501.538461,4521.025641,4259.487179,4489.743589,4181.025641,4429.230769,4202.564102,4220.000000,4476.410256,4217.948717,4646.153846,4001.538461,4038.461538
22,4361.025641,4492.307692,4516.410256,4246.666666,4482.564102,4174.358974,4426.153846,4200.000000,4220.512820,4472.820512,4216.410256,4637.435897,4000.000000,4035.897435
23,4364.102564,4498.461538,4517.948717,4247.179487,4483.076923,4180.000000,4425.641025,4203.076923,4228.717948,4476.923076,4217.948717,4638.974358,4004.102564,4038.461538
24,4368.717948,4503.076923,4518.974358,4253.846153,4482.051282,4178.974358,4429.230769,4205.641025,4229.743589,4483.076923,4217.435897,4640.512820,3995.897436,4034.358974
25,4361.025641,4500.000000,4515.384615,4250.256410,4474.871794,4168.717948,4425.128205,4200.512820,4215.897435,4471.794871,4204.615384,4632.820512,3987.179488,4025.641025
26,4353.846153,4492.820512,4512.307692,4246.153846,4475.384615,4168.205128,4418.461538,4196.923076,4209.230769,4458.461538,4198.461538,4630.256410,3991.282052,4025.128205
27,4359.487179,4493.846153,4516.410256,4253.333333,4478.974358,4174.358974,4421.538461,4200.512820,4215.384615,4458.461538,4209.743589,4634.871794,3997.435898,4030.256410
28,4362.564102,4502.564102,4517.435897,4256.410256,4475.384615,4174.358974,4428.205128,4197.948717,4214.358974,4460.000000,4215.384615,4634.358974,3998.461539,4035.384615
29,4358.461538,4501.025641,4512.820512,4249.743589,4473.846153,4171.282051,4426.153846,4193.333333,4210.256410,4460.512820,4204.615384,4628.717948,3997.948718,4039.487179
30,4355.897435,4493.333333,4513.333333,4246.666666,4476.410256,4167.692307,4419.487179,4197.435897,4213.846153,4464.102564,4197.948717,4628.205128,3988.717949,4035.897435
31,4352.307692,4494.358974,4513.333333,4246.666666,4475.384615,4163.589743,4413.333333,4194.871794,4211.282051,4451.794871,4196.923076,4628.205128,3974.358975,4022.051282
32,4349.230769,4493.333333,4509.743589,4244.102564,4470.256410,4163.589743,4412.307692,4187.692307,4203.076923,4433.333333,4196.410256,4621.538461,3975.897436,4016.923076
33,4355.897435,4488.717948,4513.333333,4246.666666,4471.794871,4169.230769,4420.000000,4194.871794,4207.179487,4446.153846,4200.000000,4623.076923,3988.717949,4027.692307
34,4358.974358,4494.871794,4518.461538,4251.794871,4478.461538,4173.846153,4429.743589,4205.128205,4215.897435,4462.051282,4202.564102,4631.282051,3986.153847,4031.282051
35,4356.923076,4496.410256,4516.410256,4251.282051,4477.948717,4172.307692,4428.205128,4197.948717,4213.333333,4450.256410,4198.974358,4626.666666,3974.358975,4027.179487
36,4361.538461,4492.820512,4514.358974,4251.282051,4474.871794,4170.256410,4418.974358,4186.666666,4205.641025,4441.025641,4198.461538,4622.564102,3983.076924,4032.820512
37,4363.589743,4494.871794,4516.410256,4252.307692,4473.846153,4169.230769,4418.974358,4186.666666,4201.025641,4445.641025,4202.564102,4627.692307,3997.948718,4036.410256
38,4358.461538,4501.538461,4516.410256,4248.205128,4474.358974,4168.717948,4422.564102,4186.666666,4201.025641,4444.102564,4202.564102,4625.128205,3994.871795,4033.333333
39,4361.025641,4505.641025,4511.282051,4246.153846,4474.871794,4168.717948,4418.461538,4185.128205,4202.051282,4441.538461,4202.051282,4618.461538,3989.743590,4036.923076
40,4364.615384,4504.102564,4506.153846,4250.769230,4474.358974,4167.179487,4414.358974,4186.666666,4200.000000,4446.153846,4204.615384,4621.538461,3989.230770,4037.948717
41,4365.128205,4503.589743,4508.205128,4251.794871,4476.410256,4167.179487,4414.358974,4186.666666,4200.512820,4447.179487,4209.743589,4625.641025,3994.871795,4034.358974
42,4368.717948,4506.153846,4514.358974,4253.333333,4475.897435,4167.179487,4413.333333,4188.717948,4210.769230,4451.282051,4216.923076,4628.717948,4009.743589,4038.974358
43,4370.256410,4505.641025,4516.923076,4256.923076,4471.794871,4167.179487,4412.307692,4195.897435,4217.435897,4457.948717,4220.512820,4635.897435,4011.282051,4043.589743
44,4364.615384,4503.589743,4512.820512,4253.846153,4473.333333,4167.179487,4413.846153,4193.333333,4208.717948,4451.794871,4217.948717,4631.282051,3991.794872,4038.974358
45,4362.051282,4505.641025,4509.743589,4245.641025,4476.410256,4167.692307,4413.333333,4183.076923,4201.025641,4444.615384,4215.384615,4623.589743,3986.153847,4037.435897
46,4363.076923,4500.512820,4510.769230,4245.128205,4469.230769,4168.205128,4414.358974,4184.615384,4205.128205,4440.512820,4211.282051,4627.692307,3998.974359,4039.487179
47,4361.538461,4491.282051,4505.128205,4247.179487,4464.615384,4168.717948,4419.487179,4193.333333,4209.230769,4437.948717,4209.230769,4626.666666,3995.384616,4038.461538
48,4357.435897,4494.358974,4501.025641,4244.615384,4473.846153,4169.230769,4426.666666,4197.948717,4211.282051,4445.128205,4208.717948,4619.487179,3985.128206,4031.794871
49,4354.358974,4498.461538,4507.179487,4245.128205,4478.461538,4171.794871,4429.743589,4202.051282,4215.897435,4454.358974,4207.179487,4622.564102,3993.846154,4030.769230
50,4356.923076,4492.307692,4508.205128,4249.743589,4474.871794,4176.410256,4428.205128,4202.564102,4217.948717,4455.897435,4206.153846,4628.205128,4002.564102,4037.948717
51,4360.000000,4489.743589,4506.666666,4249.230769,4474.358974,4174.358974,4427.692307,4200.512820,4216.410256,4450.256410,4204.615384,4622.564102,3992.307693,4040.000000
52,4357.948717,4495.384615,4506.666666,4246.666666,4476.923076,4170.769230,4425.641025,4198.974358,4215.897435,4446.153846,4206.666666,4619.487179,3983.076924,4033.846153
53,4356.923076,4500.000000,4506.666666,4248.205128,4478.461538,4171.794871,4422.051282,4198.974358,4214.871794,4454.358974,4214.871794,4629.230769,3995.384616,4034.358974
54,4365.641025,4505.128205,4513.846153,4253.333333,4487.179487,4174.358974,4424.102564,4203.589743,4217.948717,4470.769230,4221.025641,4639.487179,4007.692307,4043.589743
55,4373.846153,4508.205128,4521.538461,4254.871794,4503.589743,4179.487179,4428.717948,4205.128205,4220.000000,4483.076923,4218.974358,4640.512820,4002.564102,4049.230769
56,4368.717948,4498.974358,4518.974358,4251.794871,4506.153846,4178.461538,4427.179487,4199.487179,4214.871794,4486.153846,4215.897435,4639.487179,3995.384616,4045.128205
57,4366.153846,4492.820512,4520.000000,4248.717948,4496.410256,4174.871794,4426.666666,4203.076923,4213.846153,4488.205128,4218.974358,4643.589743,4000.000000,4040.000000
58,4372.820512,4501.538461,4530.769230,4247.692307,4498.461538,4178.461538,4433.846153,4215.384615,4225.128205,4501.538461,4222.051282,4647.692307,4002.051282,4044.102564
59,4373.846153,4510.769230,4531.794871,4248.205128,4507.179487,4181.538461,4435.384615,4212.820512,4226.666666,4518.974358,4220.512820,4648.205128,3993.333334,4049.230769
60,4372.820512,4507.692307,4529.743589,4248.717948,4506.153846,4178.461538,4432.820512,4206.153846,4218.461538,4522.051282,4217.948717,4651.794871,3989.230770,4047.692307
61,4377.948717,4504.102564,4535.384615,4247.692307,4503.589743,4181.025641,4438.974358,4214.358974,4225.641025,4516.923076,4224.102564,4654.871794,3996.410257,4047.692307
62,4376.923076,4509.230769,4537.435897,4249.230769,4506.666666,4186.153846,4445.128205,4221.025641,4236.923076,4528.205128,4223.589743,4654.358974,4003.589743,4045.641025
63,4369.230769,4510.769230,4533.846153,4246.153846,4506.153846,4183.589743,4441.538461,4216.410256,4235.897435,4542.051282,4217.948717,4653.333333,3997.948718,4037.435897
64,4366.153846,4502.051282,4528.205128,4236.923076,4505.641025,4180.512820,4440.000000,4216.410256,4231.794871,4538.461538,4218.461538,4651.282051,3987.692308,4031.282051
65,4361.025641,4494.871794,4521.538461,4232.307692,4506.666666,4179.487179,4443.076923,4217.948717,4227.692307,4525.128205,4212.820512,4644.615384,3984.615385,4026.666666
66,4355.897435,4501.025641,4521.025641,4233.846153,4506.666666,4182.564102,4441.025641,4213.333333,4218.974358,4520.000000,4198.974358,4637.435897,3989.230770,4025.641025
67,4357.948717,4508.717948,4524.102564,4234.358974,4507.179487,4187.179487,4441.025641,4211.794871,4221.025641,4528.717948,4197.435897,4636.410256,3991.794872,4030.769230
68,4361.025641,4506.153846,4527.179487,4238.974358,4507.179487,4186.666666,4443.076923,4216.410256,4228.717948,4529.230769,4200.000000,4637.948717,3986.153847,4029.230769
69,4363.589743,4507.179487,4530.769230,4246.153846,4508.205128,4186.666666,4444.615384,4211.282051,4225.641025,4519.487179,4198.461538,4637.948717,3985.128206,4024.615384
70,4363.589743,4509.743589,4534.358974,4245.641025,4508.717948,4188.205128,4445.128205,4202.564102,4217.435897,4521.025641,4197.948717,4641.538461,3992.307693,4024.615384
71,4357.948717,4507.179487,4534.871794,4242.051282,4507.692307,4186.666666,4442.051282,4205.641025,4215.897435,4525.128205,4198.461538,4643.076923,3991.794872,4022.051282
72,4357.435897,4506.153846,4530.256410,4240.512820,4508.205128,4186.666666,4443.076923,4209.230769,4219.487179,4522.051282,4198.974358,4638.974358,3987.692308,4021.025641
73,4358.461538,4505.128205,4527.692307,4235.384615,4508.205128,4185.641025,4444.615384,4201.538461,4218.461538,4520.000000,4198.974358,4633.333333,3988.205129,4022.564102
74,4351.794871,4503.076923,4528.717948,4230.256410,4505.128205,4183.076923,4437.948717,4196.410256,4213.846153,4520.512820,4195.384615,4633.846153,3987.179488,4019.487179
75,4350.769230,4504.615384,4528.717948,4237.948717,4503.589743,4184.102564,4434.871794,4203.589743,4218.974358,4520.000000,4194.871794,4637.435897,3985.641026,4021.538461
76,4356.410256,4505.641025,4530.769230,4244.102564,4505.128205,4186.666666,4441.538461,4207.692307,4227.179487,4528.205128,4198.461538,4638.461538,3988.717949,4026.666666
77,4356.410256,4503.589743,4534.358974,4237.435897,4506.153846,4186.153846,4443.076923,4204.102564,4226.153846,4537.435897,4200.000000,4639.487179,3988.205129,4023.076923
78,4353.846153,4504.102564,4532.820512,4238.461538,4504.615384,4184.615384,4441.025641,4206.666666,4224.615384,4530.256410,4198.461538,4643.589743,3984.102565,4015.384615
79,4356.923076,4507.692307,4531.282051,4245.641025,4504.102564,4184.102564,4442.051282,4215.384615,4232.820512,4520.000000,4199.487179,4646.666666,3987.692308,4016.923076
80,4358.461538,4507.179487,4531.282051,4240.512820,4505.128205,4183.589743,4437.948717,4216.923076,4234.871794,4521.538461,4200.512820,4646.666666,3999.487180,4024.102564
81,4358.974358,4504.102564,4531.282051,4237.948717,4504.102564,4183.589743,4434.871794,4211.794871,4227.179487,4529.230769,4205.128205,4651.282051,4007.179487,4030.256410
82,4364.615384,4504.615384,4538.461538,4249.230769,4504.102564,4186.153846,4441.025641,4214.871794,4228.205128,4536.410256,4215.384615,4656.410256,4007.692307,4033.846153
83,4364.102564,4510.256410,4538.974358,4250.769230,4509.743589,4188.205128,4445.641025,4216.923076,4235.897435,4535.897435,4213.846153,4653.846153,4009.743589,4030.256410
84,4355.384615,4507.179487,4528.717948,4243.076923,4507.179487,4186.666666,4438.974358,4205.641025,4228.717948,4523.076923,4198.974358,4647.692307,4003.076923,4021.025641
85,4353.333333,4496.410256,4528.717948,4245.128205,4499.487179,4182.051282,4430.256410,4198.974358,4216.923076,4512.820512,4198.974358,4647.692307,3991.282052,4017.948717
86,4361.538461,4497.435897,4541.538461,4248.205128,4502.051282,4183.076923,4432.820512,4206.666666,4221.025641,4512.820512,4213.846153,4656.923076,3997.948718,4025.641025
87,4368.717948,4506.666666,4548.717948,4247.179487,4504.102564,4186.153846,4443.076923,4214.358974,4229.743589,4508.717948,4214.871794,4663.589743,4010.256410,4031.282051
88,4365.128205,4508.205128,4543.589743,4247.692307,4498.974358,4185.641025,4447.179487,4214.871794,4228.205128,4511.282051,4208.717948,4660.512820,4006.666666,4029.230769
89,4358.974358,4501.538461,4537.435897,4247.692307,4498.974358,4184.615384,4438.974358,4211.282051,4226.153846,4521.538461,4212.820512,4656.923076,4002.051282,4028.205128
90,4358.974358,4496.410256,4536.923076,4245.128205,4497.435897,4181.025641,4430.769230,4209.230769,4228.717948,4518.974358,4218.461538,4658.461538,4005.641025,4029.230769
91,4357.948717,4492.307692,4533.846153,4242.564102,4488.205128,4177.435897,4428.205128,4208.205128,4230.769230,4507.179487,4214.871794,4655.384615,4005.641025,4030.769230
92,4351.794871,4489.743589,4528.717948,4241.025641,4487.179487,4177.948717,4429.743589,4206.666666,4227.692307,4503.589743,4205.641025,4649.230769,4003.589743,4028.717948
93,4350.256410,4491.282051,4526.666666,4237.948717,4494.871794,4178.461538,4430.256410,4203.589743,4226.666666,4508.205128,4201.025641,4646.153846,4002.564102,4024.102564
94,4351.282051,4490.256410,4525.128205,4233.846153,4490.769230,4177.948717,4427.179487,4198.461538,4224.615384,4508.205128,4200.512820,4641.025641,3993.333334,4017.435897
95,4350.769230,4487.179487,4521.025641,4231.794871,4485.641025,4180.512820,4426.666666,4197.435897,4221.025641,4505.128205,4200.000000,4634.871794,3990.769231,4015.384615
96,4351.282051,4496.923076,4521.025641,4238.461538,4497.435897,4185.641025,4431.794871,4206.153846,4227.179487,4510.256410,4206.153846,4638.974358,4006.153846,4021.538461
97,4352.820512,4505.641025,4524.102564,4244.615384,4505.641025,4186.153846,4432.820512,4210.256410,4236.410256,4516.410256,4211.282051,4645.641025,4015.384615,4025.128205
98,4350.256410,4493.333333,4520.000000,4244.102564,4500.000000,4186.666666,4428.717948,4201.538461,4227.692307,4510.256410,4203.076923,4640.000000,4001.025641,4019.487179
99,4349.230769,4490.769230,4515.897435,4243.589743,4499.487179,4183.589743,4425.641025,4195.897435,4213.846153,4504.102564,4196.410256,4634.358974,3988.205129,4014.871794
100,4351.794871,4505.128205,4518.974358,4241.538461,4500.000000,4176.410256,4422.051282,4197.435897,4217.435897,4503.589743,4201.025641,4636.923076,3996.923077,4020.000000
101,4353.846153,4501.025641,4521.538461,4240.000000,4492.307692,4173.846153,4417.435897,4195.384615,4221.538461,4504.102564,4202.051282,4638.974358,4009.743589,4022.564102
102,4350.769230,4488.717948,4518.461538,4242.564102,4491.282051,4172.820512,4415.897435,4191.794871,4214.871794,4502.051282,4199.487179,4636.410256,4005.128205,4018.974358
103,4350.256410,4493.333333,4515.897435,4247.692307,4493.846153,4171.794871,4417.948717,4195.897435,4216.410256,4500.512820,4203.076923,4636.410256,3993.333334,4020.000000
104,4354.358974,4496.410256,4519.487179,4244.615384,4489.743589,4170.769230,4417.948717,4197.948717,4218.974358,4496.410256,4207.179487,4640.000000,3990.256411,4021.025641
105,4353.333333,4489.230769,4517.948717,4236.410256,4487.692307,4167.179487,4411.794871,4189.230769,4209.743589,4486.153846,4198.974358,4633.333333,3994.871795,4015.384615
106,4349.743589,4489.743589,4514.358974,4235.384615,4489.743589,4169.230769,4412.820512,4186.153846,4204.615384,4482.051282,4190.256410,4628.205128,4002.564102,4012.820512
107,4353.846153,4495.384615,4521.025641,4243.589743,4492.307692,4176.923076,4426.153846,4197.435897,4215.897435,4494.358974,4197.435897,4636.410256,4004.102564,4019.487179
108,4358.974358,4493.333333,4523.589743,4249.743589,4494.358974,4177.948717,4428.717948,4202.564102,4222.051282,4502.564102,4204.615384,4643.076923,3997.435898,4022.564102
109,4361.025641,4493.333333,4520.000000,4246.666666,4491.794871,4178.461538,4422.564102,4197.948717,4217.948717,4493.333333,4202.051282,4641.538461,3995.384616,4022.051282
110,4363.076923,4499.487179,4521.538461,4246.666666,4492.307692,4178.461538,4424.615384,4196.410256,4215.897435,4492.820512,4201.025641,4642.564102,4006.153846,4027.692307
111,4360.000000,4497.435897,4522.564102,4249.743589,4494.871794,4173.846153,4425.128205,4195.384615,4212.820512,4492.820512,4200.512820,4640.512820,4009.230769,4028.205128
112,4352.820512,4490.256410,4516.923076,4248.717948,4493.333333,4173.333333,4422.564102,4190.769230,4210.256410,4473.846153,4195.384615,4633.846153,3995.897436,4018.974358
113,4351.282051,4490.256410,4511.282051,4242.051282,4490.769230,4176.410256,4426.666666,4189.743589,4213.846153,4469.743589,4193.333333,4629.743589,3985.641026,4016.410256
114,4350.256410,4490.769230,4510.769230,4236.923076,4490.256410,4177.435897,4427.692307,4192.820512,4216.923076,4485.641025,4195.897435,4627.179487,3989.743590,4018.974358
115,4347.692307,4488.717948,4512.820512,4241.538461,4490.256410,4177.948717,4424.615384,4199.487179,4216.923076,4482.051282,4196.923076,4626.666666,3997.435898,4013.846153
116,4351.794871,4492.307692,4512.820512,4246.153846,4490.256410,4179.487179,4426.666666,4200.512820,4218.974358,4471.794871,4197.435897,4630.256410,3994.871795,4015.384615
117,4356.923076,4491.794871,4514.358974,4245.641025,4492.307692,4180.000000,4428.717948,4196.410256,4217.948717,4477.435897,4199.487179,4633.846153,3989.743590,4025.128205
118,4355.384615,4492.820512,4518.461538,4248.205128,4494.358974,4184.102564,4430.256410,4198.461538,4218.461538,4483.589743,4204.102564,4636.410256,3995.384616,4024.102564
119,4355.384615,4501.538461,4519.487179,4252.307692,4494.871794,4185.641025,4430.256410,4201.538461,4225.128205,4483.589743,4202.564102,4637.948717,4004.615384,4019.487179
120,4357.948717,4500.512820,4517.435897,4250.769230,4493.846153,4182.051282,4427.179487,4199.487179,4225.641025,4484.102564,4197.435897,4634.871794,4004.615384,4024.102564
121,4351.794871,4492.307692,4516.410256,4248.205128,4492.307692,4178.461538,4426.153846,4201.025641,4220.512820,4483.076923,4201.025641,4633.846153,3995.384616,4026.153846
122,4341.538461,4488.717948,4515.897435,4246.666666,4492.820512,4174.358974,4426.153846,4197.435897,4217.948717,4474.871794,4204.102564,4634.871794,3988.205129,4015.384615
123,4339.487179,4489.743589,4512.820512,4246.666666,4493.846153,4173.846153,4424.102564,4186.153846,4216.923076,4464.615384,4193.846153,4630.769230,3987.692308,4011.282051
124,4346.666666,4490.769230,4513.846153,4246.666666,4493.846153,4173.846153,4424.615384,4187.179487,4213.333333,4458.461538,4188.205128,4627.692307,3989.230770,4018.461538
125,4349.743589,4491.794871,4515.897435,4247.179487,4487.692307,4171.282051,4423.589743,4194.871794,4214.358974,4462.051282,4196.410256,4631.282051,3987.692308,4023.076923
126,4344.615384,4490.769230,4513.333333,4246.153846,4483.589743,4169.743589,4422.051282,4194.358974,4217.435897,4466.666666,4197.948717,4629.230769,3989.743590,4020.000000
127,4344.615384,4489.743589,4511.794871,4245.641025,4488.717948,4170.256410,4426.153846,4194.871794,4215.384615,4462.564102,4193.846153,4627.179487,3993.333334,4016.410256
128,4350.256410,4490.769230,4512.820512,4248.717948,4492.820512,4172.307692,4427.692307,4198.461538,4215.384615,4463.076923,4196.410256,4634.871794,3994.358975,4020.000000
129,4350.769230,4492.820512,4511.794871,4249.230769,4489.743589,4170.769230,4422.051282,4195.897435,4215.384615,4464.102564,4200.512820,4637.948717,3989.743590,4020.512820
130,4351.794871,4494.358974,4516.923076,4248.717948,4486.666666,4169.230769,4418.461538,4194.358974,4214.358974,4460.000000,4199.487179,4635.384615,3987.179488,4022.051282
131,4357.948717,4494.358974,4524.615384,4252.307692,4489.230769,4172.820512,4418.974358,4199.487179,4217.435897,4460.512820,4201.025641,4638.974358,3994.871795,4029.230769
132,4362.051282,4498.974358,4524.102564,4256.923076,4490.256410,4173.333333,4419.487179,4195.897435,4218.461538,4460.512820,4201.538461,4640.000000,4000.512820,4033.846153
133,4364.102564,4506.666666,4523.589743,4260.512820,4491.282051,4172.820512,4423.076923,4187.179487,4215.384615,4457.948717,4199.487179,4639.487179,3994.871795,4029.230769
134,4367.692307,4509.230769,4528.717948,4265.641025,4493.333333,4174.358974,4428.717948,4192.820512,4217.948717,4462.051282,4207.179487,4644.615384,3992.820513,4030.256410
135,4366.666666,4504.615384,4528.205128,4264.615384,4490.769230,4173.846153,4426.153846,4201.538461,4218.461538,4461.025641,4211.282051,4643.589743,3998.461539,4036.410256
136,4358.974358,4495.384615,4520.512820,4253.333333,4488.205128,4171.794871,4417.435897,4195.384615,4209.743589,4448.717948,4198.461538,4634.358974,3994.871795,4028.717948
137,4351.282051,4490.256410,4511.794871,4245.641025,4490.256410,4168.717948,4414.358974,4185.641025,4206.153846,4444.615384,4186.153846,4630.769230,3981.025642,4018.461538
138,4346.153846,4486.666666,4505.128205,4242.564102,4484.102564,4165.128205,4411.794871,4182.564102,4205.128205,4443.589743,4185.641025,4626.153846,3969.230770,4016.410256
139,4348.717948,4491.794871,4507.179487,4246.153846,4480.000000,4166.153846,4411.794871,4188.717948,4207.692307,4447.692307,4191.282051,4623.589743,3975.897436,4016.923076
140,4358.974358,4502.564102,4516.923076,4256.923076,4489.230769,4170.769230,4421.025641,4200.000000,4217.948717,4463.076923,4198.461538,4633.333333,3997.435898,4021.538461
141,4365.128205,4500.512820,4518.974358,4260.000000,4488.717948,4171.282051,4427.179487,4199.487179,4222.564102,4462.564102,4204.615384,4640.000000,4002.564102,4031.794871
142,4365.641025,4495.384615,4515.897435,4255.897435,4481.538461,4170.256410,4424.615384,4192.307692,4216.923076,4450.256410,4210.769230,4636.410256,3996.410257,4037.435897
143,4368.205128,4505.128205,4518.461538,4260.512820,4488.717948,4171.794871,4424.615384,4192.820512,4213.333333,4453.333333,4211.282051,4636.923076,3999.487180,4035.897435
144,4370.256410,4511.282051,4520.000000,4264.615384,4495.897435,4172.820512,4428.717948,4194.871794,4221.025641,4464.615384,4209.230769,4641.538461,4003.589743,4033.333333
145,4366.666666,4504.102564,4518.461538,4261.538461,4490.769230,4173.846153,4428.205128,4197.435897,4229.743589,4469.743589,4214.871794,4645.641025,4001.538461,4031.282051
146,4362.564102,4503.076923,4516.410256,4262.051282,4490.256410,4173.333333,4425.128205,4200.512820,4227.692307,4462.564102,4217.948717,4644.615384,4002.051282,4035.897435
147,4358.974358,4506.666666,4509.743589,4255.897435,4491.794871,4168.717948,4420.512820,4190.256410,4216.923076,4448.205128,4205.128205,4636.410256,4001.538461,4037.435897
148,4355.897435,4501.538461,4505.128205,4244.615384,4484.102564,4166.153846,4412.820512,4181.538461,4214.358974,4447.179487,4197.435897,4631.794871,3995.897436,4030.256410
149,4357.948717,4494.871794,4510.769230,4252.307692,4478.974358,4167.692307,4412.307692,4187.179487,4218.461538,4453.333333,4205.641025,4636.410256,3996.410257,4028.717948
150,4361.538461,4494.358974,4517.435897,4264.615384,4483.076923,4168.205128,4420.512820,4188.205128,4216.923076,4450.769230,4207.179487,4638.974358,4000.000000,4033.333333
151,4364.615384,4501.538461,4515.897435,4262.564102,4488.717948,4169.743589,4425.128205,4183.589743,4215.897435,4448.717948,4203.076923,4636.410256,4003.589743,4036.410256
152,4368.205128,4510.256410,4513.846153,4260.512820,4489.230769,4172.307692,4422.564102,4187.179487,4220.000000,4450.256410,4208.205128,4638.461538,4008.205128,4040.000000
153,4366.153846,4508.205128,4514.358974,4260.512820,4488.205128,4170.769230,4417.948717,4185.128205,4218.974358,4447.179487,4210.256410,4640.000000,4002.051282,4037.948717
154,4358.974358,4498.974358,4508.717948,4256.410256,4489.230769,4168.717948,4413.846153,4175.384615,4208.205128,4445.641025,4203.076923,4630.769230,3988.717949,4028.717948
155,4355.384615,4494.871794,4503.589743,4255.897435,4489.230769,4169.230769,4411.794871,4172.307692,4201.538461,4444.615384,4195.897435,4621.538461,3985.641026,4023.589743
156,4355.897435,4493.333333,4507.692307,4254.358974,4487.179487,4165.128205,4412.820512,4171.794871,4202.564102,4441.025641,4190.256410,4624.615384,3989.230770,4021.025641
157,4357.435897,4494.871794,4506.153846,4250.256410,4488.205128,4160.512820,4411.794871,4170.256410,4200.512820,4444.615384,4190.256410,4627.179487,3987.692308,4024.102564
158,4362.564102,4502.051282,4502.564102,4248.717948,4496.923076,4164.102564,4412.307692,4176.410256,4203.076923,4458.974358,4198.461538,4628.717948,3986.666667,4035.384615
159,4368.717948,4508.205128,4511.794871,4251.282051,4505.641025,4172.307692,4422.051282,4186.153846,4214.871794,4480.512820,4207.179487,4637.948717,3995.897436,4042.564102
160,4369.230769,4504.615384,4518.974358,4254.871794,4507.179487,4171.282051,4428.717948,4185.128205,4220.512820,4490.256410,4208.205128,4642.564102,4001.025641,4039.487179
161,4367.692307,4501.538461,4516.923076,4256.410256,4507.179487,4167.179487,4424.615384,4182.564102,4215.384615,4490.769230,4207.179487,4637.948717,3995.384616,4037.435897
162,4370.769230,4510.256410,4517.948717,4251.282051,4512.820512,4174.358974,4425.128205,4187.692307,4219.487179,4497.435897,4204.102564,4637.948717,3990.769231,4040.000000
163,4372.820512,4515.384615,4525.641025,4244.102564,4520.000000,4183.589743,4427.692307,4190.256410,4224.615384,4509.743589,4198.974358,4645.128205,3997.948718,4041.025641
164,4373.333333,4514.871794,4528.205128,4250.769230,4525.128205,4185.641025,4428.717948,4193.846153,4222.051282,4521.538461,4200.512820,4648.205128,4007.179487,4044.615384
165,4374.871794,4517.435897,4529.230769,4261.025641,4527.179487,4185.641025,4434.871794,4202.051282,4224.102564,4527.179487,4204.102564,4649.230769,4006.153846,4043.076923
166,4373.846153,4518.974358,4529.230769,4258.974358,4522.051282,4185.128205,4441.538461,4203.076923,4228.717948,4524.102564,4204.102564,4649.230769,4000.000000,4036.410256
167,4371.794871,4511.794871,4531.282051,4250.256410,4520.512820,4185.641025,4442.564102,4201.538461,4229.743589,4524.102564,4200.512820,4649.230769,4001.025641,4033.333333
168,4372.820512,4506.153846,4536.410256,4247.179487,4524.102564,4187.692307,4441.538461,4209.230769,4232.307692,4534.871794,4201.025641,4653.846153,4004.102564,4037.948717
169,4367.692307,4509.743589,4531.794871,4248.717948,4519.487179,4181.025641,4435.384615,4204.102564,4228.717948,4535.897435,4202.564102,4651.794871,3995.897436,4038.461538
170,4360.512820,4511.282051,4523.076923,4247.692307,4515.384615,4174.358974,4428.717948,4190.256410,4218.974358,4525.128205,4199.487179,4642.564102,3984.102565,4028.205128
171,4363.589743,4507.179487,4525.128205,4246.666666,4515.384615,4176.410256,4427.692307,4194.871794,4220.512820,4522.051282,4194.871794,4644.102564,3990.256411,4025.128205
172,4366.666666,4510.256410,4528.717948,4247.692307,4510.769230,4177.435897,4428.717948,4203.076923,4229.743589,4526.666666,4191.794871,4652.307692,3999.487180,4029.230769
173,4366.153846,4516.923076,4530.256410,4253.846153,4509.743589,4179.487179,4434.358974,4202.564102,4229.230769,4529.743589,4194.871794,4655.384615,4000.000000,4028.205128
174,4368.717948,4514.871794,4533.333333,4258.461538,4520.000000,4188.205128,4445.128205,4212.820512,4231.282051,4530.769230,4202.564102,4656.923076,4003.589743,4027.692307
175,4369.230769,4509.230769,4534.871794,4252.307692,4526.666666,4190.769230,4447.179487,4221.025641,4235.897435,4528.205128,4198.461538,4655.384615,4002.051282,4028.717948
176,4362.051282,4505.128205,4530.769230,4245.641025,4517.948717,4185.128205,4442.564102,4207.692307,4226.666666,4522.051282,4184.615384,4649.230769,3988.717949,4022.051282
177,4361.025641,4507.179487,4528.717948,4246.666666,4511.282051,4183.589743,4441.025641,4197.948717,4219.487179,4520.000000,4186.666666,4648.717948,3986.666667,4018.974358
178,4368.205128,4515.384615,4532.307692,4248.717948,4512.820512,4184.615384,4441.538461,4202.564102,4224.615384,4526.153846,4200.000000,4654.358974,4002.051282,4034.358974
179,4370.256410,4517.435897,4540.000000,4249.743589,4511.282051,4183.076923,4441.538461,4204.102564,4226.666666,4538.461538,4199.487179,4659.487179,4011.794871,4040.000000
180,4369.743589,4508.205128,4542.051282,4251.282051,4512.820512,4183.076923,4439.487179,4202.051282,4226.666666,4541.025641,4193.333333,4658.974358,4007.179487,4027.179487
181,4370.256410,4506.153846,4537.948717,4250.256410,4516.923076,4183.589743,4437.948717,4202.051282,4228.717948,4526.666666,4198.461538,4656.410256,3998.974359,4022.564102
182,4367.692307,4510.256410,4536.410256,4248.717948,4515.897435,4185.128205,4442.564102,4204.102564,4226.153846,4519.487179,4200.512820,4655.897435,4000.512820,4027.692307
183,4361.025641,4506.153846,4536.410256,4250.769230,4508.205128,4187.179487,4445.128205,4204.102564,4221.538461,4523.589743,4190.769230,4656.410256,4005.641025,4024.102564
184,4355.384615,4505.128205,4529.743589,4249.230769,4505.128205,4178.461538,4434.358974,4201.025641,4218.974358,4517.948717,4183.589743,4649.743589,3996.923077,4016.923076
185,4357.435897,4509.743589,4526.153846,4246.666666,4507.179487,4172.307692,4427.179487,4197.435897,4216.923076,4506.666666,4182.564102,4642.564102,3986.666667,4015.384615
186,4361.538461,4508.205128,4531.794871,4250.769230,4507.179487,4180.512820,4432.820512,4199.487179,4217.948717,4512.307692,4183.076923,4646.666666,3990.256411,4018.974358
187,4361.025641,4506.153846,4532.307692,4252.307692,4507.179487,4183.589743,4432.820512,4203.076923,4225.128205,4523.589743,4187.692307,4653.333333,3997.948718,4019.487179
188,4357.435897,4505.128205,4529.743589,4249.743589,4506.666666,4173.846153,4427.692307,4201.538461,4226.666666,4523.589743,4194.871794,4653.846153,3999.487180,4016.923076
189,4357.948717,4502.564102,4529.743589,4247.179487,4500.512820,4165.641025,4425.641025,4197.435897,4218.461538,4516.923076,4190.256410,4651.282051,3998.974359,4016.923076
190,4359.487179,4503.076923,4528.205128,4249.230769,4495.384615,4171.282051,4428.717948,4201.025641,4221.025641,4510.769230,4185.128205,4650.256410,4000.000000,4020.000000
191,4361.538461,4508.205128,4531.794871,4254.871794,4502.051282,4181.538461,4437.948717,4210.256410,4229.743589,4507.179487,4192.307692,4653.846153,4003.076923,4018.461538
192,4366.153846,4509.230769,4534.871794,4257.948717,4510.769230,4187.179487,4445.128205,4213.846153,4228.205128,4506.153846,4195.897435,4654.871794,4006.666666,4020.000000
193,4367.179487,4506.153846,4530.256410,4259.487179,4506.153846,4184.615384,4444.615384,4209.743589,4224.615384,4505.128205,4192.307692,4651.794871,4005.641025,4027.692307
194,4365.128205,4505.128205,4532.307692,4255.897435,4502.051282,4182.051282,4441.538461,4206.153846,4226.666666,4505.641025,4194.871794,4654.871794,4003.589743,4031.282051
195,4368.717948,4510.769230,4538.974358,4254.358974,4507.179487,4181.538461,4435.897435,4206.153846,4226.153846,4512.307692,4202.564102,4659.487179,4009.743589,4032.307692
196,4367.179487,4508.717948,4534.358974,4254.871794,4502.051282,4174.358974,4427.692307,4202.051282,4217.435897,4505.128205,4201.538461,4655.897435,4009.743589,4030.256410
197,4357.948717,4493.846153,4525.641025,4249.230769,4489.230769,4169.230769,4426.666666,4197.435897,4215.384615,4490.256410,4191.794871,4649.230769,3996.923077,4020.512820
198,4358.974358,4495.384615,4528.717948,4251.282051,4493.846153,4174.358974,4433.846153,4203.589743,4223.076923,4498.461538,4187.179487,4651.282051,3997.435898,4017.435897
199,4367.692307,4511.282051,4533.846153,4258.974358,4503.076923,4179.487179,4433.333333,4204.615384,4224.102564,4506.153846,4187.179487,4652.820512,4009.743589,4026.666666
200,4362.564102,4510.256410,4525.641025,4253.846153,4495.384615,4173.846153,4424.615384,4191.794871,4210.769230,4483.076923,4180.000000,4640.000000,4000.512820,4024.615384
201,4350.769230,4501.538461,4515.384615,4245.641025,4491.794871,4166.153846,4420.000000,4185.128205,4202.564102,4471.282051,4174.358974,4631.282051,3982.564103,4014.871794
202,4353.846153,4506.666666,4519.487179,4254.358974,4502.051282,4172.307692,4425.128205,4191.282051,4211.794871,4491.794871,4183.076923,4638.461538,3985.128206,4016.410256
203,4362.564102,4511.282051,4523.589743,4265.128205,4506.666666,4182.051282,4431.282051,4198.461538,4220.000000,4502.051282,4188.205128,4643.076923,3991.282052,4018.974358
204,4358.974358,4507.179487,4517.435897,4259.487179,4500.512820,4175.897435,4427.179487,4195.384615,4213.846153,4489.230769,4176.410256,4633.846153,3989.743590,4016.923076
205,4350.256410,4504.615384,4511.282051,4250.256410,4494.358974,4165.641025,4418.974358,4185.128205,4203.589743,4484.102564,4171.794871,4630.769230,3991.282052,4018.461538
206,4352.820512,4506.153846,4517.948717,4250.256410,4497.435897,4170.256410,4420.512820,4185.641025,4203.076923,4487.692307,4182.051282,4639.487179,3992.820513,4023.589743
207,4364.615384,4516.923076,4527.179487,4260.512820,4504.102564,4178.461538,4426.666666,4196.923076,4214.871794,4490.769230,4187.179487,4646.666666,3997.435898,4026.666666
208,4369.743589,4527.692307,4531.282051,4271.282051,4505.128205,4180.512820,4433.333333,4207.692307,4226.153846,4499.487179,4192.307692,4650.769230,4010.769230,4031.794871
209,4366.666666,4521.025641,4534.358974,4271.282051,4503.589743,4183.589743,4436.410256,4211.794871,4230.256410,4508.205128,4197.435897,4653.333333,4012.820512,4036.410256
210,4365.641025,4509.743589,4534.871794,4266.153846,4507.179487,4184.615384,4435.384615,4213.333333,4233.846153,4507.692307,4192.820512,4651.282051,4001.538461,4036.923076
211,4369.230769,4513.846153,4533.333333,4262.051282,4510.256410,4185.128205,4435.897435,4211.794871,4233.846153,4499.487179,4190.256410,4650.256410,3998.974359,4036.923076
212,4368.205128,4523.589743,4530.769230,4262.051282,4506.153846,4185.128205,4435.897435,4206.153846,4225.128205,4489.230769,4191.794871,4649.743589,4005.128205,4037.435897
213,4364.615384,4522.051282,4529.743589,4264.102564,4500.000000,4176.410256,4431.282051,4198.461538,4214.358974,4484.102564,4188.717948,4646.153846,4005.641025,4034.871794
214,4364.615384,4518.974358,4531.794871,4263.589743,4500.512820,4173.846153,4425.128205,4193.846153,4212.820512,4485.128205,4189.743589,4646.153846,4002.051282,4027.179487
215,4365.128205,4519.487179,4531.794871,4264.615384,4504.102564,4183.589743,4430.256410,4199.487179,4220.000000,4489.743589,4193.846153,4651.282051,3998.461539,4025.641025
216,4362.051282,4512.820512,4527.692307,4263.589743,4503.076923,4188.205128,4440.000000,4202.051282,4222.564102,4491.282051,4187.179487,4649.743589,3991.794872,4028.717948
217,4353.333333,4504.102564,4524.102564,4256.923076,4499.487179,4182.564102,4440.000000,4200.512820,4217.948717,4488.205128,4181.538461,4642.564102,3988.205129,4025.128205
218,4344.102564,4503.076923,4523.076923,4253.846153,4493.846153,4178.461538,4430.256410,4200.512820,4214.871794,4476.410256,4183.589743,4639.487179,3988.717949,4018.461538
219,4351.282051,4504.615384,4526.666666,4261.025641,4495.897435,4178.974358,4429.230769,4197.948717,4218.461538,4467.179487,4184.102564,4645.641025,3991.282052,4020.512820
220,4366.153846,4508.205128,4537.435897,4267.179487,4505.641025,4183.076923,4441.025641,4203.076923,4226.153846,4481.538461,4187.179487,4655.897435,4005.128205,4032.307692
221,4364.615384,4511.282051,4540.512820,4264.615384,4501.538461,4184.615384,4441.025641,4212.307692,4230.769230,4495.897435,4192.307692,4657.435897,4007.692307,4036.410256
222,4353.333333,4500.512820,4532.307692,4257.948717,4490.769230,4176.923076,4432.307692,4209.230769,4227.179487,4485.128205,4198.461538,4653.846153,3990.769231,4027.692307
223,4352.307692,4491.794871,4527.692307,4255.384615,4492.820512,4176.923076,4434.358974,4204.615384,4222.564102,4475.384615,4201.025641,4650.256410,3990.769231,4027.692307
224,4350.769230,4498.461538,4523.589743,4254.358974,4492.820512,4181.025641,4434.871794,4209.230769,4223.589743,4473.333333,4191.794871,4642.051282,4003.076923,4029.743589
225,4345.128205,4495.897435,4518.974358,4251.282051,4485.641025,4171.282051,4426.666666,4204.102564,4220.000000,4465.641025,4181.025641,4635.384615,3992.820513,4017.435897
226,4352.307692,4491.282051,4524.615384,4254.358974,4488.717948,4169.743589,4427.692307,4200.000000,4219.487179,4464.615384,4185.641025,4641.538461,3989.230770,4022.051282
227,4364.615384,4503.076923,4535.384615,4264.102564,4496.923076,4181.538461,4437.948717,4213.333333,4229.230769,4478.974358,4198.461538,4654.358974,4008.717948,4045.128205
228,4363.076923,4509.230769,4535.897435,4268.717948,4496.923076,4181.025641,4434.871794,4211.794871,4228.205128,4481.538461,4201.538461,4656.923076,4015.384615,4045.128205
229,4355.384615,4502.051282,4530.769230,4263.589743,4490.256410,4169.230769,4424.615384,4197.435897,4216.410256,4471.282051,4197.435897,4650.256410,4003.589743,4031.282051
230,4359.487179,4504.615384,4531.282051,4264.102564,4487.692307,4170.256410,4430.769230,4205.641025,4221.538461,4471.794871,4200.512820,4652.307692,4003.076923,4039.487179
231,4368.717948,4511.794871,4535.897435,4273.846153,4493.846153,4181.538461,4444.102564,4221.538461,4234.358974,4480.000000,4209.743589,4661.538461,4013.333333,4052.307692
232,4364.615384,4506.666666,4536.923076,4273.846153,4497.948717,4182.564102,4442.051282,4217.435897,4232.307692,4477.948717,4207.179487,4658.974358,4012.820512,4045.641025
233,4355.897435,4503.076923,4528.205128,4264.615384,4492.307692,4173.846153,4432.307692,4205.128205,4223.589743,4467.179487,4196.923076,4647.179487,4005.128205,4035.897435
234,4354.358974,4504.102564,4517.435897,4260.000000,4487.179487,4168.717948,4428.205128,4201.025641,4216.923076,4457.948717,4197.948717,4645.128205,4006.153846,4034.358974
235,4354.358974,4501.538461,4516.923076,4261.025641,4487.692307,4170.769230,4428.205128,4201.538461,4216.410256,4456.410256,4200.000000,4647.179487,4007.692307,4035.897435
236,4352.307692,4497.948717,4521.025641,4262.564102,4487.692307,4170.769230,4425.641025,4199.487179,4215.384615,4462.564102,4193.333333,4643.589743,4002.564102,4035.897435
237,4357.435897,4501.538461,4526.153846,4265.128205,4487.692307,4167.692307,4425.641025,4202.051282,4212.820512,4470.769230,4192.307692,4644.102564,4000.000000,4037.435897
238,4365.641025,4505.641025,4531.794871,4269.743589,4490.769230,4168.205128,4426.666666,4212.307692,4220.512820,4472.820512,4202.051282,4652.820512,4005.641025,4046.666666
239,4367.692307,4504.615384,4534.871794,4273.846153,4490.256410,4171.282051,4426.153846,4217.435897,4232.307692,4473.333333,4211.282051,4656.923076,4013.846153,4053.846153
240,4364.102564,4505.641025,4532.307692,4271.282051,4489.230769,4180.000000,4432.820512,4214.871794,4232.820512,4470.769230,4209.743589,4653.333333,4016.410256,4050.256410
241,4362.564102,4509.743589,4528.717948,4265.128205,4493.333333,4186.153846,4443.589743,4216.410256,4229.743589,4463.076923,4203.076923,4650.769230,4009.743589,4046.153846
242,4364.102564,4508.205128,4530.256410,4269.230769,4492.820512,4184.615384,4444.615384,4219.487179,4229.743589,4456.410256,4203.076923,4652.820512,4001.538461,4052.307692
243,4368.717948,4506.666666,4532.307692,4274.358974,4490.769230,4187.179487,4444.102564,4222.051282,4231.282051,4456.410256,4207.692307,4655.897435,4005.641025,4056.410256
244,4366.666666,4508.205128,4528.717948,4266.666666,4491.282051,4191.794871,4447.179487,4223.589743,4235.384615,4465.128205,4209.230769,4655.384615,4012.820512,4054.358974
245,4358.461538,4506.153846,4525.128205,4261.025641,4487.692307,4185.128205,4438.974358,4216.410256,4233.333333,4475.384615,4205.128205,4651.282051,4011.794871,4050.769230
246,4357.948717,4504.102564,4523.589743,4265.128205,4487.179487,4174.358974,4425.641025,4206.153846,4222.051282,4472.820512,4203.076923,4645.128205,4006.153846,4047.179487
247,4358.974358,4504.102564,4519.487179,4263.589743,4489.743589,4170.256410,4417.435897,4201.538461,4216.923076,4457.948717,4197.435897,4636.923076,4003.076923,4044.615384
248,4352.307692,4497.435897,4514.358974,4263.589743,4482.051282,4167.692307,4411.794871,4198.974358,4215.897435,4447.179487,4190.256410,4630.256410,4001.538461,4042.564102
249,4349.743589,4491.794871,4512.820512,4265.641025,4477.435897,4167.692307,4414.871794,4203.076923,4220.000000,4447.692307,4192.307692,4630.769230,4003.076923,4041.538461
250,4358.461538,4501.538461,4520.000000,4264.102564,4485.641025,4176.410256,4426.666666,4212.820512,4230.256410,4454.358974,4202.051282,4638.461538,4004.615384,4045.128205
251,4359.487179,4510.256410,4523.076923,4262.564102,4486.153846,4178.461538,4430.769230,4211.794871,4228.205128,4463.076923,4204.615384,4642.564102,3996.923077,4046.153846
252,4349.230769,4505.128205,4512.820512,4262.051282,4475.897435,4169.230769,4424.615384,4201.025641,4218.974358,4458.974358,4197.948717,4635.897435,3993.333334,4036.923076
253,4346.153846,4501.025641,4505.128205,4258.974358,4473.846153,4166.153846,4420.512820,4194.358974,4215.897435,4445.128205,4193.333333,4628.717948,4002.051282,4030.256410
254,4350.769230,4505.641025,4511.282051,4258.974358,4478.461538,4169.230769,4418.461538,4195.897435,4214.871794,4442.051282,4189.743589,4631.282051,4001.025641,4036.410256
255,4351.794871,4506.666666,4518.974358,4263.589743,4480.000000,4167.179487,4414.358974,4194.871794,4208.205128,4445.128205,4185.128205,4635.897435,3988.205129,4043.589743
256,4348.205128,4497.948717,4514.358974,4263.589743,4477.948717,4164.615384,4410.769230,4191.282051,4202.051282,4431.794871,4183.076923,4629.743589,3983.589744,4038.461538
257,4351.282051,4499.487179,4510.256410,4261.538461,4476.410256,4167.692307,4416.410256,4192.820512,4199.487179,4417.435897,4182.564102,4624.615384,3991.794872,4034.871794
258,4356.410256,4510.769230,4512.820512,4260.512820,4475.384615,4172.307692,4424.102564,4194.871794,4198.974358,4429.743589,4186.153846,4629.743589,3994.871795,4038.974358
259,4352.820512,4508.205128,4509.743589,4261.538461,4477.948717,4172.820512,4423.076923,4195.384615,4204.615384,4444.615384,4188.205128,4628.717948,3989.230770,4040.000000
