,AF3,F7,F3,FC5,T7,P7,O1,O2,P8,T8,FC6,F4,F8,AF4
0,4445.128205,4626.153846,4568.717948,4273.333333,4547.179487,4218.974358,4445.128205,4214.871794,4240.000000,4500.512820,4204.102564,4657.948717,4066.153846,4063.589743
1,4449.230769,4629.743589,4571.282051,4269.230769,4549.230769,4222.564102,4448.717948,4221.538461,4247.692307,4504.615384,4212.307692,4659.487179,4063.076923,4067.179487
2,4431.794871,4618.461538,4562.564102,4254.871794,4550.769230,4217.948717,4438.974358,4215.384615,4242.051282,4500.512820,4206.666666,4651.282051,4051.794871,4055.897435
3,4431.794871,4615.384615,4564.102564,4267.692307,4550.256410,4220.512820,4440.512820,4217.435897,4237.948717,4502.051282,4203.076923,4652.307692,4054.358974,4059.487179
4,4444.615384,4619.487179,4572.307692,4280.512820,4551.282051,4227.179487,4449.230769,4226.153846,4246.153846,4511.282051,4208.717948,4661.538461,4063.589743,4069.743589
5,4441.538461,4620.000000,4569.230769,4269.230769,4551.794871,4223.589743,4447.692307,4222.564102,4247.179487,4511.794871,4208.205128,4661.025641,4057.948717,4061.538461
6,4440.000000,4621.538461,4568.205128,4266.153846,4548.205128,4220.000000,4448.205128,4218.974358,4243.076923,4501.538461,4208.205128,4657.435897,4049.743589,4062.051282
7,4446.153846,4625.641025,4573.333333,4274.358974,4550.256410,4224.615384,4453.333333,4222.051282,4246.666666,4500.000000,4218.974358,4658.461538,4053.333333,4074.871794
8,4439.487179,4624.102564,4566.666666,4268.717948,4556.410256,4226.153846,4447.692307,4219.487179,4247.692307,4506.153846,4211.794871,4652.820512,4054.871794,4066.153846
9,4431.794871,4616.923076,4557.435897,4264.615384,4554.358974,4222.051282,4444.102564,4215.384615,4240.512820,4503.589743,4192.307692,4645.641025,4052.307692,4050.256410
10,4438.461538,4616.923076,4564.102564,4273.846153,4552.307692,4224.102564,4451.282051,4222.564102,4242.051282,4497.435897,4201.025641,4648.717948,4054.871794,4055.384615
11,4439.487179,4618.974358,4565.128205,4272.307692,4554.871794,4225.641025,4450.769230,4224.615384,4246.153846,4497.948717,4214.871794,4650.256410,4053.846153,4061.538461
12,4428.205128,4614.358974,4553.846153,4260.512820,4550.256410,4217.948717,4440.000000,4213.846153,4243.076923,4501.538461,4198.461538,4644.615384,4044.102564,4055.384615
13,4427.179487,4613.846153,4558.461538,4266.666666,4543.589743,4214.358974,4440.512820,4213.333333,4244.102564,4504.615384,4191.794871,4645.641025,4042.564102,4056.410256
14,4437.948717,4617.435897,4569.743589,4278.461538,4548.205128,4221.538461,4451.794871,4226.153846,4252.307692,4509.230769,4210.256410,4652.307692,4056.923076,4059.487179
15,4439.487179,4614.358974,4559.487179,4267.179487,4551.282051,4225.641025,4453.846153,4227.692307,4252.307692,4509.743589,4210.256410,4653.846153,4067.692307,4054.358974
16,4430.769230,4611.282051,4550.256410,4252.820512,4547.179487,4218.974358,4446.153846,4215.384615,4241.025641,4498.974358,4201.025641,4649.743589,4060.000000,4052.307692
17,4422.564102,4609.743589,4553.846153,4255.384615,4544.615384,4212.307692,4440.512820,4207.179487,4231.794871,4485.641025,4196.923076,4641.025641,4037.948717,4049.743589
18,4418.461538,4605.641025,4550.256410,4256.410256,4543.076923,4212.820512,4440.512820,4204.615384,4227.179487,4481.025641,4178.461538,4632.307692,4025.641025,4040.512820
19,4415.384615,4603.076923,4548.205128,4253.846153,4543.076923,4216.410256,4442.051282,4204.615384,4226.666666,4484.615384,4174.358974,4630.256410,4038.461538,4036.410256
20,4413.846153,4598.974358,4549.230769,4256.923076,4545.128205,4213.846153,4434.871794,4201.538461,4229.743589,4485.641025,4192.820512,4632.307692,4048.717948,4036.410256
21,4417.435897,4594.358974,4542.051282,4252.820512,4543.076923,4209.230769,4430.256410,4195.897435,4231.282051,4485.128205,4194.358974,4632.820512,4046.153846,4037.435897
22,4420.000000,4597.435897,4537.948717,4243.076923,4534.871794,4209.230769,4433.333333,4196.410256,4228.205128,4488.717948,4184.615384,4629.743589,4042.564102,4045.128205
23,4417.948717,4606.666666,4546.153846,4247.692307,4533.333333,4208.205128,4433.846153,4197.435897,4224.102564,4490.769230,4192.307692,4630.256410,4041.025641,4047.692307
24,4420.000000,4607.692307,4552.307692,4257.948717,4541.025641,4207.692307,4434.358974,4194.871794,4225.128205,4489.743589,4190.256410,4635.384615,4043.589743,4042.051282
25,4428.205128,4606.153846,4550.769230,4262.564102,4546.153846,4212.820512,4436.410256,4196.410256,4227.179487,4487.692307,4182.051282,4636.923076,4053.846153,4042.564102
26,4429.743589,4609.230769,4551.282051,4262.564102,4548.717948,4220.512820,4436.410256,4204.102564,4227.692307,4487.692307,4188.717948,4635.897435,4056.410256,4046.153846
27,4425.641025,4612.820512,4553.333333,4261.025641,4550.769230,4223.076923,4437.435897,4209.230769,4235.384615,4496.923076,4185.641025,4637.435897,4044.615384,4047.179487
28,4426.666666,4611.794871,4550.769230,4258.461538,4545.128205,4214.871794,4436.410256,4207.692307,4237.948717,4500.000000,4181.538461,4637.435897,4045.128205,4049.743589
29,4425.128205,4605.641025,4550.769230,4252.820512,4534.358974,4205.128205,4432.307692,4202.051282,4224.615384,4485.128205,4193.333333,4635.384615,4055.384615,4047.179487
30,4418.461538,4599.487179,4554.358974,4254.871794,4532.820512,4208.717948,4433.846153,4202.564102,4221.538461,4480.000000,4195.897435,4636.923076,4051.282051,4043.589743
31,4420.512820,4606.666666,4553.846153,4267.692307,4544.102564,4218.461538,4442.564102,4212.307692,4235.384615,4495.897435,4186.666666,4644.615384,4041.025641,4045.641025
32,4427.179487,4618.974358,4552.820512,4268.205128,4549.743589,4220.000000,4443.076923,4215.897435,4242.051282,4504.615384,4188.205128,4648.205128,4037.948717,4044.102564
33,4423.589743,4608.205128,4553.846153,4253.333333,4544.615384,4218.974358,4438.461538,4207.692307,4237.435897,4493.846153,4191.794871,4642.051282,4040.512820,4042.564102
34,4416.923076,4590.769230,4553.333333,4253.846153,4544.102564,4218.461538,4436.410256,4204.102564,4233.846153,4484.615384,4188.717948,4639.487179,4048.205128,4049.230769
35,4423.589743,4601.025641,4554.358974,4262.051282,4547.179487,4214.358974,4438.974358,4210.769230,4236.923076,4490.769230,4196.923076,4648.717948,4052.307692,4054.358974
36,4430.769230,4612.307692,4553.846153,4255.897435,4543.589743,4213.333333,4442.051282,4216.923076,4244.102564,4498.461538,4194.871794,4651.282051,4038.974358,4048.717948
37,4427.692307,4607.179487,4555.384615,4252.307692,4541.025641,4213.846153,4444.102564,4219.487179,4247.179487,4501.025641,4184.102564,4649.230769,4032.820512,4046.153846
38,4428.717948,4606.153846,4563.589743,4258.461538,4546.666666,4216.923076,4446.666666,4221.025641,4245.641025,4507.692307,4197.948717,4654.871794,4047.179487,4054.358974
39,4429.743589,4605.641025,4562.564102,4256.923076,4548.717948,4218.461538,4442.564102,4214.358974,4240.000000,4502.564102,4212.307692,4651.282051,4042.564102,4054.358974
40,4424.102564,4602.051282,4550.769230,4255.384615,4544.102564,4214.871794,4435.897435,4205.128205,4233.333333,4485.128205,4196.923076,4641.538461,4025.128205,4047.179487
41,4424.615384,4611.794871,4553.846153,4265.128205,4545.128205,4215.384615,4441.538461,4207.179487,4234.358974,4488.717948,4184.615384,4645.641025,4024.102564,4052.307692
42,4436.923076,4626.153846,4565.641025,4267.692307,4550.256410,4223.076923,4450.769230,4214.871794,4243.076923,4505.128205,4193.333333,4655.384615,4027.179487,4060.000000
43,4439.487179,4624.102564,4562.051282,4257.948717,4552.820512,4226.153846,4449.743589,4214.871794,4250.256410,4505.128205,4191.794871,4652.820512,4020.000000,4051.794871
44,4433.333333,4617.435897,4552.307692,4253.333333,4552.307692,4225.128205,4446.666666,4213.333333,4248.205128,4498.974358,4185.128205,4646.153846,4012.307692,4041.538461
45,4436.410256,4618.461538,4557.948717,4259.487179,4552.307692,4227.179487,4447.692307,4215.384615,4243.076923,4500.000000,4198.974358,4648.205128,4013.333333,4047.179487
46,4445.128205,4625.128205,4569.230769,4266.153846,4554.871794,4227.179487,4448.717948,4220.000000,4250.256410,4505.128205,4208.717948,4657.948717,4022.564102,4056.410256
47,4447.692307,4630.769230,4572.307692,4267.179487,4562.051282,4230.256410,4454.358974,4224.102564,4263.076923,4514.358974,4200.512820,4664.102564,4029.743589,4058.974358
48,4438.461538,4623.076923,4569.743589,4260.512820,4563.589743,4230.769230,4454.358974,4218.461538,4252.820512,4512.307692,4195.384615,4655.384615,4017.435897,4050.769230
49,4431.282051,4615.384615,4567.692307,4251.282051,4553.846153,4224.102564,4448.717948,4210.769230,4235.897435,4498.974358,4194.358974,4647.692307,4007.179487,4043.589743
50,4436.923076,4623.076923,4561.538461,4253.846153,4548.205128,4222.564102,4445.641025,4211.282051,4237.948717,4496.923076,4193.846153,4652.307692,4013.333333,4047.179487
51,4434.358974,4624.615384,4553.333333,4259.487179,4548.717948,4221.025641,4439.487179,4207.179487,4235.384615,4493.333333,4196.923076,4651.282051,4008.205128,4042.564102
52,4422.051282,4611.794871,4548.717948,4254.871794,4540.512820,4212.307692,4433.333333,4195.897435,4225.641025,4484.102564,4188.717948,4642.051282,3998.461539,4028.717948
53,4421.538461,4605.641025,4549.743589,4250.769230,4533.846153,4207.692307,4434.358974,4193.846153,4226.666666,4483.076923,4178.974358,4642.564102,4003.589743,4029.743589
54,4430.256410,4609.743589,4552.307692,4250.769230,4540.512820,4212.820512,4434.358974,4197.435897,4228.717948,4486.153846,4186.666666,4648.717948,4005.128205,4040.512820
55,4432.307692,4608.205128,4554.358974,4247.179487,4547.179487,4215.384615,4432.307692,4196.923076,4222.564102,4486.153846,4185.641025,4647.179487,3998.461539,4038.461538
56,4433.333333,4607.692307,4561.538461,4244.102564,4545.641025,4217.435897,4441.025641,4201.538461,4228.205128,4492.820512,4180.000000,4648.205128,4003.589743,4040.000000
57,4440.000000,4612.307692,4569.230769,4252.820512,4545.128205,4220.512820,4445.641025,4213.333333,4242.564102,4502.564102,4195.897435,4654.871794,4014.871794,4053.333333
58,4434.871794,4612.820512,4563.589743,4259.487179,4548.717948,4221.025641,4441.538461,4214.871794,4244.102564,4496.923076,4200.512820,4649.743589,4014.358974,4050.256410
59,4424.102564,4610.256410,4554.358974,4254.871794,4546.153846,4220.512820,4444.102564,4209.230769,4237.948717,4486.153846,4186.666666,4638.461538,4009.230769,4036.923076
60,4422.564102,4600.512820,4552.307692,4246.153846,4535.897435,4216.410256,4446.153846,4206.153846,4231.282051,4482.051282,4189.230769,4635.897435,4008.205128,4035.384615
61,4422.051282,4590.256410,4553.333333,4242.051282,4533.846153,4210.769230,4443.589743,4205.641025,4226.153846,4482.051282,4188.205128,4637.435897,4007.179487,4035.384615
62,4420.000000,4593.333333,4551.282051,4241.538461,4542.564102,4211.794871,4447.179487,4207.692307,4226.666666,4485.128205,4165.641025,4635.897435,3999.487180,4030.256410
63,4418.461538,4597.435897,4542.564102,4236.410256,4542.051282,4212.307692,4446.153846,4211.282051,4229.230769,4484.615384,4161.538461,4630.769230,3992.820513,4027.692307
64,4417.435897,4591.794871,4537.435897,4230.769230,4533.846153,4207.179487,4443.076923,4211.282051,4233.846153,4478.461538,4185.641025,4628.205128,3997.948718,4029.230769
65,4419.487179,4589.743589,4548.205128,4234.871794,4534.358974,4208.205128,4452.307692,4209.230769,4240.512820,4478.974358,4199.487179,4634.871794,4007.179487,4031.794871
66,4426.153846,4591.282051,4556.410256,4243.589743,4536.410256,4211.794871,4455.897435,4210.769230,4240.512820,4486.153846,4188.717948,4642.051282,4006.153846,4034.358974
67,4427.692307,4590.256410,4553.333333,4246.153846,4534.358974,4211.282051,4447.692307,4208.717948,4232.820512,4486.153846,4180.000000,4641.025641,3997.948718,4035.897435
68,4423.076923,4596.410256,4553.846153,4240.000000,4535.897435,4210.769230,4449.230769,4203.076923,4230.256410,4481.538461,4177.435897,4637.948717,3991.794872,4034.871794
69,4417.948717,4599.487179,4554.871794,4235.384615,4541.025641,4211.282051,4453.333333,4203.589743,4232.307692,4477.948717,4170.769230,4636.410256,3992.307693,4028.717948
70,4417.435897,4592.307692,4552.307692,4237.948717,4538.974358,4209.230769,4445.128205,4206.153846,4232.307692,4476.410256,4177.435897,4635.384615,4005.128205,4025.128205
71,4419.487179,4588.205128,4552.820512,4237.948717,4530.256410,4205.128205,4441.025641,4201.025641,4232.820512,4479.487179,4190.769230,4635.897435,4012.820512,4029.743589
72,4416.923076,4590.769230,4552.820512,4235.384615,4528.205128,4203.589743,4443.076923,4194.871794,4234.358974,4482.564102,4184.102564,4634.358974,4001.025641,4031.282051
73,4416.923076,4592.820512,4551.282051,4241.538461,4533.846153,4206.153846,4443.589743,4201.025641,4237.948717,4484.615384,4178.974358,4634.358974,3994.358975,4029.743589
74,4424.102564,4593.333333,4552.820512,4247.179487,4537.948717,4210.256410,4445.128205,4207.692307,4238.974358,4488.717948,4196.410256,4644.615384,4009.743589,4038.461538
75,4427.179487,4595.897435,4554.871794,4245.128205,4541.025641,4210.769230,4448.717948,4206.153846,4236.410256,4487.179487,4196.923076,4644.102564,4018.974358,4043.589743
76,4424.102564,4600.000000,4553.846153,4246.666666,4544.615384,4211.282051,4447.692307,4204.615384,4235.897435,4482.051282,4177.435897,4632.307692,4012.820512,4035.897435
77,4422.564102,4600.512820,4553.846153,4249.230769,4544.615384,4215.897435,4443.076923,4206.153846,4238.974358,4486.666666,4177.435897,4635.897435,4010.256410,4033.846153
78,4422.051282,4595.384615,4552.820512,4244.615384,4540.512820,4213.846153,4438.461538,4205.128205,4239.487179,4492.820512,4189.230769,4642.564102,4005.128205,4036.410256
79,4423.589743,4594.871794,4551.282051,4244.102564,4537.435897,4206.153846,4436.923076,4202.564102,4237.948717,4488.717948,4196.410256,4634.871794,4001.538461,4036.410256
80,4425.641025,4600.512820,4551.794871,4247.179487,4535.384615,4206.153846,4440.000000,4204.102564,4237.435897,4486.153846,4200.000000,4636.923076,4012.820512,4040.000000
81,4427.179487,4603.589743,4555.384615,4248.717948,4533.333333,4208.717948,4441.538461,4209.230769,4240.000000,4487.179487,4191.794871,4647.179487,4021.025641,4044.615384
82,4430.256410,4604.102564,4556.410256,4250.256410,4529.230769,4206.153846,4439.487179,4210.256410,4243.076923,4488.717948,4183.076923,4643.589743,4013.333333,4042.051282
83,4429.743589,4602.564102,4553.333333,4251.794871,4531.794871,4204.102564,4437.948717,4202.051282,4241.025641,4486.666666,4187.692307,4638.974358,4004.615384,4036.923076
84,4424.615384,4599.487179,4553.333333,4250.769230,4533.333333,4204.615384,4435.384615,4193.846153,4232.820512,4483.076923,4191.794871,4641.538461,4006.666666,4036.410256
85,4422.564102,4595.897435,4551.794871,4239.487179,4531.282051,4206.153846,4430.769230,4191.794871,4226.666666,4481.538461,4191.794871,4635.384615,4007.179487,4035.897435
86,4421.025641,4594.358974,4544.102564,4231.794871,4531.794871,4207.179487,4425.128205,4190.256410,4225.128205,4480.000000,4190.769230,4628.205128,3997.948718,4031.794871
87,4418.974358,4595.384615,4543.076923,4241.025641,4532.820512,4208.205128,4426.666666,4187.179487,4226.666666,4477.948717,4176.923076,4630.769230,3991.282052,4027.179487
88,4425.128205,4603.076923,4555.384615,4254.358974,4536.923076,4210.769230,4438.974358,4194.871794,4231.794871,4476.410256,4169.743589,4637.948717,3998.974359,4033.846153
89,4436.410256,4615.384615,4570.769230,4261.538461,4547.692307,4220.512820,4452.820512,4212.307692,4241.025641,4487.179487,4196.410256,4646.153846,4016.410256,4048.205128
90,4432.820512,4610.256410,4568.205128,4258.461538,4548.205128,4223.589743,4450.769230,4213.846153,4244.102564,4498.461538,4212.820512,4648.205128,4024.102564,4047.692307
91,4423.076923,4598.461538,4554.871794,4247.179487,4536.923076,4214.871794,4442.051282,4201.025641,4236.410256,4491.282051,4196.410256,4641.538461,4016.410256,4038.461538
92,4423.076923,4601.025641,4552.307692,4243.589743,4536.410256,4209.230769,4442.564102,4201.538461,4236.410256,4482.564102,4187.179487,4636.923076,4008.717948,4038.974358
93,4425.128205,4609.743589,4556.410256,4250.769230,4540.000000,4209.743589,4444.102564,4206.153846,4238.974358,4484.615384,4185.128205,4635.384615,4011.794871,4041.538461
94,4425.128205,4612.307692,4556.410256,4255.897435,4534.358974,4210.256410,4439.487179,4198.461538,4235.897435,4486.666666,4180.512820,4638.461538,4019.487179,4038.974358
95,4430.769230,4613.846153,4555.384615,4261.025641,4531.794871,4209.743589,4434.871794,4193.333333,4235.384615,4484.102564,4191.282051,4642.564102,4027.692307,4043.076923
96,4432.307692,4612.307692,4555.897435,4265.641025,4532.820512,4206.666666,4432.820512,4197.435897,4235.897435,4486.153846,4203.076923,4638.974358,4029.743589,4046.666666
97,4425.641025,4604.615384,4552.307692,4257.435897,4526.666666,4202.051282,4430.769230,4199.487179,4234.358974,4486.666666,4188.717948,4633.333333,4019.487179,4040.000000
98,4422.051282,4604.102564,4551.282051,4245.128205,4525.128205,4202.051282,4428.205128,4196.923076,4228.717948,4482.564102,4176.410256,4630.256410,4007.179487,4033.333333
99,4426.153846,4610.769230,4552.820512,4246.666666,4533.333333,4208.205128,4427.179487,4196.923076,4228.717948,4483.589743,4185.641025,4631.282051,4010.256410,4038.974358
100,4432.820512,4614.358974,4554.358974,4260.512820,4534.871794,4209.743589,4430.769230,4202.051282,4236.410256,4487.692307,4191.794871,4636.923076,4021.538461,4048.717948
101,4434.358974,4611.282051,4554.871794,4265.641025,4531.282051,4206.153846,4437.435897,4205.641025,4236.410256,4485.128205,4190.256410,4638.974358,4023.589743,4048.205128
102,4432.820512,4606.666666,4554.358974,4259.487179,4532.307692,4204.615384,4439.487179,4201.538461,4230.769230,4482.051282,4186.153846,4634.358974,4015.384615,4042.051282
103,4429.743589,4609.743589,4552.820512,4256.410256,4531.794871,4207.692307,4433.333333,4196.410256,4227.692307,4484.615384,4190.769230,4630.769230,4008.205128,4040.512820
104,4427.692307,4609.743589,4550.769230,4251.794871,4531.282051,4208.717948,4427.692307,4195.897435,4227.692307,4485.641025,4196.410256,4631.794871,4008.205128,4038.461538
105,4426.153846,4600.512820,4551.282051,4247.179487,4537.435897,4208.717948,4429.230769,4192.307692,4229.743589,4483.076923,4184.615384,4632.307692,4009.743589,4034.871794
106,4430.256410,4595.384615,4554.871794,4255.897435,4538.461538,4208.205128,4434.358974,4190.256410,4235.897435,4484.615384,4172.307692,4634.358974,4014.358974,4040.512820
107,4435.384615,4598.974358,4556.923076,4267.692307,4532.820512,4206.666666,4437.948717,4195.384615,4235.384615,4484.615384,4182.051282,4640.000000,4023.589743,4048.205128
108,4434.871794,4606.153846,4556.410256,4269.230769,4533.846153,4209.230769,4441.025641,4200.512820,4233.333333,4487.179487,4196.410256,4643.589743,4024.102564,4046.666666
109,4430.769230,4607.692307,4557.948717,4259.487179,4533.846153,4211.282051,4438.461538,4200.000000,4237.948717,4494.358974,4194.871794,4642.564102,4018.974358,4045.128205
110,4430.256410,4600.000000,4555.897435,4251.282051,4526.153846,4204.102564,4429.230769,4195.897435,4232.307692,4488.717948,4184.102564,4636.410256,4024.615384,4037.948717
111,4424.102564,4589.230769,4543.076923,4250.769230,4524.102564,4196.923076,4420.512820,4188.205128,4218.974358,4471.282051,4167.692307,4626.666666,4025.128205,4025.641025
112,4415.897435,4586.666666,4536.923076,4250.769230,4529.230769,4198.461538,4422.051282,4182.564102,4219.487179,4464.615384,4161.025641,4623.589743,4007.692307,4026.666666
113,4420.000000,4593.846153,4547.692307,4255.384615,4530.256410,4203.076923,4429.230769,4191.282051,4230.256410,4472.307692,4176.410256,4631.282051,4004.615384,4038.974358
114,4429.743589,4600.512820,4554.358974,4264.615384,4531.282051,4206.153846,4430.256410,4200.000000,4231.282051,4480.000000,4189.743589,4634.358974,4019.487179,4041.025641
115,4428.717948,4600.512820,4547.692307,4258.974358,4533.333333,4206.666666,4425.641025,4194.358974,4223.076923,4480.000000,4191.794871,4629.230769,4025.641025,4036.923076
116,4430.769230,4597.435897,4548.205128,4255.384615,4533.333333,4206.153846,4424.615384,4189.230769,4226.153846,4478.461538,4193.846153,4631.794871,4027.692307,4041.538461
117,4435.897435,4601.538461,4555.897435,4270.769230,4535.897435,4208.205128,4427.692307,4197.435897,4236.923076,4483.589743,4191.794871,4641.538461,4036.410256,4049.230769
118,4433.846153,4610.769230,4557.435897,4277.435897,4540.512820,4211.794871,4429.743589,4204.615384,4241.538461,4492.820512,4184.615384,4643.589743,4036.923076,4052.820512
119,4432.820512,4609.743589,4556.410256,4269.743589,4541.025641,4214.871794,4434.358974,4210.769230,4247.179487,4498.461538,4187.179487,4643.076923,4034.871794,4056.410256
120,4436.410256,4596.410256,4556.923076,4262.051282,4540.512820,4212.820512,4438.461538,4217.435897,4252.307692,4498.974358,4201.025641,4644.615384,4042.051282,4058.461538
121,4432.820512,4590.769230,4554.358974,4255.897435,4538.974358,4209.230769,4435.897435,4213.333333,4246.153846,4492.307692,4205.128205,4640.000000,4040.512820,4051.794871
122,4424.615384,4591.794871,4551.794871,4254.871794,4534.871794,4209.743589,4433.846153,4206.666666,4241.025641,4485.641025,4197.435897,4631.794871,4027.692307,4040.512820
123,4418.974358,4586.153846,4549.743589,4258.974358,4532.820512,4208.717948,4435.897435,4205.641025,4241.538461,4485.641025,4188.205128,4631.282051,4020.000000,4037.948717
124,4420.512820,4592.820512,4551.282051,4264.102564,4534.358974,4205.641025,4433.846153,4202.051282,4237.435897,4486.666666,4180.512820,4638.461538,4019.487179,4044.102564
125,4428.717948,4606.666666,4553.846153,4266.153846,4533.333333,4206.666666,4424.102564,4195.897435,4234.871794,4485.641025,4183.589743,4638.461538,4015.897435,4045.641025
126,4430.256410,4601.538461,4548.717948,4258.461538,4530.769230,4204.615384,4420.000000,4193.333333,4237.948717,4484.615384,4187.692307,4631.794871,4019.487179,4042.564102
127,4425.641025,4594.358974,4543.076923,4253.846153,4529.743589,4200.000000,4423.076923,4192.307692,4234.871794,4484.615384,4187.179487,4629.743589,4027.179487,4042.564102
128,4428.717948,4602.051282,4547.692307,4265.641025,4530.256410,4204.615384,4424.615384,4189.743589,4227.179487,4483.076923,4188.717948,4631.794871,4020.512820,4043.076923
129,4430.769230,4605.128205,4550.769230,4270.256410,4531.794871,4208.717948,4423.589743,4185.128205,4225.641025,4478.974358,4187.179487,4628.205128,4010.256410,4039.487179
130,4426.153846,4596.410256,4542.051282,4261.025641,4531.282051,4204.102564,4420.000000,4181.538461,4223.589743,4476.923076,4179.487179,4627.692307,4010.256410,4036.410256
131,4421.025641,4589.743589,4535.897435,4252.307692,4530.256410,4200.512820,4415.897435,4186.153846,4224.102564,4478.974358,4175.384615,4630.769230,4016.923076,4038.974358
132,4427.692307,4592.820512,4542.564102,4248.717948,4527.692307,4202.051282,4418.461538,4197.948717,4233.846153,4485.641025,4187.692307,4631.794871,4030.256410,4046.666666
133,4443.589743,4608.205128,4554.358974,4262.564102,4529.230769,4206.153846,4429.743589,4209.230769,4245.641025,4494.871794,4204.102564,4642.051282,4043.076923,4060.512820
134,4449.230769,4616.923076,4559.487179,4276.923076,4536.410256,4211.794871,4436.923076,4209.230769,4246.153846,4500.000000,4205.128205,4651.794871,4038.461538,4068.717948
135,4441.538461,4609.230769,4554.358974,4269.743589,4541.025641,4214.358974,4431.794871,4198.461538,4239.487179,4496.923076,4198.461538,4645.128205,4024.615384,4059.487179
136,4441.538461,4602.564102,4552.307692,4267.692307,4541.538461,4214.358974,4431.282051,4198.974358,4242.564102,4494.358974,4202.564102,4642.564102,4026.666666,4055.897435
137,4448.717948,4606.153846,4557.948717,4277.435897,4542.051282,4214.871794,4438.461538,4212.820512,4252.820512,4503.589743,4208.205128,4652.307692,4031.794871,4067.692307
138,4442.051282,4609.743589,4556.923076,4271.794871,4541.538461,4214.871794,4440.000000,4212.307692,4257.435897,4509.743589,4202.564102,4648.205128,4026.666666,4063.589743
139,4434.358974,4607.179487,4553.333333,4262.051282,4539.487179,4211.794871,4438.461538,4204.615384,4250.769230,4501.025641,4200.512820,4641.025641,4022.051282,4048.717948
140,4439.487179,4606.153846,4554.871794,4264.102564,4542.564102,4212.820512,4442.051282,4207.692307,4243.076923,4491.794871,4198.974358,4642.564102,4024.615384,4052.820512
141,4445.641025,4604.615384,4554.871794,4267.179487,4546.153846,4220.512820,4444.615384,4211.282051,4247.692307,4498.461538,4196.410256,4642.564102,4032.820512,4062.564102
142,4444.102564,4605.641025,4555.897435,4271.282051,4541.025641,4218.461538,4440.512820,4209.230769,4252.307692,4504.615384,4201.538461,4642.051282,4037.948717,4061.025641
143,4436.410256,4608.717948,4553.846153,4273.333333,4533.846153,4209.743589,4434.871794,4205.128205,4242.051282,4493.846153,4200.512820,4638.974358,4030.256410,4055.897435
144,4432.307692,4606.153846,4543.076923,4263.076923,4534.358974,4207.179487,4432.820512,4203.076923,4233.846153,4479.487179,4190.769230,4631.282051,4024.615384,4048.205128
145,4437.435897,4604.102564,4542.051282,4261.025641,4542.051282,4212.820512,4436.410256,4206.666666,4240.000000,4482.564102,4189.743589,4633.846153,4025.641025,4046.153846
146,4443.589743,4606.153846,4552.820512,4271.794871,4546.153846,4218.461538,4442.564102,4211.794871,4242.564102,4495.384615,4200.000000,4644.102564,4017.948717,4054.358974
147,4441.025641,4610.769230,4552.820512,4269.230769,4543.076923,4216.923076,4438.461538,4205.128205,4237.948717,4497.948717,4198.974358,4641.025641,4007.692307,4056.923076
148,4436.410256,4614.871794,4546.153846,4258.974358,4535.897435,4210.256410,4432.307692,4196.923076,4235.384615,4488.717948,4187.179487,4634.871794,4010.256410,4048.717948
149,4436.923076,4615.384615,4550.256410,4256.923076,4532.820512,4208.205128,4430.256410,4196.410256,4236.410256,4486.666666,4189.230769,4639.487179,4013.333333,4047.179487
150,4435.897435,4609.743589,4554.358974,4260.000000,4532.307692,4208.717948,4428.717948,4194.871794,4236.923076,4492.820512,4193.846153,4642.051282,4006.153846,4049.743589
151,4435.897435,4605.128205,4552.820512,4263.076923,4529.230769,4205.128205,4425.641025,4196.923076,4237.948717,4494.871794,4187.179487,4642.564102,3996.923077,4046.153846
152,4440.512820,4611.282051,4555.384615,4264.615384,4530.256410,4204.102564,4425.128205,4208.205128,4245.128205,4494.871794,4189.230769,4647.179487,4000.512820,4048.205128
153,4442.051282,4613.846153,4556.923076,4255.897435,4531.282051,4203.589743,4426.666666,4208.205128,4249.743589,4498.974358,4197.948717,4647.692307,4012.307692,4054.358974
154,4441.538461,4609.743589,4552.307692,4253.846153,4530.769230,4201.538461,4426.153846,4198.974358,4243.589743,4498.461538,4194.871794,4643.076923,4014.358974,4053.846153
155,4444.615384,4616.410256,4554.871794,4269.743589,4536.923076,4210.256410,4431.794871,4202.051282,4241.025641,4495.384615,4194.358974,4646.153846,4013.333333,4054.358974
156,4449.743589,4629.230769,4563.076923,4275.384615,4548.205128,4224.102564,4445.128205,4213.333333,4248.205128,4499.487179,4203.589743,4653.333333,4013.846153,4060.000000
157,4453.333333,4633.333333,4563.076923,4269.743589,4549.743589,4222.051282,4446.153846,4216.923076,4253.333333,4508.205128,4210.769230,4656.923076,4016.923076,4062.564102
158,4452.820512,4632.820512,4562.051282,4275.897435,4544.102564,4214.358974,4441.025641,4216.923076,4253.846153,4509.743589,4210.769230,4660.512820,4025.641025,4060.512820
159,4448.717948,4628.717948,4559.487179,4278.974358,4542.051282,4214.358974,4442.564102,4216.410256,4254.358974,4505.641025,4205.641025,4660.512820,4031.794871,4061.538461
160,4447.179487,4620.000000,4557.435897,4270.769230,4540.000000,4214.358974,4444.615384,4215.897435,4253.846153,4509.743589,4212.820512,4659.487179,4032.307692,4067.179487
161,4451.794871,4620.512820,4562.051282,4271.794871,4541.025641,4212.820512,4443.589743,4218.974358,4259.487179,4514.871794,4225.641025,4660.000000,4031.794871,4068.717948
162,4446.666666,4617.948717,4561.538461,4271.794871,4541.025641,4213.333333,4440.512820,4217.435897,4253.846153,4507.692307,4210.769230,4655.897435,4026.153846,4056.923076
163,4440.512820,4607.179487,4557.435897,4261.538461,4535.897435,4213.846153,4438.461538,4212.820512,4243.076923,4496.923076,4194.871794,4651.794871,4027.179487,4051.282051
164,4453.846153,4612.820512,4566.666666,4263.076923,4539.487179,4216.923076,4445.641025,4221.025641,4252.820512,4500.000000,4217.435897,4661.025641,4043.589743,4068.205128
165,4459.487179,4623.589743,4572.307692,4274.358974,4546.153846,4221.025641,4453.333333,4229.743589,4262.564102,4509.230769,4231.282051,4665.641025,4045.128205,4073.846153
166,4449.230769,4621.025641,4560.512820,4280.000000,4545.128205,4221.025641,4449.743589,4223.589743,4256.923076,4513.846153,4218.461538,4660.000000,4035.897435,4058.974358
167,4443.589743,4617.435897,4555.897435,4273.333333,4541.538461,4218.974358,4442.564102,4214.871794,4252.307692,4510.769230,4204.102564,4657.435897,4035.384615,4053.333333
168,4444.102564,4611.794871,4556.923076,4258.974358,4542.564102,4214.358974,4440.000000,4208.205128,4243.589743,4498.461538,4187.179487,4652.307692,4025.641025,4054.871794
169,4442.564102,4605.128205,4553.846153,4258.974358,4540.512820,4210.769230,4444.102564,4206.153846,4236.410256,4493.333333,4190.769230,4645.641025,4020.512820,4057.948717
170,4445.128205,4611.794871,4556.923076,4267.179487,4536.923076,4213.846153,4448.205128,4213.333333,4248.205128,4502.051282,4213.333333,4651.282051,4035.384615,4064.615384
171,4447.179487,4617.948717,4557.948717,4258.461538,4534.871794,4212.307692,4441.538461,4216.923076,4254.358974,4503.589743,4216.923076,4655.897435,4040.512820,4065.128205
172,4444.102564,4614.871794,4555.384615,4251.794871,4533.333333,4209.230769,4436.410256,4210.769230,4244.615384,4498.974358,4203.589743,4650.769230,4038.461538,4054.358974
173,4443.076923,4612.307692,4556.410256,4261.025641,4533.333333,4211.282051,4439.487179,4206.666666,4241.538461,4499.487179,4196.410256,4646.153846,4042.051282,4048.205128
174,4441.025641,4607.692307,4555.384615,4261.538461,4538.974358,4211.794871,4438.461538,4208.717948,4240.000000,4500.000000,4189.230769,4645.128205,4031.794871,4050.256410
175,4436.923076,4602.564102,4551.794871,4252.307692,4543.589743,4210.256410,4435.384615,4207.692307,4234.358974,4495.897435,4189.230769,4645.128205,4021.538461,4053.846153
176,4442.564102,4613.846153,4561.538461,4258.461538,4542.051282,4212.820512,4443.589743,4212.820512,4242.051282,4501.538461,4208.717948,4651.794871,4037.948717,4059.487179
177,4449.743589,4625.641025,4572.820512,4272.307692,4540.512820,4216.923076,4451.794871,4222.051282,4254.871794,4510.256410,4217.948717,4659.487179,4052.820512,4061.025641
178,4445.641025,4616.923076,4564.615384,4269.230769,4541.025641,4214.358974,4445.641025,4216.410256,4249.230769,4506.153846,4200.000000,4653.333333,4039.487179,4053.333333
179,4434.871794,4604.615384,4551.282051,4260.512820,4538.974358,4208.717948,4436.410256,4205.128205,4239.487179,4497.435897,4186.153846,4640.000000,4027.179487,4047.179487
180,4435.897435,4607.179487,4552.820512,4265.641025,4534.358974,4209.230769,4436.410256,4205.641025,4238.461538,4497.948717,4193.333333,4641.025641,4037.435897,4049.743589
181,4445.641025,4612.820512,4558.461538,4269.230769,4533.333333,4210.769230,4441.538461,4212.307692,4238.974358,4503.589743,4198.974358,4652.307692,4053.333333,4058.974358
182,4443.589743,4608.717948,4555.384615,4259.487179,4532.820512,4208.205128,4441.538461,4211.282051,4234.358974,4501.025641,4197.435897,4651.282051,4055.384615,4061.538461
183,4434.871794,4603.076923,4551.794871,4255.897435,4531.282051,4205.641025,4436.410256,4208.717948,4232.820512,4495.384615,4202.564102,4643.076923,4048.205128,4054.358974
184,4441.025641,4609.230769,4558.461538,4261.538461,4537.435897,4207.692307,4437.948717,4216.923076,4243.076923,4501.538461,4207.692307,4648.205128,4046.666666,4055.384615
185,4450.256410,4616.410256,4563.589743,4260.512820,4541.025641,4210.256410,4443.076923,4224.102564,4256.410256,4515.897435,4208.205128,4656.923076,4055.384615,4064.615384
186,4443.589743,4607.179487,4556.923076,4258.461538,4536.923076,4211.794871,4440.512820,4217.948717,4254.358974,4513.333333,4207.179487,4651.794871,4057.948717,4060.000000
187,4438.974358,4603.076923,4554.358974,4265.641025,4535.897435,4212.307692,4437.948717,4215.384615,4243.076923,4500.512820,4202.564102,4647.179487,4053.846153,4053.333333
188,4450.256410,4617.948717,4562.564102,4273.846153,4537.948717,4212.820512,4442.051282,4223.076923,4247.692307,4506.153846,4201.538461,4651.794871,4059.487179,4065.641025
189,4455.897435,4620.512820,4568.717948,4273.333333,4538.974358,4215.897435,4446.153846,4222.051282,4253.846153,4513.846153,4212.307692,4654.358974,4063.589743,4072.307692
190,4447.179487,4608.205128,4567.179487,4268.205128,4540.512820,4215.897435,4445.128205,4214.358974,4245.641025,4505.128205,4221.025641,4651.794871,4060.000000,4063.589743
191,4442.051282,4608.205128,4561.538461,4258.461538,4539.487179,4212.820512,4444.102564,4212.307692,4239.487179,4497.948717,4216.410256,4650.256410,4062.051282,4062.051282
192,4443.076923,4609.230769,4553.333333,4250.256410,4532.820512,4207.692307,4443.589743,4210.769230,4238.974358,4496.410256,4203.076923,4645.641025,4057.948717,4059.487179
193,4443.076923,4604.102564,4553.333333,4258.974358,4531.282051,4206.666666,4446.666666,4215.897435,4239.487179,4494.358974,4190.769230,4642.051282,4050.769230,4052.820512
194,4444.615384,4607.692307,4563.589743,4270.256410,4536.410256,4213.846153,4452.820512,4223.076923,4243.076923,4501.025641,4192.307692,4647.179487,4060.000000,4055.897435
195,4450.256410,4614.871794,4567.179487,4269.230769,4540.512820,4218.974358,4453.846153,4224.102564,4251.794871,4514.871794,4209.743589,4653.846153,4073.846153,4064.615384
196,4452.820512,4617.948717,4559.487179,4267.179487,4545.641025,4220.512820,4451.794871,4225.641025,4257.948717,4520.000000,4226.153846,4655.384615,4070.256410,4067.179487
197,4449.743589,4615.384615,4553.333333,4266.153846,4545.641025,4221.025641,4445.641025,4221.025641,4251.282051,4513.333333,4227.179487,4653.333333,4059.487179,4063.589743
198,4445.641025,4606.666666,4553.333333,4260.512820,4541.538461,4218.974358,4438.974358,4209.230769,4240.000000,4504.102564,4223.076923,4647.692307,4058.974358,4055.384615
199,4444.615384,4605.641025,4553.846153,4254.871794,4536.923076,4214.358974,4442.051282,4207.179487,4238.461538,4500.512820,4208.205128,4642.564102,4067.692307,4050.256410
200,4443.076923,4608.717948,4552.307692,4257.435897,4533.333333,4210.769230,4446.666666,4211.282051,4240.512820,4498.974358,4187.179487,4638.461538,4070.769230,4051.282051
201,4438.461538,4597.948717,4551.794871,4261.538461,4532.307692,4208.717948,4443.076923,4211.282051,4242.051282,4505.128205,4195.897435,4641.025641,4060.512820,4053.333333
202,4440.512820,4587.692307,4552.820512,4257.948717,4528.717948,4206.666666,4441.025641,4211.794871,4245.641025,4510.769230,4223.076923,4648.717948,4053.333333,4054.871794
203,4445.641025,4594.358974,4554.358974,4254.358974,4526.153846,4205.641025,4444.615384,4212.820512,4243.076923,4499.487179,4223.589743,4651.282051,4057.948717,4054.871794
204,4441.538461,4601.025641,4551.794871,4255.384615,4527.692307,4204.102564,4438.974358,4209.743589,4237.435897,4489.230769,4202.564102,4644.102564,4060.000000,4052.307692
205,4433.846153,4594.871794,4548.205128,4252.820512,4529.743589,4204.615384,4432.820512,4210.256410,4237.948717,4496.923076,4197.435897,4636.923076,4053.333333,4048.205128
206,4429.230769,4583.076923,4549.230769,4248.717948,4528.205128,4205.641025,4434.358974,4209.230769,4233.846153,4498.461538,4198.461538,4638.461538,4046.153846,4043.589743
207,4431.282051,4583.076923,4552.820512,4252.820512,4529.743589,4207.179487,4436.410256,4206.153846,4232.307692,4492.307692,4191.282051,4642.564102,4048.205128,4044.102564
208,4438.461538,4592.820512,4556.410256,4261.538461,4535.384615,4210.769230,4440.000000,4208.717948,4238.974358,4496.410256,4196.410256,4644.615384,4056.923076,4050.769230
209,4443.076923,4597.948717,4555.897435,4263.076923,4534.358974,4212.307692,4442.051282,4209.743589,4238.974358,4496.923076,4209.230769,4647.179487,4064.615384,4055.897435
210,4441.025641,4595.897435,4553.846153,4257.948717,4529.743589,4209.230769,4437.435897,4206.666666,4233.846153,4492.820512,4207.179487,4648.205128,4063.589743,4053.333333
211,4438.461538,4586.153846,4552.820512,4248.717948,4524.615384,4203.076923,4436.410256,4205.128205,4232.820512,4490.256410,4198.974358,4645.128205,4053.846153,4045.641025
212,4441.025641,4580.000000,4552.820512,4247.179487,4523.589743,4202.564102,4436.923076,4206.666666,4229.743589,4486.153846,4198.461538,4646.666666,4051.794871,4046.666666
213,4445.641025,4590.769230,4555.384615,4259.487179,4524.615384,4202.051282,4436.923076,4210.769230,4231.282051,4490.769230,4202.051282,4654.358974,4061.538461,4056.923076
214,4446.153846,4601.025641,4556.923076,4263.589743,4522.051282,4197.435897,4437.435897,4213.333333,4240.000000,4502.051282,4208.205128,4655.384615,4066.666666,4062.051282
215,4440.000000,4592.820512,4553.333333,4253.333333,4520.000000,4196.923076,4434.871794,4211.794871,4243.076923,4502.051282,4207.179487,4646.666666,4067.179487,4057.948717
216,4434.871794,4585.128205,4549.230769,4249.743589,4524.615384,4203.589743,4430.256410,4210.256410,4238.461538,4495.897435,4202.564102,4640.512820,4070.256410,4051.282051
217,4441.025641,4597.948717,4552.307692,4261.025641,4535.897435,4213.333333,4440.000000,4217.435897,4240.000000,4501.025641,4212.820512,4647.179487,4077.948717,4053.333333
218,4452.307692,4614.871794,4556.410256,4269.743589,4543.589743,4217.948717,4451.282051,4223.589743,4248.717948,4509.230769,4217.948717,4654.871794,4077.948717,4063.589743
219,4457.435897,4614.871794,4553.846153,4270.256410,4544.102564,4218.974358,4444.615384,4216.923076,4253.333333,4509.743589,4211.282051,4653.333333,4078.461538,4067.692307
220,4460.000000,4608.205128,4557.435897,4270.769230,4543.076923,4221.538461,4438.461538,4217.435897,4256.410256,4517.435897,4215.384615,4655.897435,4092.820512,4067.692307
221,4461.538461,4609.743589,4567.692307,4269.743589,4541.538461,4222.051282,4442.051282,4226.666666,4258.974358,4523.076923,4223.076923,4663.589743,4100.000000,4071.794871
222,4455.384615,4610.256410,4568.717948,4270.256410,4536.410256,4214.358974,4444.615384,4221.025641,4251.282051,4508.717948,4221.538461,4658.461538,4090.256410,4071.794871
223,4446.153846,4604.102564,4559.487179,4268.717948,4531.794871,4207.692307,4441.538461,4210.256410,4242.051282,4497.948717,4223.589743,4649.230769,4080.000000,4064.615384
224,4438.974358,4595.384615,4547.179487,4255.384615,4529.230769,4208.717948,4441.025641,4211.794871,4241.025641,4501.025641,4214.871794,4642.564102,4073.846153,4053.333333
225,4432.307692,4590.256410,4538.461538,4248.717948,4525.128205,4206.153846,4438.974358,4211.794871,4238.974358,4496.923076,4192.307692,4634.358974,4072.820512,4044.102564
226,4431.794871,4590.256410,4543.589743,4260.000000,4528.717948,4207.179487,4431.794871,4204.102564,4232.820512,4491.282051,4193.846153,4633.333333,4074.871794,4042.051282
227,4439.487179,4596.410256,4554.871794,4266.153846,4532.820512,4209.230769,4433.846153,4205.128205,4234.358974,4494.871794,4210.769230,4641.538461,4069.743589,4048.205128
228,4446.153846,4604.102564,4555.384615,4267.692307,4529.743589,4209.743589,4443.589743,4214.871794,4244.615384,4501.538461,4211.794871,4648.205128,4072.307692,4058.974358
229,4448.717948,4607.692307,4553.333333,4273.333333,4531.794871,4211.794871,4446.153846,4223.076923,4250.256410,4509.743589,4216.923076,4653.333333,4084.102564,4064.102564
230,4445.128205,4606.666666,4557.948717,4266.666666,4534.358974,4210.769230,4440.000000,4221.538461,4246.666666,4511.282051,4219.487179,4655.897435,4077.948717,4059.487179
231,4439.487179,4601.538461,4553.846153,4251.794871,4526.666666,4204.615384,4433.333333,4210.256410,4238.974358,4498.974358,4202.564102,4647.179487,4067.692307,4054.871794
232,4442.564102,4604.615384,4551.282051,4260.000000,4528.205128,4208.205128,4436.923076,4212.307692,4240.512820,4503.076923,4205.128205,4647.179487,4076.923076,4058.974358
233,4450.769230,4612.820512,4560.512820,4276.923076,4544.102564,4220.512820,4446.153846,4227.179487,4251.794871,4516.410256,4231.282051,4658.974358,4088.717948,4070.256410
234,4450.769230,4610.256410,4561.538461,4270.769230,4540.000000,4217.948717,4444.102564,4228.205128,4254.871794,4508.205128,4231.282051,4656.410256,4088.205128,4072.307692
235,4442.051282,4598.461538,4551.794871,4257.435897,4519.487179,4201.025641,4432.307692,4217.948717,4248.717948,4501.025641,4222.051282,4644.102564,4085.128205,4061.538461
236,4442.564102,4599.487179,4551.794871,4260.000000,4520.000000,4196.923076,4433.333333,4220.000000,4249.230769,4513.846153,4222.564102,4644.615384,4086.666666,4058.974358
237,4450.769230,4612.820512,4556.923076,4266.666666,4532.820512,4207.692307,4442.564102,4225.641025,4250.769230,4518.461538,4213.333333,4649.230769,4086.153846,4069.743589
238,4449.230769,4609.743589,4554.871794,4267.692307,4529.230769,4209.743589,4440.512820,4215.897435,4242.564102,4504.102564,4213.846153,4644.102564,4083.076923,4067.692307
239,4440.000000,4601.025641,4550.256410,4270.769230,4526.666666,4206.666666,4433.846153,4203.589743,4230.256410,4488.717948,4223.589743,4637.948717,4082.564102,4054.871794
240,4430.769230,4598.974358,4543.589743,4263.589743,4532.820512,4209.743589,4430.256410,4197.948717,4223.589743,4482.564102,4208.717948,4632.820512,4071.794871,4047.179487
241,4425.641025,4599.487179,4536.410256,4250.256410,4530.769230,4207.692307,4427.692307,4196.410256,4225.641025,4484.102564,4189.743589,4627.692307,4053.333333,4043.589743
242,4427.692307,4599.487179,4536.410256,4256.410256,4525.641025,4202.564102,4426.153846,4201.538461,4231.794871,4490.769230,4195.897435,4628.717948,4054.358974,4042.564102
243,4431.282051,4596.410256,4538.974358,4263.076923,4524.615384,4199.487179,4428.205128,4208.205128,4231.794871,4491.794871,4203.076923,4633.333333,4065.641025,4042.051282
244,4435.897435,4595.384615,4540.000000,4258.461538,4518.974358,4194.871794,4428.205128,4208.205128,4227.692307,4486.666666,4209.230769,4637.948717,4065.128205,4045.641025
245,4437.435897,4598.461538,4540.000000,4256.923076,4514.871794,4193.846153,4423.589743,4204.615384,4224.615384,4481.538461,4210.256410,4639.487179,4062.564102,4050.769230
246,4433.333333,4597.435897,4542.051282,4255.897435,4522.051282,4200.512820,4428.205128,4207.692307,4229.743589,4486.666666,4201.025641,4639.487179,4062.051282,4052.820512
247,4436.410256,4594.358974,4551.794871,4256.410256,4528.717948,4208.205128,4440.000000,4216.923076,4246.153846,4503.076923,4210.256410,4643.589743,4056.410256,4054.358974
248,4441.538461,4595.384615,4554.358974,4260.512820,4528.717948,4209.743589,4443.076923,4225.128205,4251.794871,4508.717948,4217.948717,4645.128205,4044.102564,4050.769230
249,4431.794871,4595.384615,4543.076923,4256.410256,4523.589743,4206.153846,4438.974358,4221.025641,4243.589743,4501.025641,4198.974358,4635.897435,4032.307692,4037.948717
250,4423.589743,4595.897435,4538.461538,4246.153846,4520.000000,4204.615384,4438.461538,4212.820512,4238.974358,4493.333333,4188.717948,4629.230769,4027.179487,4032.307692
251,4431.794871,4606.153846,4541.538461,4248.205128,4525.128205,4208.717948,4442.564102,4213.846153,4239.487179,4489.743589,4198.461538,4635.384615,4030.769230,4042.564102
252,4436.923076,4606.153846,4540.000000,4252.820512,4529.743589,4210.769230,4442.051282,4214.871794,4236.410256,4489.230769,4200.512820,4642.051282,4032.820512,4047.179487
253,4433.846153,4600.000000,4541.538461,4256.410256,4527.179487,4207.179487,4438.461538,4212.820512,4236.923076,4495.384615,4208.205128,4642.051282,4023.589743,4041.538461
254,4438.461538,4610.769230,4553.846153,4271.794871,4528.717948,4209.743589,4439.487179,4213.846153,4244.102564,4501.538461,4218.974358,4646.153846,4017.435897,4040.000000
255,4440.512820,4621.025641,4554.871794,4274.871794,4532.820512,4213.846153,4437.435897,4210.256410,4238.974358,4494.871794,4197.435897,4646.666666,4019.487179,4041.538461
256,4432.307692,4614.871794,4540.512820,4254.871794,4529.743589,4211.282051,4432.307692,4202.564102,4228.205128,4483.589743,4177.435897,4635.897435,4022.564102,4042.564102
257,4432.820512,4613.333333,4539.487179,4251.282051,4527.179487,4210.769230,4434.871794,4205.128205,4229.743589,4482.051282,4192.307692,4633.846153,4023.589743,4048.205128
258,4441.538461,4617.435897,4551.794871,4269.743589,4528.717948,4212.820512,4440.512820,4211.794871,4237.948717,4488.717948,4208.717948,4643.076923,4024.102564,4049.230769
259,4442.564102,4611.794871,4556.923076,4272.307692,4526.153846,4210.769230,4441.025641,4210.769230,4237.435897,4494.358974,4211.282051,4648.717948,4014.358974,4044.102564
260,4440.000000,4606.153846,4554.358974,4262.564102,4524.102564,4208.717948,4440.512820,4209.743589,4235.897435,4496.410256,4205.641025,4649.743589,3997.435898,4046.666666
261,4441.538461,4607.179487,4553.846153,4266.666666,4525.128205,4209.743589,4443.589743,4216.923076,4241.025641,4500.000000,4194.871794,4650.769230,3995.897436,4053.846153
262,4441.538461,4610.256410,4554.871794,4265.128205,4525.641025,4211.282051,4450.256410,4222.051282,4242.564102,4496.410256,4199.487179,4652.307692,4005.641025,4055.897435
263,4442.051282,4609.743589,4554.871794,4254.871794,4524.615384,4211.794871,4454.871794,4218.461538,4239.487179,4490.256410,4217.948717,4655.384615,4005.128205,4057.435897
264,4445.641025,4603.076923,4554.358974,4261.025641,4523.076923,4209.743589,4450.769230,4215.384615,4239.487179,4493.846153,4214.358974,4651.794871,3994.358975,4058.974358
