,AF3,F7,F3,FC5,T7,P7,O1,O2,P8,T8,FC6,F4,F8,AF4
0,4416.410256,4555.897435,4553.846153,4287.179487,4522.051282,4274.871794,4449.230769,4224.102564,4254.871794,4528.717948,4222.564102,4669.743589,4043.076923,4074.358974
1,4415.897435,4552.307692,4550.769230,4289.230769,4521.025641,4278.974358,4450.256410,4221.538461,4258.461538,4522.051282,4223.589743,4670.769230,4043.589743,4075.384615
2,4409.230769,4540.512820,4544.615384,4284.102564,4512.820512,4272.307692,4451.794871,4221.025641,4254.871794,4510.769230,4220.512820,4665.128205,4026.666666,4069.230769
3,4405.641025,4536.410256,4540.512820,4278.974358,4512.820512,4266.666666,4443.076923,4214.358974,4243.589743,4504.102564,4211.282051,4659.487179,4015.384615,4058.974358
4,4408.717948,4544.102564,4543.589743,4285.641025,4521.538461,4276.923076,4446.666666,4212.307692,4243.589743,4503.076923,4213.333333,4664.102564,4023.589743,4061.538461
5,4413.846153,4550.256410,4551.794871,4295.384615,4524.615384,4285.641025,4460.512820,4224.615384,4252.307692,4512.307692,4221.538461,4672.307692,4034.871794,4073.846153
6,4413.846153,4551.282051,4549.743589,4291.794871,4522.051282,4279.487179,4457.435897,4230.769230,4253.846153,4518.461538,4216.923076,4667.179487,4032.307692,4071.794871
7,4413.333333,4553.333333,4548.205128,4291.794871,4524.102564,4279.487179,4453.333333,4231.282051,4257.948717,4514.871794,4217.435897,4666.153846,4030.769230,4067.692307
8,4416.410256,4554.358974,4555.897435,4296.923076,4525.641025,4286.153846,4457.948717,4236.923076,4267.692307,4517.435897,4226.666666,4675.384615,4041.025641,4070.256410
9,4414.358974,4553.846153,4558.974358,4290.256410,4516.923076,4284.615384,4459.487179,4238.461538,4268.717948,4526.666666,4223.076923,4678.461538,4038.461538,4065.128205
10,4410.769230,4553.333333,4556.923076,4284.102564,4511.794871,4282.051282,4458.974358,4238.974358,4265.128205,4524.102564,4220.512820,4681.025641,4030.769230,4065.641025
11,4415.897435,4553.846153,4561.025641,4293.846153,4520.000000,4285.128205,4460.512820,4245.128205,4266.666666,4519.487179,4230.769230,4684.615384,4032.820512,4079.487179
12,4421.025641,4550.769230,4560.000000,4297.435897,4524.102564,4285.641025,4458.974358,4245.128205,4268.717948,4524.102564,4231.282051,4680.000000,4028.205128,4076.923076
13,4417.948717,4546.666666,4555.897435,4291.794871,4520.000000,4280.000000,4457.948717,4240.000000,4265.641025,4525.128205,4220.512820,4676.410256,4018.461538,4061.025641
14,4414.358974,4548.205128,4557.948717,4292.820512,4522.051282,4281.025641,4458.974358,4241.025641,4262.051282,4518.974358,4221.538461,4681.025641,4023.076923,4065.641025
15,4408.717948,4543.589743,4551.282051,4289.743589,4513.846153,4278.974358,4449.743589,4234.871794,4258.461538,4506.153846,4220.000000,4672.307692,4027.692307,4068.205128
16,4403.589743,4534.871794,4545.641025,4282.051282,4504.615384,4273.333333,4445.128205,4228.205128,4256.410256,4503.076923,4210.256410,4663.076923,4017.435897,4058.974358
17,4406.666666,4538.461538,4556.410256,4283.076923,4517.435897,4279.487179,4455.384615,4235.384615,4259.487179,4518.974358,4215.897435,4675.384615,4012.820512,4060.512820
18,4411.794871,4547.179487,4563.589743,4287.692307,4527.179487,4284.615384,4460.512820,4236.923076,4263.076923,4528.717948,4225.641025,4684.102564,4016.923076,4064.615384
19,4412.820512,4550.769230,4560.512820,4292.307692,4518.974358,4280.512820,4456.923076,4231.282051,4260.512820,4518.461538,4221.538461,4679.487179,4018.974358,4064.102564
20,4413.846153,4553.846153,4561.025641,4297.435897,4519.487179,4280.512820,4456.923076,4232.820512,4254.871794,4508.205128,4215.384615,4676.410256,4013.846153,4065.128205
21,4411.794871,4551.282051,4562.564102,4293.846153,4524.102564,4282.564102,4457.948717,4233.846153,4255.384615,4507.179487,4212.820512,4673.846153,4003.589743,4060.000000
22,4404.615384,4537.435897,4553.333333,4282.051282,4513.846153,4278.461538,4451.794871,4231.282051,4256.923076,4504.102564,4206.666666,4667.179487,4000.512820,4049.743589
23,4403.076923,4535.897435,4549.230769,4280.512820,4511.282051,4281.025641,4451.794871,4235.384615,4256.410256,4506.153846,4206.666666,4667.692307,4009.230769,4053.333333
24,4408.717948,4548.205128,4558.974358,4290.769230,4521.025641,4292.307692,4460.000000,4244.102564,4261.025641,4515.897435,4223.076923,4676.410256,4013.333333,4066.153846
25,4414.871794,4554.871794,4564.102564,4297.948717,4527.179487,4298.461538,4464.615384,4244.615384,4268.205128,4528.205128,4236.410256,4683.589743,4011.282051,4068.717948
26,4413.846153,4550.769230,4559.487179,4294.871794,4525.128205,4296.410256,4460.512820,4241.538461,4265.128205,4533.846153,4232.820512,4684.615384,4014.358974,4063.589743
27,4408.205128,4543.589743,4557.435897,4291.282051,4517.948717,4288.205128,4456.923076,4239.487179,4258.974358,4522.564102,4217.948717,4677.948717,4012.820512,4054.871794
28,4406.153846,4538.461538,4555.897435,4287.179487,4516.410256,4285.128205,4460.000000,4235.897435,4263.076923,4513.333333,4210.769230,4671.282051,4006.666666,4056.410256
29,4407.179487,4536.923076,4547.179487,4277.948717,4515.384615,4284.102564,4453.333333,4231.282051,4261.538461,4515.384615,4211.794871,4666.666666,4008.205128,4061.538461
30,4406.666666,4534.871794,4544.615384,4275.384615,4508.717948,4278.974358,4442.051282,4229.743589,4255.384615,4513.846153,4211.282051,4664.102564,4006.153846,4052.820512
31,4408.205128,4536.923076,4550.769230,4285.641025,4510.256410,4282.564102,4449.230769,4237.435897,4259.487179,4514.871794,4213.846153,4668.205128,3998.974359,4045.641025
32,4417.435897,4549.230769,4556.410256,4297.948717,4525.128205,4294.871794,4464.102564,4245.641025,4267.692307,4526.666666,4221.025641,4677.948717,4008.205128,4055.897435
33,4427.179487,4562.051282,4560.512820,4300.000000,4530.256410,4301.025641,4466.153846,4248.717948,4271.282051,4538.461538,4231.282051,4684.615384,4025.641025,4073.333333
34,4425.641025,4554.358974,4560.512820,4294.871794,4523.076923,4298.461538,4461.538461,4246.666666,4273.846153,4533.333333,4231.282051,4682.564102,4021.538461,4074.358974
35,4420.512820,4544.102564,4557.948717,4293.846153,4523.589743,4295.897435,4460.512820,4242.051282,4270.769230,4523.589743,4223.076923,4676.923076,4014.358974,4068.205128
36,4423.076923,4550.256410,4557.435897,4297.948717,4528.717948,4295.897435,4462.051282,4235.897435,4263.589743,4524.102564,4224.102564,4678.974358,4016.410256,4065.641025
37,4418.461538,4553.333333,4554.871794,4292.307692,4522.051282,4292.820512,4456.923076,4232.307692,4253.846153,4520.512820,4226.666666,4677.435897,4012.307692,4058.461538
38,4402.564102,4540.000000,4546.153846,4279.487179,4513.846153,4284.615384,4448.717948,4229.743589,4248.205128,4509.743589,4216.923076,4667.179487,4004.102564,4051.794871
39,4402.051282,4532.307692,4545.641025,4278.461538,4516.410256,4283.589743,4450.769230,4233.846153,4258.461538,4512.820512,4214.358974,4669.230769,4005.641025,4053.333333
40,4417.435897,4541.025641,4557.948717,4286.153846,4523.589743,4295.897435,4461.538461,4246.666666,4270.769230,4529.743589,4225.641025,4678.461538,4012.820512,4063.076923
41,4419.487179,4548.717948,4557.435897,4288.205128,4524.102564,4298.974358,4461.538461,4249.230769,4267.692307,4529.230769,4228.205128,4672.307692,4013.333333,4065.641025
42,4409.743589,4547.692307,4549.230769,4284.615384,4518.461538,4290.256410,4456.410256,4238.461538,4263.076923,4516.410256,4223.076923,4664.615384,4007.179487,4058.461538
43,4408.717948,4543.076923,4550.256410,4282.051282,4511.794871,4290.256410,4458.974358,4234.358974,4266.666666,4515.897435,4222.564102,4672.307692,4001.025641,4054.871794
44,4415.384615,4537.435897,4551.794871,4282.564102,4507.692307,4292.820512,4461.025641,4235.384615,4264.102564,4520.512820,4220.512820,4676.410256,4001.025641,4058.461538
45,4412.307692,4534.358974,4547.692307,4283.589743,4504.615384,4285.128205,4454.871794,4232.820512,4255.897435,4512.820512,4211.282051,4664.102564,4004.102564,4063.589743
46,4409.230769,4536.923076,4549.230769,4286.666666,4509.230769,4284.102564,4453.333333,4232.307692,4252.307692,4506.666666,4204.615384,4657.948717,4003.589743,4065.128205
47,4414.358974,4543.076923,4553.846153,4290.769230,4517.948717,4292.307692,4457.948717,4231.282051,4252.820512,4515.384615,4210.256410,4670.256410,3997.435898,4068.205128
48,4415.897435,4544.615384,4551.794871,4290.769230,4517.948717,4288.717948,4454.871794,4224.615384,4251.282051,4518.461538,4217.948717,4676.410256,3991.282052,4069.743589
49,4413.846153,4544.102564,4554.358974,4291.282051,4515.897435,4285.128205,4451.282051,4222.051282,4247.179487,4507.692307,4216.410256,4673.333333,3995.384616,4071.794871
50,4413.333333,4545.128205,4558.974358,4294.358974,4516.410256,4288.717948,4450.769230,4224.102564,4246.666666,4501.025641,4215.897435,4677.948717,3998.461539,4074.871794
51,4409.743589,4540.000000,4553.333333,4289.230769,4509.743589,4283.589743,4443.589743,4220.000000,4245.641025,4498.974358,4216.410256,4676.923076,3990.769231,4070.256410
52,4410.256410,4537.948717,4550.256410,4285.641025,4509.743589,4280.512820,4444.615384,4217.948717,4241.538461,4498.461538,4213.846153,4668.205128,3992.307693,4067.179487
53,4417.948717,4544.102564,4554.871794,4291.282051,4524.615384,4294.358974,4457.948717,4223.076923,4244.102564,4503.076923,4216.410256,4670.769230,3998.974359,4068.205128
54,4410.769230,4541.538461,4550.256410,4284.615384,4521.025641,4298.461538,4460.000000,4227.179487,4253.846153,4503.589743,4213.846153,4671.282051,3988.205129,4062.051282
55,4401.538461,4531.794871,4540.000000,4273.333333,4502.051282,4289.743589,4453.333333,4226.153846,4259.487179,4502.564102,4209.230769,4660.512820,3981.025642,4058.974358
56,4410.256410,4536.923076,4546.666666,4283.076923,4506.153846,4294.871794,4461.025641,4234.871794,4260.512820,4510.256410,4219.487179,4663.076923,3993.846154,4068.205128
57,4418.461538,4552.820512,4556.410256,4296.923076,4520.512820,4308.717948,4473.333333,4248.205128,4263.589743,4520.512820,4233.846153,4675.384615,4006.153846,4075.897435
58,4418.974358,4553.333333,4551.282051,4296.923076,4522.564102,4311.282051,4476.923076,4254.358974,4272.820512,4523.589743,4234.871794,4676.923076,4013.333333,4081.538461
59,4418.461538,4546.666666,4549.230769,4294.871794,4521.025641,4310.769230,4474.871794,4256.923076,4282.051282,4523.076923,4230.256410,4672.307692,4020.512820,4085.641025
60,4415.897435,4547.179487,4549.743589,4294.358974,4522.051282,4308.717948,4474.358974,4254.871794,4276.410256,4524.102564,4230.256410,4669.743589,4013.333333,4083.076923
61,4412.307692,4545.128205,4547.692307,4293.333333,4517.948717,4302.564102,4475.897435,4250.769230,4266.153846,4524.102564,4232.307692,4671.282051,4005.128205,4084.615384
62,4416.410256,4539.487179,4554.358974,4294.871794,4515.897435,4304.102564,4475.897435,4253.333333,4271.794871,4522.564102,4232.820512,4678.461538,4015.384615,4087.692307
63,4420.000000,4537.435897,4560.512820,4296.923076,4518.974358,4307.179487,4474.358974,4255.897435,4281.538461,4523.589743,4235.384615,4684.615384,4020.000000,4082.051282
64,4417.435897,4538.974358,4554.871794,4293.846153,4520.000000,4301.025641,4473.846153,4256.410256,4279.487179,4523.076923,4241.025641,4683.589743,4006.666666,4080.000000
65,4423.076923,4540.512820,4553.333333,4292.820512,4520.512820,4294.358974,4471.794871,4257.435897,4273.846153,4523.589743,4242.051282,4681.538461,4006.153846,4089.743589
66,4423.076923,4544.102564,4559.487179,4295.384615,4523.589743,4298.974358,4471.282051,4255.384615,4274.358974,4525.128205,4234.871794,4682.564102,4018.461538,4094.358974
67,4414.871794,4544.615384,4560.512820,4296.923076,4520.512820,4302.564102,4471.282051,4253.333333,4275.897435,4525.128205,4230.769230,4685.641025,4020.512820,4088.205128
68,4417.948717,4542.564102,4556.410256,4294.358974,4511.794871,4297.948717,4464.615384,4255.897435,4273.333333,4522.564102,4234.871794,4685.641025,4017.435897,4083.589743
69,4420.000000,4537.948717,4551.282051,4286.666666,4508.717948,4292.820512,4458.974358,4249.743589,4263.589743,4520.512820,4233.846153,4677.948717,4014.358974,4081.538461
70,4412.820512,4534.358974,4549.743589,4278.974358,4507.692307,4291.794871,4458.974358,4241.538461,4258.974358,4519.487179,4221.025641,4673.846153,4001.025641,4075.897435
71,4413.846153,4535.384615,4551.282051,4277.948717,4508.717948,4295.384615,4461.025641,4247.179487,4263.589743,4516.410256,4214.358974,4674.358974,3995.384616,4071.794871
72,4421.025641,4536.923076,4553.333333,4287.179487,4513.333333,4297.435897,4467.179487,4245.641025,4263.589743,4514.358974,4224.102564,4673.333333,3999.487180,4072.307692
73,4422.564102,4538.461538,4561.538461,4295.897435,4520.000000,4303.076923,4474.871794,4247.179487,4267.179487,4523.076923,4233.846153,4680.512820,4006.153846,4078.974358
74,4420.000000,4540.000000,4561.538461,4289.230769,4524.615384,4302.051282,4466.666666,4254.358974,4268.717948,4527.179487,4228.717948,4684.615384,4010.256410,4080.000000
75,4409.743589,4533.333333,4545.128205,4275.897435,4515.897435,4285.641025,4453.333333,4238.461538,4252.820512,4505.128205,4213.333333,4668.717948,3994.871795,4062.564102
76,4401.538461,4528.205128,4539.487179,4277.435897,4506.666666,4284.102564,4455.897435,4225.641025,4242.051282,4484.615384,4201.025641,4660.512820,3974.358975,4046.666666
77,4410.769230,4535.897435,4554.358974,4288.717948,4516.923076,4301.025641,4462.564102,4239.487179,4247.179487,4492.307692,4205.128205,4669.743589,3979.487180,4056.923076
78,4412.820512,4537.948717,4555.897435,4283.076923,4522.564102,4301.025641,4460.000000,4243.076923,4243.076923,4500.000000,4211.794871,4669.743589,3991.282052,4067.179487
79,4403.076923,4529.743589,4545.641025,4276.923076,4508.717948,4289.230769,4455.897435,4230.256410,4237.948717,4492.820512,4209.743589,4663.589743,3987.179488,4058.974358
80,4405.641025,4531.282051,4548.717948,4285.128205,4502.564102,4292.307692,4457.435897,4230.769230,4248.717948,4494.871794,4211.282051,4664.615384,3985.641026,4057.435897
81,4410.256410,4535.384615,4556.410256,4288.717948,4506.153846,4296.923076,4458.974358,4236.923076,4253.333333,4504.615384,4213.333333,4665.641025,3990.769231,4060.512820
82,4407.692307,4534.358974,4555.897435,4288.717948,4510.256410,4290.256410,4459.487179,4240.000000,4250.769230,4508.205128,4218.461538,4669.743589,3993.333334,4057.435897
83,4407.179487,4531.794871,4555.897435,4287.179487,4515.897435,4291.282051,4460.512820,4242.051282,4254.871794,4507.179487,4224.102564,4674.871794,3994.871795,4063.076923
84,4410.256410,4530.256410,4558.974358,4282.051282,4515.384615,4296.923076,4460.512820,4236.410256,4257.435897,4505.128205,4222.051282,4671.794871,3992.307693,4074.358974
85,4413.846153,4534.358974,4557.435897,4283.076923,4513.846153,4292.820512,4460.512820,4235.897435,4259.487179,4511.282051,4220.512820,4673.333333,3992.307693,4072.820512
86,4412.820512,4536.923076,4552.307692,4288.717948,4515.897435,4286.666666,4460.000000,4241.025641,4263.076923,4516.923076,4223.076923,4676.410256,3995.897436,4061.538461
87,4409.230769,4533.846153,4549.230769,4284.102564,4509.230769,4288.205128,4458.461538,4236.923076,4261.025641,4508.717948,4225.128205,4670.769230,3994.871795,4055.384615
88,4407.692307,4528.717948,4549.230769,4277.948717,4498.974358,4291.794871,4457.435897,4234.871794,4258.461538,4503.076923,4225.128205,4667.692307,3993.846154,4058.974358
89,4409.230769,4527.179487,4546.666666,4281.025641,4498.461538,4291.794871,4460.512820,4243.076923,4260.512820,4509.230769,4224.102564,4670.256410,3994.871795,4065.128205
90,4408.717948,4530.256410,4544.615384,4284.615384,4500.000000,4292.820512,4461.538461,4246.666666,4261.538461,4510.769230,4223.076923,4670.256410,3997.435898,4062.564102
91,4408.717948,4538.461538,4552.307692,4291.282051,4501.025641,4295.384615,4460.512820,4247.692307,4266.153846,4513.333333,4228.205128,4673.333333,4002.051282,4061.538461
92,4411.282051,4540.000000,4555.384615,4297.435897,4506.666666,4295.384615,4467.179487,4248.205128,4268.205128,4524.615384,4231.282051,4676.410256,4004.615384,4070.256410
93,4410.256410,4535.384615,4549.230769,4291.794871,4504.102564,4291.794871,4468.205128,4247.179487,4263.589743,4522.564102,4223.589743,4670.769230,4000.000000,4071.282051
94,4416.923076,4539.487179,4549.743589,4286.666666,4494.871794,4291.794871,4462.564102,4248.205128,4264.615384,4511.794871,4224.615384,4668.205128,4004.102564,4068.205128
95,4422.564102,4540.512820,4553.333333,4288.205128,4495.384615,4293.846153,4465.128205,4248.205128,4265.641025,4514.871794,4230.769230,4672.307692,4012.820512,4073.333333
96,4418.461538,4535.384615,4550.256410,4285.128205,4505.641025,4292.307692,4465.641025,4247.692307,4260.512820,4523.589743,4235.384615,4673.846153,4012.307692,4070.256410
97,4419.487179,4536.410256,4552.307692,4281.538461,4506.666666,4291.282051,4462.051282,4247.179487,4262.564102,4523.076923,4235.897435,4674.871794,4013.846153,4065.641025
98,4422.564102,4539.487179,4559.487179,4282.564102,4503.076923,4294.871794,4465.128205,4247.692307,4272.307692,4518.974358,4228.205128,4678.461538,4022.051282,4074.358974
99,4417.948717,4541.538461,4557.435897,4281.538461,4505.641025,4295.384615,4466.153846,4249.230769,4271.282051,4522.051282,4228.717948,4680.512820,4021.025641,4078.461538
100,4417.948717,4543.589743,4552.820512,4283.589743,4506.666666,4292.820512,4458.461538,4250.256410,4263.589743,4530.256410,4236.410256,4678.461538,4021.025641,4072.307692
101,4422.051282,4545.128205,4552.820512,4287.179487,4506.666666,4292.820512,4457.948717,4246.666666,4263.589743,4528.717948,4230.769230,4675.897435,4031.794871,4071.282051
102,4423.076923,4548.205128,4551.282051,4284.615384,4509.230769,4292.820512,4462.564102,4245.128205,4266.153846,4522.051282,4222.051282,4673.846153,4036.923076,4077.435897
103,4423.589743,4552.820512,4549.230769,4281.025641,4508.717948,4288.717948,4458.461538,4246.666666,4261.538461,4522.051282,4227.692307,4675.384615,4036.410256,4082.564102
104,4422.051282,4547.179487,4550.256410,4283.076923,4507.692307,4282.051282,4452.307692,4241.025641,4254.358974,4523.076923,4234.871794,4675.897435,4038.974358,4080.512820
105,4416.923076,4544.615384,4548.205128,4282.051282,4507.692307,4282.051282,4451.282051,4237.435897,4255.897435,4521.538461,4231.282051,4671.282051,4033.846153,4070.256410
106,4422.051282,4553.846153,4549.743589,4282.564102,4509.230769,4289.230769,4457.435897,4246.153846,4264.615384,4523.589743,4230.256410,4676.923076,4035.384615,4070.256410
107,4426.153846,4551.794871,4554.871794,4286.153846,4510.256410,4293.333333,4461.538461,4252.820512,4268.205128,4524.615384,4234.358974,4685.641025,4045.641025,4080.512820
108,4416.923076,4537.435897,4549.230769,4276.410256,4509.230769,4287.179487,4456.923076,4244.615384,4257.435897,4524.615384,4233.846153,4676.923076,4040.512820,4080.000000
109,4409.743589,4532.820512,4543.589743,4264.615384,4507.692307,4282.564102,4455.384615,4235.384615,4249.743589,4522.564102,4224.102564,4667.692307,4030.256410,4069.743589
110,4413.333333,4534.871794,4546.666666,4269.230769,4507.692307,4285.128205,4458.974358,4239.487179,4258.461538,4518.461538,4221.025641,4674.358974,4032.307692,4060.512820
111,4419.487179,4535.384615,4549.230769,4278.461538,4506.666666,4282.564102,4458.974358,4248.205128,4266.153846,4523.589743,4229.230769,4680.000000,4037.435897,4062.051282
112,4423.589743,4536.410256,4548.205128,4277.948717,4506.153846,4278.461538,4459.487179,4248.717948,4261.025641,4529.230769,4236.410256,4680.000000,4035.897435,4074.358974
113,4428.205128,4536.923076,4551.282051,4275.384615,4508.205128,4282.564102,4461.025641,4245.641025,4258.461538,4525.128205,4241.538461,4682.564102,4036.410256,4080.000000
114,4424.102564,4535.897435,4551.794871,4279.487179,4509.230769,4284.102564,4457.435897,4248.205128,4264.615384,4525.641025,4241.025641,4681.025641,4033.333333,4070.256410
115,4417.948717,4536.923076,4550.769230,4281.538461,4509.743589,4278.974358,4456.410256,4251.794871,4268.717948,4529.743589,4231.282051,4679.487179,4030.256410,4064.615384
116,4417.435897,4537.948717,4550.769230,4279.487179,4511.282051,4275.384615,4457.435897,4246.666666,4261.025641,4519.487179,4219.487179,4677.948717,4028.205128,4067.692307
117,4417.948717,4535.897435,4549.230769,4278.974358,4505.641025,4277.435897,4452.820512,4238.974358,4249.743589,4506.153846,4213.846153,4671.282051,4022.051282,4068.717948
118,4422.051282,4535.897435,4554.358974,4280.512820,4502.051282,4280.512820,4454.358974,4241.538461,4252.307692,4509.743589,4223.589743,4674.871794,4028.205128,4073.846153
119,4429.743589,4535.384615,4558.974358,4281.025641,4508.205128,4281.538461,4462.051282,4249.743589,4260.512820,4520.512820,4237.435897,4684.102564,4036.923076,4077.435897
120,4426.153846,4533.333333,4550.256410,4278.461538,4510.769230,4281.025641,4462.051282,4249.230769,4261.025641,4524.102564,4231.282051,4678.461538,4026.666666,4068.205128
121,4416.923076,4528.205128,4543.589743,4272.820512,4503.589743,4278.461538,4452.307692,4242.564102,4256.410256,4520.000000,4213.333333,4667.179487,4012.307692,4059.487179
122,4418.461538,4524.615384,4547.179487,4272.307692,4502.051282,4271.282051,4445.128205,4238.974358,4251.282051,4515.384615,4211.794871,4669.743589,4016.923076,4061.538461
123,4421.025641,4527.692307,4545.128205,4274.871794,4507.179487,4268.717948,4448.205128,4241.538461,4250.769230,4516.410256,4219.487179,4673.846153,4023.076923,4060.000000
124,4421.025641,4532.820512,4545.641025,4275.384615,4508.205128,4277.435897,4457.435897,4245.641025,4258.974358,4518.461538,4224.615384,4675.897435,4023.589743,4056.410256
125,4424.615384,4538.974358,4557.948717,4284.102564,4512.307692,4285.641025,4461.538461,4251.794871,4266.153846,4519.487179,4238.974358,4685.128205,4031.794871,4072.307692
126,4431.794871,4545.128205,4564.615384,4293.846153,4522.051282,4286.153846,4459.487179,4257.948717,4265.641025,4530.256410,4252.307692,4691.282051,4035.897435,4090.769230
127,4438.461538,4546.666666,4564.102564,4291.282051,4525.128205,4286.666666,4460.000000,4258.974358,4266.153846,4540.512820,4246.666666,4689.230769,4030.769230,4084.102564
128,4438.461538,4542.051282,4564.102564,4289.230769,4520.512820,4284.102564,4462.564102,4256.410256,4271.794871,4534.358974,4234.358974,4686.666666,4030.769230,4067.692307
129,4435.384615,4541.025641,4564.102564,4293.846153,4520.000000,4281.025641,4460.000000,4257.948717,4277.435897,4530.769230,4231.794871,4685.128205,4034.871794,4066.666666
130,4429.743589,4540.000000,4560.512820,4292.820512,4521.025641,4281.025641,4450.769230,4257.435897,4273.333333,4532.820512,4234.358974,4682.051282,4031.282051,4069.743589
131,4429.230769,4543.589743,4560.512820,4290.256410,4519.487179,4280.000000,4449.230769,4247.692307,4261.538461,4518.974358,4231.794871,4682.051282,4027.179487,4071.794871
132,4434.358974,4551.794871,4560.512820,4290.256410,4524.102564,4282.051282,4453.333333,4245.641025,4257.435897,4506.153846,4225.641025,4677.948717,4026.153846,4069.230769
133,4429.230769,4544.615384,4549.743589,4282.564102,4523.076923,4279.487179,4445.128205,4248.205128,4259.487179,4508.717948,4216.923076,4668.717948,4019.487179,4053.846153
134,4416.923076,4530.769230,4541.025641,4272.820512,4508.205128,4271.794871,4437.435897,4239.487179,4253.333333,4507.179487,4212.820512,4665.128205,4014.871794,4047.692307
135,4412.307692,4532.307692,4541.025641,4274.871794,4504.102564,4273.846153,4441.538461,4229.743589,4246.153846,4504.102564,4212.820512,4663.076923,4015.897435,4059.487179
136,4418.974358,4537.435897,4544.615384,4281.538461,4518.461538,4280.512820,4445.128205,4237.435897,4252.820512,4515.384615,4222.051282,4663.589743,4020.512820,4069.230769
137,4426.153846,4537.948717,4546.666666,4282.564102,4522.564102,4280.000000,4445.128205,4247.179487,4263.076923,4523.076923,4235.384615,4669.230769,4027.692307,4070.769230
138,4424.615384,4538.974358,4546.666666,4279.487179,4517.435897,4276.923076,4445.641025,4239.487179,4260.512820,4510.769230,4229.743589,4667.179487,4028.717948,4068.205128
139,4414.358974,4531.794871,4544.102564,4275.897435,4513.333333,4271.282051,4442.051282,4228.717948,4250.769230,4501.538461,4211.794871,4658.974358,4014.358974,4064.615384
140,4413.333333,4526.666666,4543.076923,4276.410256,4508.717948,4263.076923,4440.512820,4229.743589,4248.205128,4505.128205,4212.820512,4661.025641,4006.666666,4067.179487
141,4426.153846,4537.435897,4547.179487,4285.641025,4515.384615,4272.307692,4448.717948,4235.384615,4250.769230,4506.153846,4226.666666,4670.256410,4023.589743,4075.897435
142,4428.717948,4541.538461,4551.282051,4289.230769,4521.025641,4281.538461,4450.769230,4236.410256,4249.743589,4505.641025,4226.153846,4672.307692,4038.461538,4075.384615
143,4424.102564,4534.358974,4550.769230,4281.025641,4516.923076,4272.307692,4444.615384,4236.410256,4250.256410,4506.666666,4222.051282,4671.282051,4026.666666,4065.128205
144,4425.128205,4530.769230,4550.769230,4275.384615,4513.846153,4267.692307,4448.717948,4240.000000,4256.410256,4505.641025,4227.179487,4675.897435,4013.333333,4060.512820
145,4426.666666,4529.743589,4553.846153,4280.000000,4515.897435,4275.897435,4456.410256,4243.076923,4256.923076,4504.102564,4230.256410,4680.000000,4020.000000,4066.666666
146,4429.230769,4531.794871,4557.948717,4284.102564,4516.410256,4277.948717,4455.384615,4244.615384,4256.410256,4504.102564,4228.717948,4681.025641,4026.153846,4067.692307
147,4433.333333,4537.948717,4560.000000,4284.102564,4521.025641,4277.435897,4454.871794,4248.205128,4264.615384,4507.179487,4230.769230,4682.051282,4017.435897,4062.051282
148,4434.358974,4538.974358,4561.025641,4284.102564,4526.153846,4281.538461,4461.538461,4251.282051,4266.153846,4508.717948,4234.358974,4683.076923,4016.410256,4067.179487
149,4431.794871,4536.410256,4558.974358,4286.666666,4524.615384,4282.051282,4461.538461,4247.692307,4258.461538,4506.666666,4230.769230,4681.538461,4025.641025,4077.948717
150,4434.358974,4538.974358,4557.435897,4290.769230,4524.615384,4279.487179,4455.897435,4244.102564,4258.461538,4505.128205,4226.666666,4682.051282,4025.128205,4075.897435
151,4438.461538,4543.589743,4563.589743,4294.871794,4525.128205,4283.076923,4460.000000,4248.205128,4265.128205,4505.128205,4232.307692,4688.717948,4024.102564,4072.820512
152,4435.384615,4540.512820,4564.615384,4291.794871,4524.615384,4281.025641,4461.025641,4249.743589,4263.589743,4507.179487,4235.384615,4688.717948,4026.153846,4076.410256
153,4425.641025,4528.205128,4549.230769,4281.538461,4522.564102,4270.769230,4448.717948,4242.051282,4254.871794,4505.641025,4222.564102,4672.820512,4013.333333,4069.743589
154,4416.923076,4524.615384,4539.487179,4280.000000,4518.461538,4270.256410,4443.589743,4232.820512,4248.717948,4494.358974,4211.282051,4662.564102,4000.512820,4058.461538
155,4421.538461,4533.333333,4547.692307,4287.179487,4523.076923,4281.025641,4454.871794,4234.871794,4254.358974,4489.743589,4218.974358,4669.743589,4010.256410,4059.487179
156,4423.076923,4534.358974,4550.769230,4286.666666,4528.205128,4283.076923,4461.538461,4244.102564,4265.128205,4503.589743,4223.589743,4672.820512,4014.358974,4057.435897
157,4418.461538,4525.128205,4543.589743,4280.000000,4523.589743,4277.948717,4453.333333,4244.102564,4262.051282,4504.102564,4216.410256,4665.128205,4000.000000,4048.205128
158,4419.487179,4526.666666,4544.615384,4283.589743,4523.076923,4280.000000,4451.794871,4237.948717,4252.820512,4493.846153,4213.846153,4664.102564,4002.051282,4049.743589
159,4425.641025,4536.410256,4546.666666,4290.769230,4531.282051,4282.564102,4457.948717,4241.025641,4254.871794,4498.974358,4216.410256,4666.666666,4012.307692,4054.871794
160,4424.615384,4534.358974,4542.564102,4285.641025,4529.230769,4277.948717,4453.333333,4247.179487,4260.512820,4500.512820,4211.794871,4663.076923,4003.589743,4049.743589
161,4425.128205,4530.256410,4544.615384,4285.128205,4523.076923,4278.461538,4449.230769,4250.256410,4264.102564,4497.435897,4215.384615,4667.179487,4003.589743,4047.692307
162,4431.282051,4532.820512,4551.282051,4290.769230,4526.666666,4284.102564,4457.948717,4249.743589,4265.128205,4506.153846,4230.256410,4676.923076,4018.974358,4054.358974
163,4426.666666,4527.692307,4548.205128,4285.641025,4525.128205,4282.564102,4461.025641,4248.205128,4265.641025,4507.179487,4225.641025,4672.307692,4007.692307,4053.333333
164,4423.589743,4524.615384,4543.589743,4282.051282,4525.641025,4277.435897,4456.410256,4250.769230,4269.743589,4505.641025,4215.897435,4668.205128,3989.743590,4048.717948
165,4430.769230,4536.410256,4550.256410,4288.717948,4534.358974,4280.000000,4460.512820,4254.871794,4273.333333,4515.897435,4226.153846,4675.897435,4005.641025,4054.358974
166,4427.179487,4535.897435,4551.794871,4285.641025,4533.333333,4280.512820,4456.923076,4251.282051,4267.692307,4514.871794,4231.282051,4675.384615,4016.923076,4053.333333
167,4414.358974,4518.461538,4543.589743,4277.948717,4524.102564,4273.333333,4445.641025,4243.076923,4258.974358,4502.051282,4218.974358,4666.153846,4001.538461,4042.051282
168,4416.923076,4524.102564,4545.128205,4284.615384,4526.153846,4273.846153,4452.820512,4246.153846,4260.512820,4504.615384,4217.948717,4669.743589,4002.051282,4047.692307
169,4430.256410,4541.025641,4554.358974,4291.282051,4531.794871,4281.025641,4462.051282,4255.384615,4267.179487,4509.743589,4226.666666,4676.410256,4012.820512,4060.000000
170,4429.743589,4534.871794,4548.717948,4285.641025,4525.641025,4278.974358,4456.410256,4255.384615,4267.692307,4506.153846,4222.051282,4670.769230,4005.641025,4047.692307
171,4424.615384,4525.641025,4543.076923,4281.538461,4522.051282,4277.435897,4455.384615,4251.282051,4265.128205,4505.641025,4215.384615,4671.282051,4001.025641,4037.948717
172,4428.717948,4533.333333,4553.846153,4284.615384,4530.256410,4282.564102,4461.538461,4255.897435,4269.230769,4508.717948,4221.025641,4680.512820,4005.128205,4055.897435
173,4432.307692,4541.025641,4558.461538,4290.769230,4536.923076,4284.102564,4463.589743,4262.564102,4273.333333,4513.846153,4232.307692,4682.051282,4009.743589,4068.717948
174,4424.615384,4537.948717,4549.230769,4290.769230,4532.307692,4280.512820,4459.487179,4255.384615,4266.666666,4512.307692,4231.794871,4672.820512,4006.666666,4053.846153
175,4420.512820,4532.820512,4545.128205,4290.256410,4522.051282,4276.410256,4456.410256,4245.128205,4262.564102,4501.025641,4223.076923,4668.717948,3997.948718,4036.410256
176,4433.333333,4538.974358,4551.282051,4295.384615,4524.102564,4278.974358,4461.025641,4254.358974,4276.410256,4505.641025,4226.666666,4678.461538,4010.769230,4047.692307
177,4442.564102,4545.641025,4558.461538,4294.358974,4533.846153,4286.666666,4466.153846,4268.717948,4286.666666,4522.564102,4234.871794,4685.641025,4031.282051,4071.794871
178,4438.974358,4542.051282,4560.000000,4293.333333,4538.974358,4287.692307,4463.589743,4267.179487,4273.846153,4519.487179,4234.871794,4681.025641,4022.564102,4071.794871
179,4441.025641,4544.102564,4561.538461,4301.025641,4540.512820,4282.564102,4460.512820,4259.487179,4266.153846,4512.820512,4233.333333,4680.512820,4013.333333,4060.512820
180,4441.538461,4548.717948,4561.025641,4302.051282,4535.897435,4279.487179,4458.974358,4253.846153,4272.820512,4517.435897,4234.871794,4682.564102,4023.589743,4054.358974
181,4433.333333,4539.487179,4554.358974,4295.384615,4527.179487,4276.923076,4456.410256,4247.692307,4270.256410,4514.871794,4233.333333,4677.435897,4019.487179,4052.820512
182,4436.410256,4538.974358,4554.358974,4298.974358,4530.256410,4278.461538,4460.000000,4254.358974,4268.717948,4513.846153,4235.897435,4677.435897,4013.333333,4062.051282
183,4448.717948,4553.846153,4564.615384,4308.205128,4537.435897,4280.000000,4463.589743,4267.692307,4278.461538,4524.615384,4241.538461,4683.076923,4028.717948,4073.846153
184,4443.589743,4547.692307,4561.538461,4301.538461,4531.794871,4271.282051,4455.384615,4259.487179,4272.820512,4526.153846,4235.384615,4679.487179,4030.769230,4062.051282
185,4432.307692,4533.333333,4551.282051,4291.794871,4527.179487,4268.205128,4451.282051,4247.179487,4263.076923,4515.384615,4228.717948,4673.333333,4014.871794,4047.179487
186,4432.307692,4537.435897,4554.871794,4294.871794,4530.256410,4276.410256,4459.487179,4254.871794,4270.256410,4510.769230,4232.820512,4674.871794,4017.435897,4051.794871
187,4433.333333,4532.820512,4555.897435,4295.897435,4524.102564,4278.461538,4460.512820,4258.461538,4269.230769,4514.871794,4235.384615,4677.948717,4028.717948,4056.410256
188,4428.205128,4521.538461,4549.230769,4289.743589,4516.923076,4273.846153,4454.871794,4248.205128,4258.461538,4515.384615,4230.256410,4676.923076,4024.102564,4054.871794
189,4426.153846,4527.692307,4551.282051,4290.256410,4523.076923,4275.384615,4460.000000,4252.820512,4269.743589,4513.846153,4229.230769,4678.461538,4024.615384,4051.282051
190,4430.256410,4539.487179,4555.897435,4295.897435,4532.820512,4279.487179,4466.666666,4263.076923,4281.025641,4512.820512,4233.333333,4682.051282,4035.897435,4050.769230
191,4431.794871,4541.025641,4553.333333,4296.923076,4538.461538,4280.512820,4464.615384,4258.461538,4271.282051,4511.794871,4230.256410,4678.974358,4030.256410,4054.358974
192,4429.230769,4536.410256,4550.769230,4293.333333,4538.461538,4280.512820,4467.692307,4253.846153,4264.102564,4507.179487,4219.487179,4672.307692,4006.666666,4054.871794
193,4427.692307,4535.897435,4551.794871,4291.794871,4534.871794,4279.487179,4470.256410,4254.871794,4265.128205,4503.076923,4213.846153,4670.256410,3998.461539,4053.846153
194,4424.615384,4538.461538,4546.153846,4293.333333,4527.692307,4280.512820,4464.102564,4252.820512,4262.564102,4504.102564,4217.435897,4669.230769,4009.230769,4048.717948
195,4427.179487,4537.948717,4546.666666,4293.846153,4522.051282,4281.538461,4459.487179,4254.871794,4266.666666,4512.820512,4227.692307,4671.282051,4020.000000,4046.153846
196,4436.410256,4537.948717,4555.897435,4293.333333,4528.717948,4280.512820,4460.000000,4264.615384,4277.948717,4527.179487,4234.358974,4680.512820,4028.205128,4060.512820
197,4441.025641,4545.128205,4559.487179,4300.512820,4538.461538,4282.051282,4465.128205,4264.615384,4277.948717,4528.717948,4238.461538,4685.128205,4036.923076,4077.948717
198,4446.666666,4556.410256,4560.512820,4309.743589,4539.487179,4286.153846,4471.794871,4263.076923,4278.974358,4521.025641,4241.538461,4687.179487,4037.948717,4074.871794
199,4445.128205,4553.846153,4560.000000,4304.615384,4530.769230,4284.102564,4467.179487,4265.128205,4283.076923,4514.871794,4239.487179,4685.641025,4029.230769,4061.025641
200,4429.743589,4538.974358,4549.230769,4290.769230,4521.538461,4274.358974,4456.923076,4257.948717,4268.205128,4502.564102,4231.282051,4674.358974,4024.102564,4054.358974
201,4429.743589,4534.871794,4544.615384,4289.230769,4523.076923,4271.794871,4457.948717,4251.794871,4260.000000,4506.666666,4231.282051,4672.820512,4030.256410,4061.025641
202,4441.538461,4544.102564,4553.846153,4298.974358,4526.666666,4278.461538,4462.051282,4258.461538,4273.333333,4522.051282,4239.487179,4682.564102,4031.282051,4068.717948
203,4432.820512,4541.025641,4552.307692,4294.871794,4522.564102,4275.897435,4456.923076,4260.512820,4273.846153,4516.410256,4230.256410,4677.435897,4017.435897,4054.358974
204,4420.512820,4528.717948,4542.051282,4283.589743,4518.461538,4265.641025,4452.307692,4251.282051,4262.051282,4504.615384,4216.410256,4666.666666,4007.179487,4040.000000
205,4427.692307,4531.282051,4543.076923,4290.256410,4521.025641,4265.128205,4454.871794,4251.794871,4262.051282,4506.666666,4224.102564,4668.717948,4009.743589,4053.333333
206,4433.846153,4541.538461,4545.128205,4301.025641,4523.076923,4271.282051,4452.820512,4255.897435,4266.153846,4509.230769,4232.820512,4669.230769,4012.307692,4064.102564
207,4430.256410,4543.076923,4541.538461,4296.410256,4521.025641,4268.717948,4446.666666,4249.743589,4263.589743,4507.179487,4222.564102,4663.076923,4015.897435,4051.282051
208,4427.692307,4537.948717,4541.538461,4289.743589,4519.487179,4262.051282,4442.051282,4242.564102,4255.384615,4508.205128,4211.282051,4661.538461,4016.410256,4042.051282
209,4434.358974,4538.974358,4545.641025,4295.897435,4521.025641,4263.589743,4443.589743,4244.615384,4246.666666,4504.102564,4215.384615,4663.076923,4009.743589,4051.794871
210,4441.538461,4546.666666,4547.179487,4302.051282,4522.051282,4266.666666,4451.282051,4249.743589,4253.333333,4503.589743,4225.128205,4666.153846,4010.769230,4059.487179
211,4437.435897,4549.230769,4549.743589,4299.487179,4522.051282,4264.102564,4452.307692,4249.743589,4263.076923,4516.410256,4227.692307,4670.256410,4015.897435,4060.000000
212,4436.410256,4548.717948,4553.333333,4297.435897,4524.615384,4266.153846,4449.230769,4250.256410,4262.564102,4525.128205,4228.717948,4674.871794,4016.923076,4063.589743
213,4442.051282,4552.820512,4552.307692,4294.871794,4523.076923,4272.820512,4453.333333,4255.384615,4265.641025,4522.564102,4232.820512,4675.897435,4028.717948,4062.051282
214,4441.025641,4553.333333,4547.692307,4287.179487,4521.538461,4272.307692,4456.923076,4255.897435,4268.717948,4518.974358,4233.333333,4670.256410,4042.564102,4056.410256
215,4438.461538,4546.666666,4549.743589,4289.743589,4534.358974,4272.820512,4455.384615,4250.769230,4268.205128,4525.128205,4226.666666,4668.717948,4041.025641,4062.564102
216,4436.923076,4548.205128,4552.307692,4294.871794,4541.025641,4276.923076,4457.435897,4248.717948,4261.538461,4523.076923,4220.000000,4669.230769,4034.871794,4064.102564
217,4427.179487,4553.846153,4547.692307,4283.589743,4529.230769,4270.769230,4456.923076,4245.128205,4255.384615,4506.666666,4216.410256,4664.102564,4029.230769,4048.717948
218,4426.153846,4552.820512,4546.153846,4281.538461,4528.205128,4268.717948,4453.333333,4246.666666,4265.641025,4512.820512,4218.974358,4670.256410,4028.205128,4049.230769
219,4441.538461,4555.384615,4551.282051,4294.871794,4542.051282,4279.487179,4459.487179,4257.435897,4277.948717,4538.974358,4222.564102,4683.589743,4035.384615,4067.179487
220,4440.512820,4555.384615,4551.282051,4289.743589,4542.051282,4282.051282,4461.538461,4256.923076,4268.717948,4536.410256,4221.538461,4679.487179,4035.384615,4062.564102
221,4425.641025,4545.128205,4544.615384,4277.435897,4533.333333,4273.846153,4452.820512,4245.641025,4254.358974,4509.743589,4215.384615,4668.205128,4025.128205,4042.051282
222,4418.974358,4532.307692,4534.871794,4277.948717,4534.358974,4267.179487,4446.666666,4246.666666,4253.846153,4504.102564,4204.102564,4664.102564,4021.538461,4032.820512
223,4418.974358,4525.641025,4530.769230,4276.923076,4535.384615,4265.128205,4445.128205,4250.769230,4254.358974,4507.692307,4200.000000,4663.589743,4027.692307,4032.307692
224,4422.564102,4523.076923,4538.974358,4275.897435,4535.384615,4269.230769,4445.128205,4249.743589,4258.974358,4509.230769,4211.794871,4667.179487,4033.333333,4040.512820
225,4431.282051,4527.179487,4547.179487,4282.051282,4538.461538,4276.923076,4446.153846,4254.871794,4264.615384,4518.461538,4224.615384,4673.846153,4040.512820,4055.897435
226,4436.923076,4532.307692,4548.205128,4288.205128,4538.461538,4277.948717,4448.205128,4262.564102,4263.076923,4526.153846,4227.179487,4676.923076,4044.102564,4061.025641
227,4430.769230,4529.230769,4546.666666,4288.205128,4537.948717,4272.820512,4448.717948,4259.487179,4265.641025,4523.589743,4224.615384,4675.897435,4035.897435,4045.641025
228,4422.564102,4521.538461,4541.025641,4280.512820,4535.897435,4269.743589,4444.615384,4248.205128,4263.076923,4515.897435,4214.871794,4669.743589,4025.641025,4032.820512
229,4423.076923,4521.025641,4534.358974,4276.410256,4527.179487,4271.282051,4442.051282,4241.538461,4249.743589,4504.615384,4203.589743,4664.102564,4022.564102,4039.487179
230,4426.666666,4523.589743,4532.820512,4280.000000,4524.615384,4275.897435,4446.153846,4241.538461,4250.256410,4504.102564,4207.692307,4664.615384,4023.589743,4048.205128
231,4424.102564,4521.025641,4534.871794,4279.487179,4532.307692,4277.435897,4450.769230,4245.128205,4262.564102,4513.333333,4214.871794,4668.205128,4029.230769,4040.512820
232,4422.564102,4521.025641,4541.538461,4276.923076,4531.794871,4272.820512,4449.743589,4251.282051,4258.461538,4511.794871,4218.461538,4673.333333,4039.487179,4041.538461
233,4423.076923,4522.564102,4540.512820,4275.384615,4523.076923,4264.615384,4444.102564,4249.743589,4247.692307,4508.717948,4216.923076,4673.333333,4032.820512,4050.256410
234,4418.974358,4514.358974,4533.846153,4270.256410,4518.461538,4258.461538,4437.948717,4241.025641,4249.743589,4515.384615,4204.102564,4664.615384,4013.846153,4042.564102
235,4424.102564,4512.307692,4539.487179,4276.923076,4525.128205,4265.641025,4445.128205,4246.666666,4261.025641,4526.666666,4202.564102,4668.205128,4024.102564,4044.102564
236,4436.923076,4523.076923,4551.282051,4289.743589,4537.435897,4277.435897,4460.512820,4262.051282,4273.846153,4534.871794,4226.666666,4683.076923,4045.641025,4057.435897
237,4433.333333,4526.666666,4549.230769,4287.692307,4535.897435,4273.846153,4455.384615,4258.461538,4273.333333,4529.230769,4236.923076,4681.025641,4033.846153,4047.692307
238,4424.615384,4518.974358,4544.102564,4277.948717,4528.205128,4267.179487,4445.128205,4246.153846,4260.512820,4519.487179,4217.948717,4671.794871,4016.923076,4036.923076
239,4431.282051,4522.564102,4550.256410,4280.512820,4532.820512,4276.410256,4453.846153,4251.282051,4263.589743,4522.564102,4216.410256,4680.512820,4029.743589,4054.871794
240,4431.794871,4529.230769,4550.769230,4284.102564,4533.333333,4281.538461,4455.384615,4251.794871,4272.307692,4523.076923,4220.000000,4681.025641,4034.358974,4056.923076
241,4417.435897,4521.025641,4537.435897,4276.410256,4522.051282,4265.128205,4439.487179,4231.282051,4252.307692,4502.564102,4200.000000,4660.512820,4014.871794,4027.692307
242,4416.923076,4518.974358,4533.333333,4274.871794,4521.538461,4262.564102,4438.974358,4224.102564,4237.948717,4497.948717,4194.871794,4655.897435,4013.846153,4023.076923
243,4429.230769,4529.230769,4545.641025,4282.564102,4528.205128,4279.487179,4450.256410,4242.051282,4257.948717,4520.512820,4216.410256,4668.205128,4029.230769,4047.692307
244,4426.153846,4530.256410,4545.641025,4282.564102,4524.615384,4274.871794,4446.153846,4244.615384,4266.666666,4523.589743,4218.461538,4666.666666,4020.512820,4052.820512
245,4418.461538,4520.512820,4531.794871,4275.897435,4521.025641,4261.025641,4439.487179,4234.358974,4250.769230,4505.128205,4201.025641,4656.923076,4005.128205,4035.384615
246,4421.538461,4520.000000,4535.384615,4277.948717,4523.076923,4265.641025,4444.102564,4238.461538,4244.102564,4500.512820,4204.102564,4659.487179,4010.769230,4030.769230
247,4425.128205,4525.128205,4545.641025,4279.487179,4525.128205,4270.769230,4446.666666,4242.564102,4248.717948,4505.128205,4211.282051,4663.076923,4020.000000,4038.461538
248,4423.589743,4524.102564,4543.589743,4273.333333,4525.128205,4265.641025,4443.076923,4240.000000,4253.333333,4509.230769,4205.641025,4661.538461,4019.487179,4040.000000
249,4422.564102,4523.076923,4546.153846,4273.846153,4522.564102,4270.256410,4448.205128,4248.205128,4263.589743,4516.923076,4204.615384,4665.128205,4015.897435,4046.153846
250,4423.076923,4524.615384,4556.410256,4282.051282,4525.641025,4281.025641,4457.948717,4257.948717,4272.307692,4524.102564,4208.717948,4671.794871,4017.435897,4052.820512
251,4424.102564,4525.641025,4555.897435,4285.641025,4531.794871,4279.487179,4458.461538,4255.897435,4267.692307,4523.589743,4204.615384,4673.333333,4018.461538,4045.641025
252,4425.128205,4520.000000,4549.743589,4282.564102,4529.743589,4270.769230,4450.256410,4252.307692,4259.487179,4516.923076,4193.333333,4670.769230,4011.794871,4042.051282
253,4420.000000,4510.769230,4548.205128,4278.461538,4523.589743,4264.615384,4442.564102,4249.230769,4257.948717,4507.179487,4188.205128,4667.179487,4002.564102,4045.641025
254,4414.358974,4513.333333,4546.666666,4276.923076,4522.051282,4261.538461,4447.692307,4245.641025,4259.487179,4503.076923,4190.769230,4667.179487,4002.051282,4042.564102
255,4420.512820,4522.564102,4547.179487,4278.974358,4525.641025,4266.666666,4457.435897,4248.205128,4260.512820,4509.230769,4198.461538,4670.256410,4013.846153,4040.000000
256,4429.230769,4531.794871,4549.230769,4283.076923,4532.307692,4274.871794,4461.025641,4250.769230,4262.564102,4515.384615,4198.974358,4671.282051,4021.538461,4043.589743
257,4424.102564,4528.717948,4547.179487,4281.538461,4534.871794,4273.333333,4455.384615,4250.256410,4263.076923,4513.846153,4190.769230,4667.179487,4013.846153,4042.564102
258,4411.794871,4515.384615,4540.000000,4270.256410,4527.179487,4265.128205,4448.205128,4244.615384,4258.461538,4505.128205,4185.641025,4660.512820,4002.051282,4036.923076
259,4411.282051,4511.282051,4536.923076,4265.128205,4521.538461,4264.102564,4444.102564,4240.000000,4256.410256,4505.641025,4183.589743,4660.512820,4003.076923,4032.820512
