,AF3,F7,F3,FC5,T7,P7,O1,O2,P8,T8,FC6,F4,F8,AF4
0,4444.102564,4568.205128,4543.076923,4275.384615,4550.256410,4208.205128,4456.410256,4230.769230,4272.307692,4517.948717,4214.871794,4662.051282,4009.230769,4042.564102
1,4444.615384,4571.282051,4550.256410,4283.076923,4556.410256,4210.769230,4457.948717,4234.871794,4278.461538,4518.461538,4212.820512,4666.666666,4024.102564,4042.564102
2,4447.692307,4575.897435,4545.128205,4297.948717,4554.871794,4216.923076,4463.076923,4246.666666,4285.128205,4518.461538,4217.948717,4671.794871,4022.051282,4043.589743
3,4445.128205,4572.307692,4544.102564,4289.743589,4553.846153,4215.384615,4460.512820,4241.538461,4284.615384,4519.487179,4210.769230,4665.641025,4009.743589,4041.538461
4,4442.051282,4570.769230,4548.717948,4281.538461,4552.820512,4208.205128,4456.923076,4230.769230,4275.384615,4514.871794,4206.153846,4663.589743,4012.820512,4038.974358
5,4444.102564,4573.846153,4549.743589,4286.153846,4550.769230,4209.743589,4457.948717,4231.794871,4271.282051,4514.871794,4221.025641,4669.743589,4016.923076,4040.000000
6,4445.128205,4573.333333,4549.743589,4284.615384,4554.871794,4217.435897,4461.538461,4235.897435,4278.974358,4524.102564,4224.102564,4666.153846,4006.666666,4040.512820
7,4445.128205,4570.769230,4547.692307,4283.076923,4554.358974,4213.333333,4463.589743,4238.974358,4281.025641,4524.615384,4212.820512,4658.974358,4005.128205,4037.948717
8,4441.538461,4562.051282,4541.025641,4289.230769,4546.666666,4204.615384,4462.051282,4238.974358,4275.384615,4518.461538,4210.769230,4662.051282,4018.974358,4040.000000
9,4431.794871,4553.333333,4536.410256,4283.076923,4543.589743,4205.641025,4457.948717,4230.256410,4267.692307,4513.333333,4212.820512,4661.025641,4014.871794,4037.948717
10,4431.282051,4562.564102,4541.538461,4271.794871,4549.743589,4213.333333,4460.000000,4231.282051,4265.641025,4508.717948,4208.205128,4656.923076,3999.487180,4030.769230
11,4444.615384,4575.384615,4553.333333,4283.076923,4555.897435,4216.923076,4466.666666,4249.230769,4286.666666,4523.589743,4216.410256,4670.769230,4009.743589,4037.948717
12,4449.230769,4574.871794,4560.000000,4298.461538,4554.871794,4211.282051,4465.128205,4256.923076,4303.589743,4544.615384,4232.820512,4682.564102,4030.256410,4052.820512
13,4436.923076,4567.692307,4548.717948,4291.282051,4544.615384,4203.076923,4457.435897,4243.589743,4288.205128,4530.769230,4224.615384,4671.794871,4022.564102,4046.153846
14,4427.692307,4566.153846,4537.948717,4276.923076,4540.512820,4200.000000,4457.435897,4237.948717,4271.794871,4511.282051,4204.615384,4657.435897,4001.538461,4029.743589
15,4428.717948,4564.615384,4542.051282,4274.871794,4547.179487,4205.128205,4462.564102,4243.589743,4277.435897,4523.589743,4210.256410,4659.487179,4003.076923,4033.333333
16,4429.743589,4558.461538,4542.051282,4275.897435,4546.153846,4206.153846,4462.051282,4242.564102,4281.025641,4536.410256,4226.666666,4665.641025,4017.435897,4045.128205
17,4432.307692,4560.512820,4537.948717,4274.358974,4536.923076,4199.487179,4459.487179,4242.564102,4280.512820,4530.256410,4224.615384,4665.641025,4025.128205,4048.205128
18,4438.974358,4565.641025,4541.025641,4280.000000,4540.000000,4198.461538,4461.025641,4247.179487,4282.051282,4521.025641,4227.179487,4667.179487,4031.282051,4051.794871
19,4438.974358,4566.153846,4544.102564,4284.615384,4544.615384,4204.102564,4462.564102,4241.538461,4276.410256,4522.564102,4234.358974,4665.641025,4035.897435,4053.333333
20,4431.282051,4562.564102,4540.000000,4282.051282,4538.974358,4202.051282,4460.000000,4230.256410,4268.205128,4528.717948,4223.589743,4656.923076,4031.282051,4043.076923
21,4426.153846,4557.435897,4533.846153,4276.923076,4535.384615,4192.307692,4456.923076,4229.230769,4264.615384,4530.256410,4213.846153,4648.717948,4017.948717,4032.307692
22,4427.692307,4550.769230,4533.846153,4273.333333,4537.948717,4191.794871,4457.435897,4230.769230,4268.717948,4522.051282,4215.384615,4647.179487,4006.153846,4034.358974
23,4435.897435,4552.307692,4538.461538,4275.897435,4538.461538,4200.512820,4460.512820,4229.743589,4279.487179,4521.025641,4217.435897,4651.282051,4013.333333,4042.051282
24,4443.589743,4557.948717,4541.538461,4278.461538,4539.487179,4202.564102,4460.512820,4231.794871,4284.615384,4524.615384,4220.512820,4656.410256,4033.846153,4045.128205
25,4443.076923,4554.871794,4544.615384,4281.025641,4542.564102,4196.923076,4458.461538,4237.948717,4276.923076,4521.538461,4217.948717,4661.025641,4031.794871,4047.179487
26,4446.666666,4556.923076,4554.358974,4290.769230,4542.051282,4201.025641,4461.025641,4247.179487,4277.948717,4529.743589,4216.410256,4669.230769,4021.025641,4055.384615
27,4450.769230,4560.000000,4561.025641,4298.461538,4546.153846,4205.641025,4463.076923,4250.256410,4288.205128,4544.102564,4227.692307,4677.435897,4032.820512,4062.564102
28,4446.666666,4554.871794,4557.948717,4291.282051,4548.205128,4200.512820,4461.025641,4246.153846,4286.153846,4540.000000,4231.282051,4673.846153,4041.025641,4061.538461
29,4443.076923,4552.307692,4555.384615,4286.666666,4542.564102,4199.487179,4466.666666,4247.692307,4279.487179,4530.769230,4220.512820,4667.179487,4030.769230,4061.538461
30,4444.615384,4552.820512,4554.871794,4293.333333,4544.102564,4203.076923,4471.794871,4250.769230,4278.974358,4532.307692,4216.410256,4664.102564,4014.871794,4062.051282
31,4443.076923,4551.794871,4551.794871,4297.948717,4549.230769,4203.076923,4463.589743,4243.589743,4278.461538,4533.333333,4218.974358,4658.461538,4010.256410,4056.410256
32,4441.025641,4551.282051,4546.666666,4297.948717,4544.102564,4199.487179,4456.410256,4237.948717,4273.333333,4524.615384,4214.871794,4653.846153,4023.076923,4056.410256
33,4443.589743,4557.435897,4546.666666,4300.512820,4538.461538,4199.487179,4459.487179,4240.000000,4272.820512,4519.487179,4210.256410,4652.820512,4028.205128,4064.102564
34,4445.128205,4555.897435,4545.641025,4300.000000,4541.538461,4200.512820,4458.974358,4238.461538,4277.435897,4521.025641,4214.871794,4652.820512,4014.358974,4065.128205
35,4442.051282,4547.692307,4538.974358,4292.307692,4540.000000,4197.435897,4455.897435,4232.307692,4275.384615,4523.076923,4217.435897,4650.769230,4010.769230,4061.025641
36,4441.025641,4550.769230,4542.564102,4294.871794,4536.410256,4197.948717,4458.461538,4232.307692,4270.769230,4525.641025,4209.230769,4651.794871,4023.589743,4061.025641
37,4444.615384,4561.025641,4549.743589,4310.256410,4541.025641,4200.512820,4461.025641,4238.974358,4274.358974,4527.692307,4209.230769,4655.384615,4023.076923,4061.538461
38,4444.615384,4559.487179,4547.179487,4315.897435,4546.153846,4200.000000,4458.461538,4244.615384,4277.948717,4525.128205,4216.923076,4654.358974,4014.358974,4062.564102
39,4442.564102,4551.282051,4545.128205,4304.102564,4545.641025,4198.974358,4458.461538,4247.179487,4276.410256,4520.512820,4210.769230,4650.769230,4014.871794,4064.615384
40,4444.102564,4554.871794,4545.641025,4293.846153,4540.512820,4202.051282,4461.538461,4249.230769,4281.025641,4520.000000,4202.051282,4649.743589,4021.025641,4063.589743
41,4445.128205,4553.846153,4543.589743,4291.794871,4538.974358,4198.974358,4460.000000,4250.769230,4284.102564,4524.102564,4202.564102,4652.307692,4024.615384,4061.538461
42,4444.615384,4545.128205,4545.128205,4291.282051,4538.974358,4191.794871,4456.410256,4246.666666,4272.307692,4521.025641,4207.179487,4652.820512,4017.435897,4060.000000
43,4445.641025,4547.179487,4553.333333,4295.897435,4537.435897,4193.846153,4457.948717,4244.102564,4266.153846,4514.358974,4214.358974,4661.538461,4008.205128,4061.538461
44,4449.743589,4554.871794,4553.846153,4299.487179,4538.974358,4201.025641,4462.051282,4248.205128,4277.948717,4517.948717,4216.923076,4668.717948,4012.820512,4067.692307
45,4455.897435,4556.923076,4555.384615,4294.871794,4542.051282,4202.051282,4463.076923,4251.794871,4287.179487,4531.794871,4218.461538,4669.743589,4027.692307,4073.333333
46,4461.025641,4556.923076,4558.461538,4293.846153,4541.538461,4198.974358,4461.538461,4250.256410,4285.128205,4536.410256,4230.256410,4674.871794,4035.897435,4074.358974
47,4454.358974,4557.435897,4555.384615,4297.948717,4542.051282,4198.974358,4460.512820,4246.153846,4281.538461,4527.692307,4230.256410,4674.358974,4032.307692,4072.307692
48,4448.205128,4554.871794,4552.820512,4291.282051,4543.589743,4202.051282,4455.897435,4235.897435,4276.923076,4519.487179,4214.871794,4667.179487,4023.076923,4065.641025
49,4454.358974,4554.358974,4553.333333,4286.666666,4541.538461,4196.923076,4447.692307,4221.025641,4268.717948,4516.923076,4217.435897,4668.205128,4018.461538,4066.153846
50,4459.487179,4560.512820,4554.358974,4292.307692,4537.948717,4191.794871,4442.564102,4217.948717,4263.076923,4523.589743,4227.179487,4676.923076,4025.128205,4073.846153
51,4458.461538,4564.615384,4562.051282,4295.384615,4537.435897,4191.794871,4443.589743,4227.692307,4266.666666,4530.256410,4228.205128,4683.076923,4028.205128,4075.897435
52,4455.897435,4563.589743,4568.717948,4295.384615,4538.461538,4190.256410,4446.153846,4232.820512,4277.948717,4528.717948,4233.333333,4680.512820,4023.076923,4077.435897
53,4449.230769,4555.384615,4559.487179,4295.384615,4537.948717,4189.230769,4450.256410,4230.769230,4279.487179,4524.102564,4235.897435,4673.333333,4022.564102,4073.846153
54,4438.461538,4546.153846,4545.128205,4287.179487,4533.333333,4188.205128,4455.897435,4228.205128,4268.717948,4517.948717,4221.538461,4667.179487,4022.564102,4061.538461
55,4431.794871,4540.512820,4539.487179,4276.410256,4530.769230,4185.128205,4457.948717,4226.666666,4264.102564,4510.769230,4209.230769,4661.538461,4010.256410,4054.358974
56,4430.256410,4542.051282,4542.564102,4275.384615,4533.846153,4185.128205,4457.948717,4229.743589,4271.282051,4511.282051,4210.769230,4660.512820,4002.564102,4057.948717
57,4435.384615,4548.205128,4549.230769,4284.615384,4538.461538,4194.358974,4465.128205,4243.076923,4278.461538,4523.589743,4217.435897,4669.230769,4014.871794,4065.128205
58,4443.076923,4555.384615,4556.410256,4293.846153,4545.641025,4202.051282,4474.358974,4253.333333,4287.179487,4534.358974,4225.641025,4675.897435,4024.615384,4071.794871
59,4441.538461,4554.358974,4555.384615,4287.692307,4549.743589,4200.512820,4476.923076,4247.692307,4286.666666,4525.128205,4226.666666,4668.205128,4016.410256,4066.153846
60,4439.487179,4549.230769,4545.128205,4279.487179,4549.743589,4203.589743,4474.358974,4238.974358,4271.282051,4511.282051,4217.435897,4663.076923,4011.282051,4058.461538
61,4444.102564,4554.871794,4544.102564,4286.666666,4550.769230,4212.307692,4475.384615,4242.051282,4266.666666,4510.769230,4214.871794,4672.307692,4016.410256,4067.179487
62,4442.051282,4560.512820,4550.769230,4291.282051,4550.256410,4211.282051,4476.923076,4248.717948,4278.461538,4511.794871,4217.948717,4677.948717,4021.025641,4075.384615
63,4437.948717,4553.846153,4547.179487,4283.076923,4546.666666,4200.000000,4473.333333,4250.769230,4281.538461,4509.230769,4214.871794,4672.307692,4019.487179,4069.230769
64,4439.487179,4545.641025,4544.102564,4276.923076,4542.564102,4198.461538,4472.307692,4250.256410,4278.974358,4519.487179,4214.871794,4667.179487,4016.410256,4063.589743
65,4439.487179,4545.641025,4549.743589,4281.538461,4542.564102,4201.025641,4473.333333,4251.282051,4281.025641,4528.717948,4218.974358,4669.743589,4017.948717,4065.641025
66,4436.923076,4547.179487,4547.692307,4285.128205,4545.128205,4197.948717,4469.230769,4246.153846,4278.974358,4520.000000,4214.358974,4669.743589,4015.384615,4065.128205
67,4438.974358,4545.641025,4540.512820,4280.512820,4546.666666,4202.051282,4466.153846,4237.948717,4275.897435,4515.897435,4215.384615,4667.692307,4006.666666,4062.564102
68,4434.871794,4540.000000,4540.000000,4273.846153,4542.051282,4199.487179,4464.615384,4240.000000,4273.846153,4513.846153,4219.487179,4664.102564,4005.128205,4061.025641
69,4428.205128,4536.410256,4538.974358,4274.871794,4530.256410,4183.589743,4460.000000,4242.051282,4269.743589,4505.128205,4208.205128,4659.487179,4008.205128,4057.948717
70,4435.384615,4541.025641,4540.000000,4282.051282,4526.153846,4180.512820,4454.871794,4242.051282,4274.871794,4509.230769,4201.025641,4663.076923,4009.743589,4064.102564
71,4443.076923,4540.000000,4540.512820,4284.102564,4533.846153,4191.282051,4452.307692,4243.076923,4280.512820,4522.564102,4211.282051,4669.230769,4009.743589,4071.794871
72,4441.538461,4537.948717,4542.564102,4285.128205,4540.512820,4189.230769,4452.820512,4243.076923,4273.846153,4520.512820,4221.025641,4669.743589,4012.820512,4070.769230
73,4441.538461,4549.230769,4549.230769,4287.692307,4537.435897,4188.717948,4458.461538,4243.589743,4268.205128,4511.282051,4215.384615,4670.769230,4015.897435,4069.743589
74,4444.102564,4555.897435,4549.230769,4286.153846,4538.461538,4198.461538,4461.538461,4242.564102,4270.769230,4513.333333,4214.358974,4672.307692,4017.948717,4072.820512
75,4445.128205,4548.205128,4542.051282,4282.051282,4542.564102,4195.897435,4459.487179,4235.384615,4268.717948,4519.487179,4226.153846,4670.256410,4015.897435,4072.307692
76,4442.051282,4542.051282,4539.487179,4280.000000,4537.435897,4189.230769,4458.461538,4232.820512,4260.512820,4518.974358,4231.794871,4668.205128,4012.820512,4067.692307
77,4442.051282,4545.128205,4545.128205,4279.487179,4536.410256,4191.794871,4457.948717,4244.615384,4265.641025,4521.538461,4229.743589,4675.384615,4026.153846,4075.897435
78,4451.282051,4545.641025,4552.820512,4278.461538,4541.025641,4189.743589,4457.948717,4250.256410,4281.538461,4526.153846,4231.282051,4684.615384,4044.615384,4090.769230
79,4462.051282,4549.230769,4555.897435,4276.410256,4540.512820,4185.641025,4460.000000,4249.230769,4284.615384,4526.153846,4230.256410,4688.717948,4042.051282,4090.256410
80,4454.871794,4555.897435,4549.230769,4274.871794,4537.435897,4187.179487,4460.000000,4247.179487,4269.230769,4523.589743,4224.102564,4684.615384,4024.102564,4080.000000
81,4446.153846,4553.333333,4546.153846,4273.333333,4536.410256,4185.641025,4457.435897,4241.025641,4263.589743,4519.487179,4226.666666,4680.000000,4016.923076,4081.025641
82,4455.384615,4548.205128,4553.846153,4276.923076,4537.948717,4185.641025,4458.974358,4241.538461,4275.897435,4522.051282,4228.717948,4682.564102,4026.666666,4090.769230
83,4462.051282,4550.256410,4552.820512,4281.538461,4537.948717,4189.743589,4461.025641,4248.205128,4280.000000,4527.179487,4224.615384,4685.641025,4035.384615,4090.256410
84,4457.435897,4554.358974,4547.179487,4278.461538,4536.923076,4186.153846,4453.333333,4246.153846,4278.461538,4521.025641,4227.179487,4686.153846,4035.384615,4087.179487
85,4456.410256,4552.820512,4547.692307,4276.410256,4536.410256,4182.564102,4444.615384,4244.102564,4281.025641,4516.923076,4230.769230,4687.692307,4026.666666,4089.230769
86,4460.512820,4557.948717,4554.358974,4286.666666,4537.948717,4190.769230,4450.256410,4254.358974,4283.076923,4529.743589,4234.358974,4693.333333,4027.179487,4092.307692
87,4461.538461,4568.205128,4556.410256,4292.307692,4539.487179,4195.384615,4459.487179,4256.923076,4280.000000,4537.948717,4238.974358,4694.871794,4034.871794,4090.256410
88,4457.948717,4561.538461,4549.230769,4281.025641,4539.487179,4188.205128,4458.974358,4247.692307,4276.923076,4527.179487,4234.871794,4687.179487,4028.205128,4082.051282
89,4454.871794,4549.230769,4546.153846,4274.358974,4538.974358,4188.205128,4456.923076,4251.282051,4276.410256,4525.128205,4228.717948,4684.615384,4018.974358,4081.538461
90,4455.897435,4552.307692,4551.794871,4281.538461,4537.435897,4192.820512,4460.512820,4260.000000,4286.153846,4540.000000,4231.794871,4690.256410,4032.820512,4090.769230
91,4461.025641,4555.897435,4556.923076,4284.102564,4541.538461,4192.820512,4461.025641,4257.948717,4296.923076,4543.076923,4233.846153,4690.256410,4051.794871,4095.384615
92,4456.410256,4552.820512,4551.282051,4279.487179,4544.615384,4194.871794,4458.974358,4252.307692,4287.179487,4526.153846,4232.307692,4683.076923,4039.487179,4088.205128
93,4449.230769,4555.897435,4549.230769,4279.487179,4547.179487,4203.076923,4461.025641,4250.256410,4275.384615,4518.461538,4235.897435,4681.538461,4020.000000,4082.564102
94,4453.846153,4558.461538,4556.410256,4278.974358,4551.282051,4205.641025,4463.076923,4246.666666,4280.000000,4532.307692,4236.923076,4685.128205,4030.769230,4087.692307
95,4453.846153,4553.846153,4555.897435,4266.666666,4547.179487,4199.487179,4461.025641,4250.256410,4284.102564,4541.025641,4229.743589,4683.589743,4044.102564,4092.820512
96,4446.153846,4554.871794,4549.230769,4256.923076,4538.461538,4195.384615,4459.487179,4250.769230,4276.410256,4530.256410,4229.230769,4680.000000,4037.435897,4090.256410
97,4442.564102,4551.794871,4549.743589,4262.051282,4535.897435,4194.358974,4456.410256,4238.461538,4265.641025,4515.384615,4234.871794,4678.974358,4024.615384,4084.102564
98,4441.538461,4542.051282,4549.743589,4266.153846,4537.435897,4191.282051,4450.256410,4229.230769,4260.000000,4511.282051,4228.205128,4673.846153,4013.846153,4078.461538
99,4437.435897,4537.948717,4539.487179,4261.538461,4534.358974,4182.564102,4442.564102,4227.179487,4259.487179,4508.717948,4218.974358,4667.692307,4006.666666,4071.282051
100,4439.487179,4540.000000,4538.974358,4262.564102,4531.282051,4180.000000,4445.641025,4229.743589,4262.564102,4505.641025,4220.512820,4669.743589,4009.743589,4074.358974
101,4444.615384,4547.179487,4548.205128,4265.128205,4534.358974,4187.179487,4457.435897,4234.358974,4263.076923,4516.410256,4218.974358,4673.846153,4014.358974,4079.487179
102,4442.051282,4549.743589,4548.717948,4261.538461,4538.461538,4190.769230,4457.948717,4233.333333,4262.051282,4518.461538,4212.820512,4668.717948,4008.717948,4073.846153
103,4441.538461,4543.076923,4548.717948,4265.641025,4540.000000,4188.717948,4451.794871,4231.794871,4264.102564,4501.025641,4213.333333,4664.615384,4007.179487,4071.794871
104,4444.102564,4542.051282,4553.846153,4278.974358,4539.487179,4189.230769,4454.871794,4236.923076,4265.128205,4503.589743,4222.564102,4669.743589,4019.487179,4077.948717
105,4445.641025,4544.102564,4552.307692,4277.948717,4537.948717,4196.923076,4458.974358,4237.948717,4265.641025,4525.641025,4233.333333,4673.333333,4024.102564,4077.948717
106,4444.102564,4543.076923,4548.717948,4269.230769,4542.564102,4202.051282,4457.435897,4235.897435,4271.794871,4527.692307,4233.333333,4669.230769,4010.769230,4072.307692
107,4444.615384,4548.717948,4553.333333,4272.307692,4551.282051,4200.000000,4460.512820,4245.128205,4281.025641,4521.025641,4230.256410,4671.282051,4014.358974,4078.461538
108,4446.666666,4556.410256,4555.897435,4270.769230,4546.153846,4200.000000,4463.589743,4253.333333,4280.000000,4521.538461,4236.923076,4679.487179,4039.487179,4089.743589
109,4446.666666,4557.435897,4555.384615,4270.256410,4543.076923,4202.051282,4460.512820,4250.256410,4277.948717,4523.589743,4240.000000,4681.538461,4049.230769,4093.333333
110,4446.153846,4550.769230,4555.897435,4280.512820,4548.717948,4198.974358,4462.051282,4248.205128,4281.025641,4531.794871,4233.846153,4678.974358,4041.025641,4088.205128
111,4444.615384,4545.641025,4552.820512,4276.410256,4543.589743,4193.846153,4462.051282,4246.153846,4273.846153,4533.333333,4233.846153,4674.358974,4027.179487,4078.974358
112,4443.589743,4548.717948,4552.307692,4260.000000,4539.487179,4194.871794,4464.102564,4243.076923,4263.589743,4520.512820,4234.871794,4670.256410,4017.948717,4075.897435
113,4440.512820,4550.256410,4555.384615,4261.025641,4546.153846,4201.025641,4471.282051,4244.615384,4268.205128,4516.923076,4227.179487,4667.692307,4023.076923,4078.974358
114,4436.923076,4543.589743,4555.384615,4270.256410,4548.717948,4200.512820,4473.333333,4245.641025,4280.000000,4514.871794,4226.153846,4665.641025,4032.307692,4078.461538
115,4436.410256,4541.025641,4553.333333,4264.102564,4543.076923,4196.923076,4470.769230,4242.564102,4272.820512,4504.615384,4231.794871,4665.128205,4023.076923,4072.820512
116,4441.538461,4548.717948,4554.358974,4260.000000,4548.717948,4202.051282,4471.794871,4243.076923,4261.538461,4508.717948,4232.820512,4669.230769,4013.846153,4076.923076
117,4445.128205,4555.384615,4554.871794,4269.230769,4554.871794,4204.615384,4470.256410,4247.179487,4268.205128,4522.564102,4231.282051,4673.333333,4022.051282,4084.615384
118,4444.102564,4553.333333,4554.871794,4277.435897,4545.128205,4194.358974,4461.538461,4245.128205,4271.282051,4523.589743,4231.794871,4671.794871,4034.358974,4084.102564
119,4445.641025,4548.205128,4554.871794,4278.461538,4541.025641,4193.333333,4460.000000,4244.615384,4271.282051,4522.051282,4232.307692,4671.794871,4036.410256,4086.666666
120,4448.717948,4549.230769,4559.487179,4276.410256,4548.205128,4197.948717,4461.025641,4248.205128,4277.435897,4523.589743,4232.307692,4675.897435,4030.256410,4090.769230
121,4448.205128,4555.384615,4563.589743,4273.846153,4546.153846,4194.358974,4459.487179,4243.076923,4276.923076,4522.564102,4232.820512,4675.384615,4024.102564,4086.666666
122,4445.128205,4554.358974,4558.974358,4267.179487,4536.410256,4193.846153,4458.461538,4239.487179,4270.256410,4523.076923,4230.769230,4669.743589,4018.974358,4082.564102
123,4443.076923,4546.153846,4552.820512,4259.487179,4538.974358,4197.948717,4460.000000,4244.615384,4270.769230,4519.487179,4230.256410,4667.179487,4021.538461,4085.128205
124,4444.615384,4544.102564,4555.384615,4262.051282,4541.538461,4194.358974,4460.000000,4248.205128,4274.358974,4516.410256,4238.461538,4670.769230,4029.230769,4086.666666
125,4449.230769,4551.794871,4558.974358,4274.358974,4540.000000,4192.820512,4457.948717,4246.666666,4274.871794,4527.692307,4244.615384,4674.358974,4031.794871,4087.179487
126,4451.282051,4554.358974,4557.435897,4275.384615,4544.615384,4202.051282,4460.512820,4243.076923,4276.923076,4535.897435,4241.538461,4674.358974,4029.230769,4091.794871
127,4445.128205,4542.564102,4550.769230,4265.128205,4543.076923,4199.487179,4459.487179,4235.897435,4267.692307,4522.051282,4232.307692,4667.179487,4021.538461,4086.153846
128,4433.846153,4529.743589,4539.487179,4261.538461,4535.384615,4185.641025,4450.769230,4227.692307,4252.820512,4502.051282,4222.564102,4652.307692,4009.230769,4069.743589
129,4428.717948,4531.794871,4532.820512,4255.897435,4531.794871,4183.076923,4449.743589,4227.179487,4252.820512,4495.897435,4217.435897,4645.641025,4010.769230,4065.641025
130,4436.410256,4544.615384,4542.051282,4249.743589,4534.871794,4189.743589,4458.974358,4229.743589,4261.025641,4499.487179,4217.948717,4656.923076,4021.025641,4076.410256
131,4445.128205,4547.692307,4552.820512,4262.564102,4539.487179,4188.717948,4462.051282,4235.384615,4266.153846,4506.666666,4218.461538,4666.153846,4020.000000,4081.538461
132,4443.589743,4540.000000,4553.333333,4270.769230,4540.000000,4188.205128,4457.435897,4238.461538,4265.128205,4511.794871,4217.948717,4664.102564,4015.384615,4077.948717
133,4442.564102,4544.615384,4553.333333,4264.102564,4540.512820,4197.948717,4458.461538,4234.358974,4263.589743,4509.743589,4226.666666,4662.564102,4013.333333,4079.487179
134,4446.666666,4549.230769,4555.897435,4264.102564,4543.076923,4197.435897,4459.487179,4236.410256,4265.641025,4511.794871,4240.000000,4666.666666,4016.410256,4087.692307
135,4447.179487,4538.461538,4555.384615,4267.179487,4539.487179,4184.615384,4456.923076,4245.641025,4270.256410,4518.974358,4233.333333,4669.230769,4026.153846,4088.205128
136,4446.666666,4538.974358,4557.435897,4265.641025,4535.897435,4184.102564,4458.974358,4247.179487,4273.846153,4522.564102,4217.435897,4667.179487,4031.794871,4082.564102
137,4445.641025,4545.641025,4554.871794,4266.153846,4539.487179,4190.769230,4461.025641,4235.384615,4265.128205,4509.230769,4212.820512,4661.538461,4020.512820,4076.410256
138,4438.974358,4535.897435,4545.641025,4262.051282,4538.974358,4187.692307,4456.923076,4226.666666,4251.282051,4489.743589,4216.410256,4654.358974,4002.564102,4073.333333
139,4439.487179,4532.820512,4545.128205,4259.487179,4536.923076,4185.128205,4456.410256,4230.256410,4248.717948,4490.769230,4225.128205,4653.333333,4004.615384,4079.487179
140,4444.615384,4540.512820,4548.717948,4264.615384,4540.512820,4187.179487,4455.897435,4235.384615,4261.538461,4506.153846,4234.871794,4656.923076,4021.025641,4089.743589
141,4436.410256,4537.435897,4542.051282,4264.102564,4533.846153,4181.538461,4446.153846,4229.743589,4265.128205,4507.692307,4224.102564,4653.846153,4017.948717,4087.692307
142,4424.615384,4528.205128,4534.358974,4256.923076,4523.589743,4175.897435,4436.923076,4220.512820,4250.769230,4496.923076,4202.051282,4643.076923,3994.871795,4078.461538
143,4431.282051,4530.769230,4539.487179,4258.461538,4531.282051,4181.025641,4443.589743,4224.615384,4248.205128,4501.538461,4200.512820,4642.051282,3994.871795,4080.512820
144,4445.641025,4540.000000,4548.205128,4269.743589,4544.615384,4190.769230,4456.410256,4234.871794,4263.589743,4512.307692,4213.846153,4651.794871,4020.512820,4091.794871
145,4445.641025,4538.461538,4547.692307,4279.487179,4542.564102,4194.358974,4461.025641,4234.871794,4267.179487,4505.641025,4226.153846,4653.846153,4026.153846,4096.923076
146,4440.512820,4535.384615,4545.128205,4279.487179,4536.410256,4189.230769,4453.846153,4231.282051,4256.923076,4497.948717,4231.282051,4649.230769,4011.282051,4093.333333
147,4441.538461,4538.974358,4546.666666,4276.410256,4537.948717,4187.179487,4446.153846,4231.794871,4260.512820,4506.666666,4222.564102,4651.282051,4004.615384,4094.358974
148,4449.230769,4537.948717,4552.820512,4277.435897,4541.025641,4190.769230,4445.128205,4237.948717,4273.846153,4523.076923,4213.846153,4657.435897,4017.435897,4104.615384
149,4458.461538,4538.461538,4557.948717,4279.487179,4542.051282,4190.256410,4447.692307,4246.666666,4274.358974,4524.102564,4223.076923,4664.102564,4034.871794,4111.282051
150,4463.076923,4551.794871,4561.538461,4278.974358,4540.512820,4191.794871,4454.871794,4248.205128,4271.282051,4513.846153,4241.538461,4669.230769,4040.000000,4111.282051
151,4462.051282,4552.820512,4560.000000,4276.410256,4540.512820,4195.897435,4460.512820,4250.256410,4273.333333,4513.333333,4244.615384,4668.205128,4028.205128,4108.205128
152,4451.282051,4531.794871,4550.769230,4270.769230,4540.512820,4190.769230,4459.487179,4250.256410,4270.769230,4515.897435,4223.589743,4654.871794,4011.794871,4098.974358
153,4438.974358,4521.538461,4542.051282,4264.102564,4537.435897,4185.641025,4457.435897,4238.461538,4261.538461,4504.615384,4205.641025,4638.461538,4010.256410,4087.179487
154,4438.461538,4529.743589,4538.461538,4261.538461,4536.410256,4189.743589,4456.410256,4231.282051,4260.000000,4491.794871,4212.307692,4637.435897,4016.410256,4083.589743
155,4444.102564,4534.871794,4538.974358,4265.641025,4537.948717,4187.179487,4452.307692,4235.897435,4264.615384,4496.923076,4222.051282,4644.102564,4011.794871,4088.205128
156,4443.076923,4531.794871,4541.538461,4267.179487,4534.358974,4181.538461,4446.153846,4233.333333,4256.923076,4502.051282,4215.897435,4644.615384,4003.589743,4087.692307
157,4444.102564,4532.820512,4544.615384,4263.589743,4533.333333,4185.128205,4444.615384,4228.717948,4248.717948,4492.820512,4207.692307,4643.589743,4002.564102,4082.564102
158,4448.717948,4535.897435,4543.589743,4266.666666,4538.974358,4187.179487,4446.666666,4231.794871,4251.282051,4491.794871,4202.051282,4643.589743,4007.179487,4085.641025
159,4446.153846,4532.307692,4538.974358,4271.282051,4533.333333,4180.512820,4446.666666,4225.641025,4253.333333,4492.307692,4200.000000,4639.487179,4005.128205,4089.230769
160,4442.051282,4528.205128,4535.384615,4266.153846,4528.205128,4178.461538,4444.615384,4216.410256,4245.641025,4478.461538,4209.743589,4637.435897,3995.384616,4083.589743
161,4439.487179,4525.641025,4531.794871,4256.923076,4530.256410,4179.487179,4442.564102,4215.897435,4243.076923,4475.384615,4208.205128,4636.923076,3991.282052,4075.384615
162,4436.410256,4523.589743,4531.282051,4258.461538,4525.641025,4174.871794,4441.025641,4216.923076,4251.794871,4493.846153,4190.256410,4635.384615,3998.974359,4076.923076
163,4444.615384,4528.717948,4537.435897,4269.743589,4528.205128,4174.871794,4443.076923,4222.051282,4262.564102,4504.615384,4192.820512,4645.128205,4011.282051,4085.128205
164,4457.948717,4541.538461,4544.102564,4273.333333,4537.435897,4185.128205,4447.692307,4233.333333,4268.717948,4508.717948,4217.435897,4657.948717,4018.461538,4093.846153
165,4453.846153,4544.102564,4544.615384,4262.564102,4534.871794,4188.205128,4446.153846,4237.435897,4267.179487,4509.230769,4227.179487,4656.410256,4010.769230,4093.846153
166,4442.051282,4537.435897,4543.076923,4258.974358,4526.666666,4180.000000,4443.076923,4226.666666,4256.923076,4494.871794,4217.435897,4648.717948,4000.000000,4083.589743
167,4443.076923,4531.282051,4537.435897,4264.102564,4528.205128,4181.538461,4444.102564,4220.000000,4252.820512,4486.666666,4202.051282,4644.615384,4006.153846,4078.974358
168,4445.128205,4523.589743,4528.205128,4255.897435,4529.230769,4187.179487,4445.641025,4224.615384,4257.948717,4491.282051,4188.205128,4641.538461,4008.717948,4078.461538
169,4440.000000,4521.025641,4526.153846,4246.153846,4525.641025,4176.923076,4444.102564,4223.076923,4254.358974,4490.256410,4192.820512,4638.461538,3991.794872,4072.820512
170,4440.512820,4526.153846,4531.282051,4244.102564,4526.153846,4171.794871,4442.051282,4214.358974,4242.051282,4487.179487,4212.820512,4638.974358,3988.205129,4069.743589
171,4444.102564,4529.230769,4532.820512,4244.615384,4525.641025,4176.410256,4442.564102,4212.307692,4240.512820,4490.769230,4216.923076,4642.564102,4008.717948,4074.358974
172,4446.153846,4531.282051,4532.307692,4255.897435,4525.128205,4176.923076,4444.615384,4218.461538,4249.743589,4492.820512,4204.615384,4644.102564,4014.358974,4077.435897
173,4449.743589,4534.871794,4536.923076,4265.128205,4528.205128,4174.871794,4444.102564,4222.051282,4250.256410,4489.230769,4196.410256,4642.564102,3995.384616,4073.846153
174,4453.846153,4535.897435,4540.000000,4261.025641,4533.846153,4181.538461,4443.589743,4226.666666,4247.692307,4487.692307,4203.589743,4645.641025,3991.282052,4072.307692
175,4459.487179,4535.897435,4537.435897,4261.538461,4538.974358,4189.230769,4446.666666,4234.358974,4258.461538,4496.923076,4220.512820,4652.307692,4005.128205,4078.974358
176,4454.871794,4536.410256,4534.871794,4265.641025,4533.333333,4183.076923,4445.128205,4233.333333,4263.076923,4503.076923,4221.538461,4650.769230,4007.179487,4081.025641
177,4445.128205,4536.410256,4535.384615,4255.897435,4526.153846,4173.333333,4440.000000,4228.205128,4256.923076,4496.923076,4208.205128,4644.615384,4002.051282,4076.923076
178,4449.743589,4538.974358,4536.410256,4252.820512,4529.230769,4176.923076,4442.051282,4228.205128,4256.923076,4493.333333,4201.538461,4644.615384,4003.589743,4074.871794
179,4455.897435,4535.384615,4535.384615,4262.564102,4534.871794,4182.051282,4444.615384,4224.615384,4256.923076,4488.205128,4200.512820,4646.153846,4003.076923,4074.871794
180,4447.179487,4525.128205,4529.743589,4258.974358,4531.282051,4179.487179,4443.589743,4216.923076,4247.179487,4484.102564,4205.128205,4642.051282,4000.512820,4069.230769
181,4440.512820,4524.102564,4527.179487,4247.692307,4522.564102,4175.384615,4445.641025,4222.564102,4246.666666,4493.846153,4213.846153,4640.000000,4001.538461,4066.153846
182,4445.641025,4528.717948,4529.743589,4247.179487,4521.025641,4173.846153,4446.153846,4229.743589,4255.897435,4498.974358,4211.282051,4642.564102,3995.897436,4065.641025
183,4443.589743,4523.076923,4527.179487,4248.205128,4521.538461,4169.230769,4440.512820,4220.000000,4250.256410,4490.256410,4198.974358,4637.948717,3990.769231,4062.564102
184,4441.025641,4518.974358,4527.692307,4242.564102,4521.025641,4168.205128,4441.025641,4213.846153,4242.564102,4488.717948,4198.974358,4634.358974,3994.871795,4065.128205
185,4444.102564,4523.076923,4534.358974,4243.589743,4523.076923,4171.282051,4440.512820,4218.974358,4246.666666,4486.153846,4204.615384,4642.564102,3995.384616,4070.769230
186,4441.538461,4520.512820,4531.282051,4245.641025,4521.538461,4171.282051,4432.820512,4216.410256,4246.153846,4473.846153,4201.025641,4645.641025,3989.743590,4065.641025
187,4440.000000,4517.948717,4525.641025,4246.153846,4520.000000,4171.794871,4434.358974,4218.974358,4241.538461,4481.538461,4200.000000,4642.051282,3994.358975,4063.589743
188,4445.641025,4530.769230,4531.794871,4256.410256,4528.717948,4176.410256,4445.128205,4236.410256,4251.282051,4506.666666,4214.358974,4649.743589,4006.666666,4076.923076
189,4450.256410,4538.461538,4537.435897,4264.615384,4536.410256,4183.076923,4448.205128,4242.564102,4265.641025,4513.846153,4224.102564,4660.000000,4006.153846,4082.051282
190,4441.538461,4527.692307,4530.256410,4252.820512,4531.282051,4187.179487,4443.589743,4232.820512,4258.974358,4499.487179,4208.717948,4649.743589,3996.923077,4067.179487
191,4434.358974,4518.974358,4524.615384,4232.820512,4523.589743,4181.538461,4443.589743,4231.282051,4249.743589,4488.205128,4194.358974,4636.410256,3992.307693,4055.897435
192,4435.897435,4524.615384,4523.076923,4228.717948,4523.076923,4172.820512,4446.153846,4235.897435,4252.307692,4490.256410,4204.102564,4638.974358,3992.307693,4061.538461
193,4433.846153,4522.564102,4522.051282,4240.000000,4522.051282,4168.717948,4443.076923,4230.769230,4252.820512,4491.794871,4207.179487,4639.487179,3988.717949,4062.564102
194,4429.743589,4506.153846,4521.538461,4248.717948,4518.461538,4168.205128,4436.410256,4222.564102,4246.666666,4490.769230,4196.923076,4633.333333,3989.743590,4055.897435
195,4429.230769,4503.589743,4521.025641,4241.025641,4519.487179,4169.230769,4430.769230,4221.025641,4241.538461,4487.179487,4195.897435,4632.820512,3997.948718,4057.435897
196,4434.871794,4517.948717,4523.589743,4234.871794,4523.076923,4168.717948,4428.717948,4223.589743,4240.512820,4485.641025,4201.025641,4635.384615,4003.076923,4064.102564
197,4440.512820,4528.205128,4528.717948,4240.000000,4516.923076,4167.692307,4433.333333,4220.512820,4237.948717,4484.102564,4200.000000,4634.358974,4001.538461,4064.615384
198,4436.923076,4525.641025,4531.794871,4240.000000,4512.820512,4167.179487,4438.974358,4214.871794,4238.461538,4483.076923,4197.435897,4632.820512,3992.820513,4060.512820
199,4430.256410,4519.487179,4529.230769,4238.461538,4518.461538,4169.743589,4436.923076,4215.897435,4242.564102,4486.153846,4201.538461,4635.384615,3987.179488,4058.974358
200,4430.256410,4519.487179,4523.589743,4242.564102,4519.487179,4170.256410,4430.256410,4216.923076,4247.179487,4488.205128,4202.051282,4633.846153,3990.769231,4058.461538
201,4435.384615,4523.589743,4524.615384,4246.666666,4516.410256,4169.230769,4429.230769,4221.025641,4253.333333,4491.282051,4198.461538,4630.256410,3993.846154,4056.923076
202,4439.487179,4525.641025,4528.717948,4248.717948,4520.512820,4172.820512,4436.410256,4232.307692,4260.512820,4499.487179,4207.692307,4635.897435,3992.307693,4055.897435
203,4438.461538,4527.179487,4528.717948,4244.615384,4523.589743,4172.820512,4437.948717,4235.384615,4258.461538,4501.025641,4216.410256,4640.000000,3993.846154,4057.435897
204,4426.666666,4520.000000,4523.589743,4233.333333,4514.871794,4166.153846,4429.743589,4220.000000,4243.076923,4482.564102,4202.564102,4625.128205,3988.205129,4051.794871
205,4415.384615,4507.179487,4517.435897,4227.179487,4510.256410,4165.641025,4425.641025,4212.820512,4229.743589,4459.487179,4187.692307,4615.384615,3973.333334,4037.948717
206,4420.000000,4512.820512,4517.948717,4236.923076,4516.923076,4172.820512,4429.230769,4218.461538,4227.179487,4457.948717,4192.307692,4624.615384,3972.820513,4036.410256
207,4423.589743,4524.102564,4521.025641,4245.128205,4521.538461,4171.794871,4432.820512,4215.384615,4228.717948,4471.282051,4191.282051,4627.692307,3980.000000,4042.564102
208,4420.512820,4516.923076,4520.512820,4239.487179,4521.025641,4166.153846,4437.435897,4212.820512,4233.333333,4481.025641,4187.692307,4623.076923,3978.461539,4043.076923
209,4420.512820,4511.794871,4520.512820,4231.282051,4521.025641,4175.384615,4443.589743,4221.538461,4239.487179,4480.512820,4196.923076,4619.487179,3974.871795,4041.025641
210,4427.179487,4523.589743,4523.076923,4231.794871,4525.641025,4183.076923,4444.102564,4224.102564,4241.538461,4478.461538,4204.615384,4621.538461,3976.923077,4044.615384
211,4429.743589,4529.230769,4523.076923,4235.384615,4525.641025,4176.410256,4442.051282,4217.948717,4236.923076,4477.948717,4203.589743,4626.153846,3981.538462,4045.641025
212,4426.666666,4517.435897,4525.641025,4238.461538,4522.051282,4169.230769,4438.461538,4214.871794,4231.282051,4477.435897,4202.051282,4624.615384,3977.435898,4042.051282
213,4426.153846,4508.717948,4527.179487,4236.923076,4519.487179,4167.179487,4432.307692,4216.410256,4232.307692,4475.384615,4202.564102,4623.076923,3972.820513,4042.564102
214,4431.794871,4515.897435,4526.666666,4236.923076,4521.025641,4173.846153,4434.871794,4222.564102,4239.487179,4476.410256,4201.025641,4630.256410,3986.666667,4047.692307
215,4435.897435,4528.205128,4532.820512,4245.641025,4524.102564,4178.461538,4442.564102,4225.641025,4243.589743,4488.717948,4202.564102,4635.897435,3998.461539,4052.307692
216,4436.923076,4526.666666,4537.948717,4251.794871,4524.102564,4175.384615,4437.435897,4220.000000,4240.000000,4496.410256,4205.128205,4635.384615,3985.641026,4052.820512
217,4438.974358,4521.025641,4535.384615,4246.666666,4524.102564,4172.307692,4430.769230,4220.512820,4240.512820,4488.717948,4204.102564,4637.435897,3982.564103,4055.897435
218,4438.461538,4524.615384,4535.897435,4247.179487,4525.641025,4177.435897,4438.461538,4231.794871,4248.717948,4489.230769,4203.589743,4638.974358,3999.487180,4058.974358
219,4433.846153,4524.615384,4536.410256,4251.794871,4526.666666,4181.025641,4444.615384,4235.384615,4250.256410,4497.435897,4203.076923,4640.512820,3998.461539,4052.820512
220,4430.769230,4523.076923,4533.333333,4247.179487,4524.615384,4171.794871,4438.461538,4228.717948,4244.102564,4487.179487,4204.102564,4637.948717,3983.076924,4044.102564
221,4429.230769,4525.641025,4530.256410,4243.589743,4524.102564,4169.743589,4437.435897,4222.564102,4244.102564,4474.871794,4203.076923,4629.743589,3981.025642,4043.589743
222,4426.666666,4524.102564,4528.205128,4249.230769,4529.230769,4176.410256,4443.076923,4218.461538,4246.666666,4484.615384,4200.000000,4630.256410,3987.179488,4048.717948
223,4428.205128,4518.974358,4525.128205,4251.794871,4528.717948,4175.897435,4442.564102,4215.897435,4240.000000,4492.307692,4200.000000,4634.358974,3989.230770,4048.717948
224,4436.410256,4526.666666,4525.128205,4238.461538,4527.179487,4175.897435,4441.025641,4221.025641,4237.435897,4489.230769,4206.153846,4629.743589,3988.717949,4049.230769
225,4437.435897,4535.384615,4525.128205,4228.205128,4531.794871,4178.974358,4443.076923,4227.179487,4246.153846,4492.307692,4204.615384,4627.692307,3988.205129,4050.769230
226,4429.230769,4527.179487,4523.076923,4238.974358,4529.743589,4177.948717,4444.102564,4226.153846,4245.128205,4489.743589,4189.743589,4626.153846,3982.051283,4042.564102
227,4424.102564,4517.435897,4523.076923,4248.205128,4521.538461,4174.358974,4442.051282,4222.564102,4233.846153,4472.307692,4186.666666,4618.974358,3973.333334,4034.871794
228,4429.230769,4518.461538,4524.102564,4244.102564,4522.564102,4176.410256,4441.025641,4222.564102,4239.487179,4472.820512,4198.974358,4622.564102,3979.487180,4045.128205
229,4431.282051,4526.153846,4524.102564,4237.435897,4524.102564,4173.846153,4441.538461,4226.666666,4254.358974,4495.384615,4209.230769,4633.846153,3990.769231,4056.923076
230,4429.743589,4533.333333,4525.128205,4232.820512,4519.487179,4168.205128,4440.000000,4229.230769,4257.435897,4504.102564,4213.846153,4633.333333,3988.205129,4056.923076
231,4439.487179,4535.384615,4532.307692,4237.435897,4522.564102,4172.820512,4440.512820,4231.282051,4253.333333,4494.871794,4216.923076,4634.871794,3986.666667,4057.948717
232,4446.153846,4529.743589,4536.923076,4249.230769,4525.641025,4176.923076,4445.641025,4231.794871,4249.230769,4490.256410,4217.948717,4641.025641,3992.307693,4061.538461
233,4435.384615,4522.051282,4533.846153,4246.666666,4522.564102,4172.307692,4446.666666,4228.205128,4249.230769,4493.846153,4215.897435,4638.974358,3990.769231,4057.948717
234,4425.128205,4520.000000,4529.230769,4237.948717,4522.564102,4170.256410,4442.051282,4225.128205,4250.256410,4490.256410,4213.846153,4634.358974,3986.666667,4051.282051
235,4426.153846,4520.512820,4530.256410,4243.076923,4523.076923,4172.820512,4442.051282,4226.153846,4245.641025,4482.564102,4216.410256,4636.410256,3986.666667,4049.743589
236,4429.230769,4524.102564,4534.358974,4249.230769,4523.076923,4175.384615,4444.102564,4229.743589,4246.666666,4488.717948,4220.000000,4636.923076,3987.692308,4055.897435
237,4433.846153,4533.846153,4538.461538,4248.717948,4528.205128,4178.974358,4444.102564,4231.794871,4258.461538,4503.076923,4222.051282,4638.461538,3999.487180,4064.102564
238,4438.974358,4540.000000,4540.512820,4247.692307,4531.794871,4180.512820,4443.589743,4230.769230,4259.487179,4503.076923,4229.230769,4642.564102,4008.205128,4066.153846
239,4434.358974,4531.794871,4535.897435,4251.282051,4524.615384,4173.333333,4440.000000,4223.589743,4248.205128,4497.435897,4235.897435,4643.076923,3994.358975,4061.538461
240,4428.717948,4520.512820,4529.230769,4251.794871,4521.025641,4169.230769,4436.923076,4218.974358,4244.102564,4491.794871,4230.256410,4640.512820,3980.512821,4056.410256
241,4425.641025,4521.538461,4523.076923,4239.487179,4523.076923,4171.794871,4433.333333,4220.512820,4242.051282,4478.974358,4216.410256,4633.846153,3987.692308,4048.205128
242,4421.538461,4522.564102,4522.051282,4233.333333,4521.538461,4168.717948,4426.666666,4216.923076,4234.358974,4475.897435,4208.717948,4627.179487,3992.820513,4043.589743
243,4422.051282,4520.512820,4527.692307,4243.589743,4517.948717,4165.128205,4427.692307,4211.282051,4237.948717,4488.717948,4212.820512,4629.230769,3984.102565,4051.794871
244,4430.256410,4527.692307,4537.435897,4252.307692,4524.102564,4173.333333,4440.512820,4222.564102,4252.307692,4497.435897,4222.051282,4635.897435,3986.666667,4060.000000
245,4432.307692,4535.897435,4540.000000,4248.205128,4529.743589,4181.538461,4446.666666,4232.307692,4253.846153,4490.256410,4218.974358,4636.923076,3999.487180,4058.461538
246,4431.282051,4539.487179,4534.358974,4247.692307,4528.717948,4184.615384,4441.025641,4223.589743,4248.205128,4490.769230,4213.333333,4631.794871,3998.461539,4056.923076
247,4436.410256,4541.025641,4535.384615,4249.230769,4532.820512,4184.615384,4446.153846,4220.512820,4247.179487,4495.897435,4222.564102,4628.717948,3989.743590,4061.538461
248,4437.435897,4532.307692,4538.461538,4245.128205,4538.974358,4185.641025,4455.384615,4231.282051,4248.205128,4490.256410,4226.666666,4632.307692,3986.153847,4062.051282
249,4436.410256,4525.128205,4538.461538,4255.897435,4536.410256,4186.666666,4454.871794,4236.410256,4250.256410,4489.743589,4220.512820,4639.487179,3990.256411,4062.564102
250,4441.538461,4534.358974,4540.512820,4264.102564,4533.333333,4185.128205,4450.256410,4232.820512,4249.230769,4499.487179,4217.948717,4640.000000,3996.410257,4068.717948
251,4445.641025,4538.461538,4541.025641,4250.769230,4537.435897,4184.615384,4446.153846,4232.820512,4249.230769,4499.487179,4216.410256,4637.435897,3995.897436,4074.871794
252,4445.128205,4532.820512,4541.025641,4250.769230,4540.000000,4186.153846,4443.076923,4234.871794,4249.230769,4490.769230,4216.923076,4640.512820,3991.794872,4076.923076
253,4445.128205,4531.282051,4541.538461,4269.743589,4532.820512,4184.615384,4443.589743,4236.410256,4247.692307,4491.282051,4221.538461,4643.076923,3990.256411,4076.410256
254,4443.589743,4526.153846,4537.948717,4267.692307,4526.153846,4182.051282,4443.589743,4233.846153,4246.153846,4490.769230,4219.487179,4638.461538,3985.641026,4075.384615
255,4442.051282,4524.102564,4536.923076,4256.923076,4531.282051,4185.641025,4443.589743,4230.256410,4247.179487,4488.205128,4214.871794,4639.487179,3983.589744,4074.358974
