,AF3,F7,F3,FC5,T7,P7,O1,O2,P8,T8,FC6,F4,F8,AF4
0,4384.615384,4550.256410,4536.410256,4260.512820,4492.307692,4180.000000,4439.487179,4226.153846,4231.282051,4504.615384,4203.589743,4635.897435,3973.846154,4052.820512
1,4373.846153,4541.025641,4533.846153,4260.512820,4491.794871,4178.461538,4435.384615,4221.538461,4222.564102,4496.410256,4203.076923,4632.307692,3975.897436,4051.282051
2,4377.948717,4545.641025,4540.000000,4261.538461,4498.461538,4180.000000,4436.410256,4218.974358,4220.000000,4495.384615,4202.051282,4637.435897,3986.666667,4065.128205
3,4393.333333,4556.410256,4546.666666,4263.076923,4503.589743,4183.589743,4441.025641,4220.512820,4225.128205,4499.487179,4205.128205,4645.128205,3992.307693,4073.333333
4,4399.487179,4561.025641,4545.128205,4263.589743,4501.025641,4183.589743,4442.564102,4221.538461,4231.282051,4498.974358,4210.256410,4648.205128,3989.743590,4065.128205
5,4397.948717,4562.564102,4546.153846,4268.205128,4499.487179,4184.102564,4440.512820,4224.615384,4237.948717,4506.666666,4218.461538,4649.230769,3996.410257,4063.076923
6,4401.538461,4565.641025,4554.358974,4274.358974,4508.205128,4190.256410,4444.615384,4233.846153,4244.615384,4522.564102,4226.153846,4654.871794,4010.256410,4078.461538
7,4407.179487,4567.179487,4557.948717,4270.769230,4510.256410,4190.769230,4449.230769,4236.923076,4243.076923,4524.102564,4224.615384,4657.435897,4005.641025,4085.128205
8,4401.538461,4564.615384,4548.717948,4264.102564,4501.025641,4181.538461,4445.641025,4227.692307,4232.307692,4508.717948,4211.794871,4648.717948,3987.179488,4075.384615
9,4396.410256,4564.615384,4541.538461,4265.128205,4495.897435,4180.000000,4442.051282,4222.564102,4226.666666,4498.974358,4205.128205,4643.076923,3991.282052,4073.846153
10,4403.589743,4567.692307,4547.179487,4275.384615,4501.025641,4189.230769,4445.128205,4227.692307,4233.333333,4505.128205,4208.205128,4649.230769,4008.205128,4083.076923
11,4404.615384,4568.717948,4549.743589,4278.974358,4508.205128,4193.333333,4444.102564,4229.230769,4243.076923,4513.846153,4209.743589,4653.333333,4007.692307,4081.538461
12,4391.794871,4564.615384,4541.538461,4269.230769,4508.717948,4189.743589,4437.948717,4224.615384,4244.615384,4516.410256,4208.717948,4646.666666,3997.948718,4069.230769
13,4388.717948,4563.076923,4536.923076,4262.564102,4505.128205,4189.743589,4437.435897,4221.025641,4234.358974,4511.282051,4210.769230,4642.564102,3995.384616,4065.128205
14,4395.897435,4570.256410,4540.000000,4267.179487,4504.615384,4190.769230,4438.974358,4219.487179,4223.076923,4502.564102,4219.487179,4645.641025,3999.487180,4074.358974
15,4395.384615,4572.820512,4540.000000,4272.307692,4505.641025,4187.179487,4437.948717,4219.487179,4225.641025,4500.000000,4218.974358,4646.666666,4003.076923,4076.923076
16,4391.282051,4568.205128,4535.384615,4268.205128,4502.051282,4181.538461,4433.846153,4218.461538,4233.846153,4511.282051,4201.538461,4640.000000,4001.025641,4069.230769
17,4388.717948,4566.666666,4530.769230,4265.128205,4497.435897,4178.461538,4429.743589,4217.435897,4230.769230,4513.333333,4196.410256,4634.871794,3996.410257,4068.717948
18,4389.743589,4567.179487,4528.717948,4265.641025,4498.974358,4180.000000,4430.256410,4220.000000,4225.128205,4502.051282,4210.769230,4636.410256,4002.564102,4068.717948
19,4395.384615,4564.615384,4535.897435,4266.153846,4501.538461,4185.641025,4432.307692,4223.076923,4226.666666,4506.153846,4213.333333,4641.025641,4011.282051,4064.615384
20,4398.461538,4567.179487,4542.564102,4269.230769,4502.564102,4186.666666,4432.820512,4218.974358,4228.717948,4514.871794,4208.717948,4644.102564,4009.743589,4066.666666
21,4395.384615,4572.307692,4536.410256,4269.230769,4501.538461,4181.025641,4431.282051,4213.846153,4227.692307,4507.179487,4213.846153,4645.641025,4009.743589,4072.820512
22,4390.769230,4565.641025,4530.256410,4265.641025,4501.025641,4180.000000,4431.794871,4214.358974,4227.692307,4502.051282,4216.410256,4646.153846,4016.410256,4074.358974
23,4391.282051,4560.512820,4534.871794,4264.102564,4501.025641,4180.000000,4430.769230,4213.333333,4225.128205,4502.564102,4213.846153,4645.641025,4014.871794,4076.923076
24,4396.410256,4569.743589,4536.410256,4267.692307,4497.948717,4175.897435,4427.692307,4208.205128,4218.974358,4493.846153,4214.871794,4648.717948,4009.743589,4077.435897
25,4398.461538,4573.846153,4530.769230,4270.256410,4499.487179,4178.974358,4430.256410,4208.205128,4219.487179,4494.871794,4216.923076,4651.794871,4013.333333,4072.820512
26,4396.923076,4570.256410,4532.307692,4268.205128,4503.589743,4184.615384,4437.435897,4214.358974,4226.666666,4511.282051,4212.820512,4651.282051,4017.948717,4073.846153
27,4395.897435,4570.256410,4539.487179,4267.179487,4502.564102,4182.051282,4437.948717,4214.871794,4230.769230,4514.358974,4215.897435,4650.256410,4015.897435,4077.948717
28,4394.871794,4567.692307,4537.435897,4272.820512,4500.512820,4178.974358,4434.871794,4211.794871,4229.230769,4506.153846,4215.897435,4650.256410,4009.743589,4073.333333
29,4398.974358,4567.179487,4535.384615,4281.025641,4507.179487,4184.102564,4440.512820,4215.897435,4226.666666,4505.128205,4204.615384,4651.794871,4007.179487,4068.205128
30,4404.615384,4574.358974,4543.589743,4280.512820,4509.230769,4190.769230,4445.128205,4224.102564,4226.153846,4509.743589,4208.205128,4653.333333,4010.256410,4076.923076
31,4406.666666,4579.487179,4549.743589,4275.384615,4506.153846,4191.282051,4442.051282,4225.641025,4226.666666,4512.820512,4224.102564,4654.871794,4012.820512,4082.564102
32,4403.589743,4574.358974,4544.102564,4273.333333,4509.230769,4190.769230,4444.102564,4223.589743,4227.692307,4510.256410,4225.128205,4654.358974,4014.871794,4074.358974
33,4396.410256,4565.641025,4535.897435,4272.820512,4508.717948,4189.743589,4445.128205,4222.051282,4225.128205,4503.589743,4215.384615,4650.769230,4014.871794,4072.307692
34,4394.871794,4568.717948,4536.410256,4271.794871,4504.102564,4189.230769,4442.051282,4222.564102,4220.512820,4500.512820,4220.000000,4651.282051,4011.794871,4077.948717
35,4400.512820,4574.358974,4539.487179,4271.794871,4505.641025,4191.282051,4443.076923,4226.153846,4224.102564,4503.589743,4222.051282,4653.333333,4013.846153,4075.897435
36,4401.025641,4569.743589,4538.974358,4272.307692,4510.769230,4189.230769,4444.102564,4228.717948,4232.820512,4513.333333,4211.282051,4649.230769,4016.923076,4073.846153
37,4397.948717,4565.128205,4538.461538,4271.282051,4508.717948,4182.051282,4438.974358,4225.641025,4236.410256,4521.025641,4210.769230,4646.666666,4014.358974,4075.384615
38,4394.871794,4569.743589,4536.923076,4272.307692,4502.564102,4178.974358,4437.435897,4223.589743,4236.923076,4515.384615,4217.435897,4649.230769,4010.256410,4070.256410
39,4392.307692,4569.230769,4534.358974,4272.307692,4500.000000,4180.000000,4440.512820,4226.153846,4234.871794,4506.666666,4214.358974,4648.717948,4007.179487,4068.205128
40,4398.974358,4570.769230,4537.948717,4272.820512,4504.102564,4183.589743,4442.564102,4228.205128,4233.333333,4512.307692,4207.179487,4648.205128,4009.230769,4078.461538
41,4410.769230,4580.512820,4544.102564,4278.461538,4511.282051,4190.256410,4450.769230,4230.769230,4236.923076,4517.948717,4213.333333,4654.871794,4023.076923,4086.666666
42,4412.820512,4579.487179,4543.076923,4281.538461,4511.794871,4191.794871,4454.358974,4236.410256,4238.974358,4517.435897,4224.102564,4655.897435,4028.717948,4082.051282
43,4405.641025,4575.384615,4539.487179,4279.487179,4505.128205,4189.230769,4446.666666,4235.384615,4241.538461,4521.538461,4223.076923,4653.333333,4017.435897,4073.846153
44,4404.102564,4578.974358,4541.538461,4284.102564,4505.128205,4190.769230,4443.076923,4234.871794,4247.179487,4521.025641,4225.128205,4654.358974,4018.974358,4081.025641
45,4409.743589,4582.564102,4543.076923,4286.666666,4509.230769,4194.871794,4449.230769,4236.410256,4244.615384,4515.897435,4228.205128,4655.897435,4031.282051,4093.333333
46,4410.769230,4580.512820,4538.974358,4277.435897,4505.641025,4193.846153,4448.717948,4232.307692,4236.410256,4519.487179,4215.897435,4655.384615,4027.692307,4084.102564
47,4407.692307,4575.384615,4537.948717,4278.461538,4504.615384,4191.794871,4444.102564,4234.358974,4242.051282,4530.769230,4212.307692,4654.358974,4023.076923,4076.410256
48,4408.717948,4573.333333,4541.025641,4284.102564,4511.282051,4193.846153,4449.743589,4236.410256,4248.205128,4526.153846,4226.666666,4656.923076,4029.230769,4088.717948
49,4406.666666,4578.974358,4539.487179,4277.435897,4514.358974,4195.897435,4449.743589,4227.692307,4237.435897,4517.435897,4226.666666,4660.000000,4034.358974,4087.179487
50,4402.564102,4588.205128,4537.948717,4276.410256,4510.769230,4195.897435,4444.102564,4223.076923,4230.256410,4524.102564,4214.358974,4658.974358,4030.769230,4073.846153
51,4406.153846,4584.615384,4543.076923,4287.179487,4506.666666,4193.846153,4448.717948,4230.256410,4237.948717,4527.179487,4215.897435,4656.923076,4023.589743,4077.948717
52,4407.179487,4574.871794,4541.538461,4290.256410,4504.615384,4192.307692,4452.307692,4229.230769,4239.487179,4516.923076,4224.102564,4658.461538,4022.051282,4082.564102
53,4398.974358,4567.692307,4533.333333,4282.051282,4504.615384,4190.256410,4446.153846,4222.051282,4227.692307,4509.230769,4221.025641,4651.794871,4020.512820,4074.358974
54,4391.282051,4564.615384,4528.205128,4272.820512,4501.025641,4188.717948,4446.153846,4224.102564,4222.564102,4511.282051,4210.256410,4642.564102,4015.384615,4066.666666
55,4393.333333,4567.179487,4526.666666,4271.794871,4497.948717,4189.230769,4452.820512,4230.256410,4230.256410,4512.307692,4208.205128,4648.205128,4017.948717,4067.179487
56,4402.564102,4573.846153,4533.846153,4283.589743,4504.102564,4192.307692,4455.384615,4237.948717,4237.948717,4518.461538,4217.435897,4656.923076,4025.128205,4075.897435
57,4405.128205,4576.923076,4537.948717,4292.307692,4507.179487,4191.794871,4457.435897,4244.102564,4243.589743,4528.205128,4221.025641,4656.410256,4028.205128,4081.538461
58,4396.410256,4568.205128,4529.230769,4282.051282,4500.512820,4187.179487,4455.384615,4239.487179,4236.410256,4524.102564,4212.307692,4649.743589,4021.025641,4072.820512
59,4390.769230,4566.153846,4528.717948,4273.333333,4500.512820,4188.205128,4451.794871,4235.897435,4227.692307,4512.820512,4198.461538,4648.205128,4013.846153,4067.692307
60,4396.410256,4573.846153,4539.487179,4281.538461,4507.692307,4193.846153,4460.000000,4247.179487,4242.051282,4517.435897,4190.256410,4655.384615,4020.512820,4071.794871
61,4402.564102,4572.307692,4540.512820,4288.717948,4509.743589,4195.897435,4467.179487,4254.358974,4258.461538,4530.256410,4206.666666,4661.538461,4032.820512,4076.410256
62,4404.615384,4566.666666,4534.871794,4288.205128,4509.743589,4196.410256,4463.076923,4250.256410,4250.769230,4532.820512,4229.743589,4660.000000,4034.871794,4085.128205
63,4403.589743,4567.179487,4537.435897,4284.102564,4509.743589,4196.410256,4460.000000,4244.615384,4236.410256,4525.641025,4226.153846,4655.384615,4028.205128,4084.615384
64,4396.923076,4569.230769,4534.358974,4277.435897,4506.666666,4195.897435,4464.102564,4245.128205,4235.384615,4516.923076,4210.256410,4653.333333,4020.000000,4074.871794
65,4391.282051,4567.692307,4525.128205,4275.897435,4506.666666,4191.794871,4464.615384,4249.230769,4236.410256,4513.846153,4209.743589,4651.794871,4011.794871,4073.333333
66,4390.769230,4566.666666,4526.666666,4280.000000,4505.641025,4190.256410,4462.564102,4248.205128,4237.435897,4517.948717,4214.358974,4651.282051,4010.769230,4074.358974
67,4393.846153,4562.051282,4532.820512,4283.589743,4505.641025,4194.358974,4467.692307,4247.179487,4240.512820,4518.461538,4213.333333,4652.820512,4018.461538,4067.692307
68,4396.410256,4560.000000,4526.666666,4284.615384,4507.692307,4196.923076,4468.717948,4251.282051,4240.512820,4512.820512,4209.743589,4652.307692,4025.128205,4064.102564
69,4391.794871,4561.538461,4520.512820,4277.435897,4505.641025,4193.846153,4460.000000,4248.205128,4236.410256,4512.307692,4205.128205,4648.717948,4018.974358,4065.641025
70,4384.102564,4556.923076,4521.538461,4266.666666,4501.538461,4190.256410,4456.410256,4241.538461,4236.923076,4519.487179,4204.615384,4647.692307,4012.820512,4067.692307
71,4387.692307,4561.025641,4525.128205,4275.384615,4503.076923,4190.256410,4464.102564,4249.230769,4251.282051,4524.615384,4208.205128,4651.794871,4022.051282,4073.333333
72,4397.435897,4565.128205,4528.717948,4287.692307,4503.076923,4190.769230,4467.179487,4256.410256,4255.384615,4520.512820,4209.743589,4651.794871,4026.153846,4071.794871
73,4395.384615,4560.512820,4528.205128,4275.384615,4500.512820,4190.256410,4462.564102,4250.256410,4243.076923,4515.384615,4214.358974,4650.769230,4015.384615,4065.128205
74,4392.307692,4560.000000,4523.589743,4266.153846,4502.564102,4190.769230,4465.128205,4244.615384,4237.948717,4512.820512,4215.897435,4652.820512,4011.794871,4067.179487
75,4395.897435,4560.000000,4523.589743,4274.871794,4507.179487,4192.307692,4471.282051,4245.641025,4242.564102,4511.282051,4207.179487,4654.871794,4020.512820,4072.820512
76,4393.846153,4558.461538,4526.153846,4275.897435,4507.179487,4192.820512,4468.205128,4248.717948,4243.589743,4515.384615,4207.692307,4653.333333,4024.102564,4068.717948
77,4392.307692,4563.076923,4525.128205,4273.333333,4505.641025,4190.769230,4462.564102,4249.230769,4244.102564,4520.512820,4210.256410,4652.307692,4023.589743,4066.153846
78,4398.461538,4565.641025,4525.641025,4278.974358,4507.179487,4190.256410,4463.076923,4243.076923,4244.102564,4520.000000,4204.615384,4653.333333,4022.564102,4066.666666
79,4401.538461,4561.538461,4528.717948,4280.512820,4509.743589,4190.769230,4462.051282,4238.461538,4238.974358,4515.897435,4210.769230,4653.846153,4021.025641,4063.589743
80,4392.307692,4562.051282,4528.205128,4270.769230,4508.205128,4190.769230,4456.410256,4235.384615,4235.384615,4508.205128,4220.000000,4652.307692,4018.974358,4064.102564
81,4386.153846,4565.128205,4523.076923,4267.179487,4507.179487,4190.256410,4450.769230,4228.205128,4232.820512,4497.948717,4213.846153,4650.256410,4016.410256,4070.256410
82,4391.282051,4564.102564,4519.487179,4275.897435,4508.717948,4191.282051,4450.256410,4226.153846,4225.128205,4497.948717,4206.666666,4647.179487,4012.820512,4070.256410
83,4393.846153,4562.564102,4521.025641,4277.435897,4511.282051,4195.384615,4458.461538,4232.307692,4224.615384,4508.205128,4209.743589,4646.666666,4005.128205,4064.615384
84,4395.384615,4562.051282,4526.666666,4270.256410,4516.923076,4197.435897,4462.051282,4238.461538,4235.897435,4517.948717,4217.948717,4654.358974,4008.717948,4065.128205
85,4403.589743,4565.128205,4531.282051,4273.333333,4516.410256,4196.410256,4456.410256,4236.923076,4242.051282,4519.487179,4225.641025,4663.589743,4028.717948,4074.871794
86,4406.666666,4568.717948,4528.717948,4282.564102,4511.282051,4195.897435,4454.871794,4234.871794,4237.948717,4515.384615,4227.692307,4665.128205,4042.051282,4085.128205
87,4399.487179,4566.666666,4523.589743,4278.974358,4510.769230,4193.333333,4457.435897,4236.923076,4237.948717,4513.846153,4225.641025,4660.000000,4041.538461,4082.564102
88,4394.358974,4562.564102,4521.025641,4268.205128,4506.153846,4188.205128,4453.846153,4233.846153,4235.384615,4514.871794,4223.589743,4655.897435,4035.384615,4075.384615
89,4394.358974,4555.897435,4517.948717,4263.076923,4498.461538,4182.051282,4446.666666,4226.153846,4226.153846,4504.615384,4213.846153,4649.230769,4024.102564,4070.256410
90,4390.256410,4552.307692,4515.897435,4263.589743,4495.897435,4181.025641,4449.230769,4226.153846,4226.666666,4502.051282,4208.205128,4645.128205,4020.512820,4061.025641
91,4390.769230,4561.538461,4521.538461,4273.333333,4498.974358,4187.179487,4457.948717,4233.846153,4234.871794,4512.307692,4216.410256,4649.743589,4034.871794,4063.076923
92,4401.538461,4574.358974,4532.307692,4281.538461,4504.615384,4192.820512,4458.974358,4240.512820,4236.923076,4517.435897,4227.692307,4660.000000,4041.538461,4082.051282
93,4413.333333,4577.948717,4536.410256,4283.589743,4510.769230,4193.333333,4458.461538,4244.102564,4240.512820,4522.051282,4233.333333,4668.205128,4039.487179,4092.307692
94,4413.846153,4572.820512,4534.871794,4282.564102,4509.230769,4193.333333,4463.076923,4244.615384,4246.153846,4525.128205,4220.000000,4668.205128,4043.589743,4084.615384
95,4403.589743,4567.179487,4529.230769,4276.923076,4503.589743,4193.846153,4461.538461,4241.025641,4241.025641,4520.000000,4210.769230,4662.051282,4047.179487,4076.410256
96,4398.974358,4565.128205,4526.666666,4271.794871,4507.692307,4194.358974,4460.000000,4243.589743,4236.923076,4519.487179,4221.025641,4656.923076,4044.615384,4074.358974
97,4402.564102,4565.641025,4528.717948,4274.358974,4510.769230,4194.358974,4461.538461,4246.666666,4246.666666,4521.538461,4217.435897,4657.948717,4037.948717,4071.794871
98,4406.153846,4566.153846,4527.692307,4278.461538,4505.128205,4190.769230,4457.948717,4240.512820,4255.384615,4519.487179,4210.256410,4660.000000,4032.307692,4071.794871
99,4409.743589,4570.256410,4530.769230,4279.487179,4507.179487,4191.282051,4465.641025,4241.025641,4251.282051,4526.666666,4226.153846,4664.102564,4037.435897,4078.461538
100,4410.769230,4573.333333,4534.358974,4275.897435,4514.358974,4197.435897,4476.410256,4245.641025,4238.461538,4529.743589,4233.846153,4666.153846,4043.076923,4079.487179
101,4403.589743,4566.666666,4528.205128,4268.717948,4509.230769,4195.384615,4468.205128,4238.461538,4228.717948,4515.897435,4220.000000,4658.974358,4034.358974,4071.794871
102,4397.435897,4561.025641,4526.153846,4268.205128,4501.538461,4186.666666,4456.410256,4232.820512,4231.794871,4509.743589,4221.025641,4659.487179,4027.179487,4075.897435
103,4403.076923,4561.538461,4534.871794,4272.820512,4503.076923,4188.205128,4458.974358,4240.000000,4238.461538,4512.307692,4225.641025,4668.205128,4025.641025,4085.641025
104,4403.589743,4554.358974,4535.384615,4266.153846,4504.102564,4191.282051,4460.000000,4236.923076,4231.282051,4508.205128,4213.333333,4661.538461,4010.256410,4078.974358
105,4392.820512,4548.717948,4530.256410,4260.512820,4499.487179,4186.666666,4456.410256,4226.666666,4225.641025,4507.179487,4210.256410,4649.230769,3998.974359,4067.692307
106,4390.256410,4554.871794,4537.948717,4267.692307,4495.897435,4186.153846,4454.358974,4232.820512,4237.435897,4513.333333,4214.358974,4653.333333,4010.256410,4067.179487
107,4394.871794,4561.025641,4541.538461,4266.666666,4497.948717,4185.641025,4447.692307,4233.333333,4236.410256,4510.256410,4202.564102,4655.897435,4007.179487,4067.179487
108,4394.871794,4558.461538,4535.897435,4258.974358,4500.512820,4183.076923,4442.564102,4220.000000,4220.512820,4498.974358,4195.384615,4647.179487,3984.615385,4066.153846
109,4398.461538,4560.512820,4542.564102,4264.615384,4503.076923,4188.205128,4448.205128,4224.102564,4224.615384,4502.051282,4207.179487,4647.179487,3987.692308,4070.769230
110,4400.512820,4564.615384,4552.307692,4267.692307,4506.666666,4195.384615,4455.384615,4241.538461,4242.051282,4516.410256,4215.897435,4652.820512,4007.692307,4071.794871
111,4391.794871,4561.538461,4548.205128,4264.102564,4511.282051,4192.820512,4455.384615,4244.102564,4246.153846,4515.897435,4218.974358,4652.307692,4003.589743,4065.128205
112,4391.282051,4559.487179,4544.102564,4270.256410,4508.717948,4190.256410,4453.846153,4237.948717,4242.564102,4509.743589,4218.461538,4652.820512,3996.410257,4067.692307
113,4404.615384,4568.205128,4552.820512,4274.358974,4504.615384,4193.333333,4457.948717,4244.615384,4250.256410,4512.820512,4215.384615,4656.923076,4010.769230,4082.051282
114,4406.666666,4573.846153,4557.435897,4266.666666,4510.769230,4196.923076,4462.564102,4253.333333,4256.410256,4515.384615,4217.948717,4657.435897,4019.487179,4085.128205
115,4396.410256,4567.179487,4550.769230,4264.102564,4514.871794,4195.897435,4460.512820,4248.205128,4248.717948,4514.871794,4221.025641,4652.820512,4010.256410,4075.897435
116,4393.846153,4566.153846,4549.743589,4269.743589,4510.769230,4192.307692,4460.512820,4241.538461,4243.076923,4516.410256,4219.487179,4653.333333,4002.564102,4071.794871
117,4400.512820,4573.846153,4554.358974,4277.435897,4513.333333,4195.897435,4463.589743,4244.102564,4245.128205,4516.923076,4222.051282,4660.000000,4007.692307,4071.282051
118,4405.128205,4571.794871,4553.846153,4275.897435,4517.435897,4197.948717,4461.025641,4244.615384,4242.564102,4511.794871,4227.692307,4662.564102,4014.358974,4076.923076
119,4406.153846,4562.564102,4554.358974,4268.717948,4514.871794,4194.358974,4458.974358,4243.076923,4243.589743,4511.282051,4229.230769,4660.000000,4014.358974,4083.589743
120,4398.974358,4558.974358,4554.358974,4268.717948,4512.307692,4193.333333,4459.487179,4245.128205,4250.256410,4514.871794,4230.769230,4656.923076,4013.846153,4076.410256
121,4394.358974,4567.179487,4551.282051,4271.282051,4514.358974,4195.897435,4460.000000,4246.153846,4253.333333,4518.461538,4224.102564,4653.333333,4016.923076,4069.743589
122,4402.564102,4571.794871,4550.769230,4267.692307,4518.974358,4196.923076,4460.512820,4244.102564,4251.794871,4520.000000,4216.410256,4653.333333,4020.512820,4073.846153
123,4406.666666,4568.205128,4550.256410,4267.692307,4518.461538,4197.948717,4462.051282,4243.589743,4245.641025,4515.897435,4218.461538,4655.384615,4013.846153,4075.384615
124,4401.025641,4567.692307,4547.692307,4271.282051,4514.358974,4198.974358,4460.512820,4242.564102,4241.538461,4513.333333,4221.538461,4653.333333,4004.102564,4072.307692
125,4400.512820,4574.358974,4551.794871,4270.769230,4513.846153,4196.923076,4463.589743,4240.512820,4247.179487,4510.769230,4220.000000,4653.333333,4007.692307,4073.846153
126,4406.153846,4577.948717,4556.410256,4275.384615,4516.410256,4201.025641,4468.717948,4240.512820,4251.794871,4509.743589,4220.000000,4658.461538,4021.538461,4078.461538
127,4411.794871,4580.000000,4559.487179,4283.076923,4516.923076,4206.153846,4470.769230,4247.179487,4252.820512,4519.487179,4229.743589,4666.666666,4032.307692,4083.076923
128,4415.384615,4583.076923,4565.128205,4281.538461,4515.897435,4201.025641,4468.205128,4251.794871,4256.923076,4529.230769,4237.435897,4668.205128,4026.153846,4087.179487
129,4409.230769,4578.461538,4561.538461,4271.282051,4512.307692,4190.769230,4462.051282,4246.153846,4255.384615,4523.076923,4229.230769,4659.487179,4014.358974,4085.128205
130,4402.051282,4569.743589,4552.307692,4266.666666,4504.102564,4190.256410,4456.923076,4241.538461,4245.641025,4513.333333,4221.025641,4650.769230,4016.410256,4077.435897
131,4404.102564,4567.692307,4549.743589,4271.794871,4505.641025,4195.897435,4458.974358,4245.128205,4244.615384,4513.846153,4221.538461,4652.307692,4022.564102,4074.358974
132,4403.076923,4573.333333,4548.717948,4275.384615,4507.179487,4194.871794,4459.487179,4247.692307,4248.205128,4511.794871,4216.410256,4653.333333,4014.358974,4075.384615
133,4397.948717,4576.410256,4546.666666,4272.307692,4502.564102,4190.769230,4454.871794,4242.564102,4242.564102,4502.051282,4208.205128,4650.256410,4007.692307,4073.333333
134,4403.076923,4573.846153,4551.794871,4271.282051,4505.128205,4190.769230,4456.923076,4241.538461,4238.974358,4504.102564,4215.897435,4653.846153,4017.435897,4075.384615
135,4408.717948,4572.307692,4557.435897,4275.384615,4506.666666,4192.820512,4461.538461,4247.179487,4245.641025,4515.897435,4229.230769,4657.948717,4026.153846,4085.128205
136,4404.102564,4572.307692,4548.717948,4274.358974,4505.128205,4192.820512,4460.000000,4246.666666,4243.589743,4516.923076,4228.205128,4653.333333,4025.128205,4084.102564
137,4400.000000,4573.846153,4542.051282,4270.769230,4506.153846,4192.307692,4458.974358,4240.512820,4240.512820,4510.256410,4226.153846,4650.769230,4021.538461,4077.435897
138,4399.487179,4572.820512,4546.666666,4271.282051,4505.641025,4190.769230,4458.974358,4237.948717,4249.230769,4512.820512,4228.717948,4654.871794,4018.974358,4077.948717
139,4401.025641,4570.256410,4546.666666,4270.769230,4503.076923,4189.230769,4458.974358,4237.948717,4248.205128,4514.871794,4229.230769,4654.871794,4017.948717,4074.358974
140,4405.641025,4574.871794,4544.615384,4269.743589,4508.205128,4192.307692,4457.948717,4233.333333,4238.974358,4509.743589,4225.641025,4651.282051,4023.589743,4070.256410
141,4403.589743,4577.948717,4545.128205,4272.820512,4512.307692,4195.897435,4458.461538,4228.717948,4237.948717,4507.692307,4217.948717,4651.794871,4030.256410,4078.461538
142,4400.512820,4574.358974,4545.128205,4278.974358,4509.743589,4196.923076,4459.487179,4232.820512,4240.000000,4514.871794,4216.923076,4657.948717,4035.897435,4089.230769
143,4404.102564,4571.282051,4546.666666,4277.948717,4510.256410,4196.410256,4460.000000,4240.512820,4244.102564,4523.076923,4225.641025,4660.000000,4032.307692,4083.589743
144,4413.846153,4577.435897,4551.282051,4274.871794,4510.256410,4200.000000,4461.025641,4243.589743,4252.820512,4522.564102,4230.256410,4657.948717,4023.076923,4076.923076
145,4417.948717,4583.076923,4555.384615,4277.948717,4514.358974,4204.102564,4462.051282,4244.615384,4252.820512,4519.487179,4227.692307,4661.538461,4027.179487,4086.153846
146,4410.256410,4580.512820,4551.282051,4281.538461,4516.410256,4198.974358,4460.000000,4242.051282,4244.102564,4519.487179,4225.641025,4662.051282,4034.871794,4088.205128
147,4402.051282,4578.461538,4544.615384,4276.923076,4508.717948,4192.820512,4457.435897,4236.410256,4237.948717,4514.871794,4225.641025,4655.384615,4026.153846,4081.538461
148,4404.615384,4582.564102,4544.102564,4271.282051,4508.717948,4195.384615,4457.435897,4236.923076,4237.435897,4511.282051,4225.641025,4657.435897,4023.589743,4081.538461
149,4415.384615,4582.564102,4554.358974,4276.923076,4516.410256,4200.000000,4459.487179,4240.000000,4244.102564,4518.461538,4226.153846,4666.666666,4035.384615,4082.564102
150,4416.923076,4579.487179,4557.435897,4284.102564,4514.871794,4197.435897,4459.487179,4241.025641,4251.794871,4523.589743,4227.179487,4666.666666,4032.820512,4081.025641
151,4412.820512,4578.974358,4551.794871,4287.179487,4510.256410,4196.410256,4457.948717,4241.538461,4250.256410,4517.948717,4227.692307,4662.051282,4020.512820,4085.641025
152,4410.256410,4580.512820,4550.769230,4288.205128,4512.307692,4202.051282,4458.974358,4241.025641,4243.076923,4514.871794,4225.641025,4662.051282,4026.666666,4089.230769
153,4407.692307,4578.974358,4550.769230,4281.538461,4514.358974,4202.051282,4459.487179,4238.974358,4243.076923,4516.923076,4223.076923,4661.025641,4033.846153,4081.538461
154,4409.743589,4573.846153,4547.179487,4275.384615,4513.333333,4196.923076,4456.923076,4237.435897,4248.205128,4515.384615,4224.102564,4656.410256,4024.102564,4080.000000
155,4413.333333,4573.333333,4546.666666,4280.512820,4514.871794,4197.948717,4458.461538,4239.487179,4249.230769,4512.820512,4225.641025,4655.384615,4020.512820,4085.641025
156,4410.769230,4581.025641,4549.230769,4285.128205,4518.461538,4202.051282,4463.589743,4238.461538,4243.589743,4514.358974,4223.589743,4658.974358,4028.205128,4085.128205
157,4407.179487,4581.538461,4544.102564,4280.000000,4515.384615,4198.461538,4463.589743,4234.358974,4237.948717,4514.358974,4221.025641,4658.974358,4028.205128,4082.051282
158,4410.769230,4573.846153,4543.076923,4275.384615,4512.307692,4194.358974,4461.538461,4234.358974,4237.948717,4511.794871,4223.589743,4656.410256,4025.641025,4082.051282
159,4410.769230,4572.307692,4546.666666,4273.846153,4513.333333,4194.871794,4464.102564,4236.923076,4238.461538,4512.307692,4223.076923,4655.897435,4027.179487,4074.358974
160,4408.205128,4573.846153,4546.153846,4270.769230,4516.923076,4196.923076,4464.102564,4235.897435,4236.410256,4513.333333,4221.538461,4655.897435,4027.179487,4068.205128
161,4408.717948,4571.282051,4544.102564,4271.794871,4515.897435,4197.435897,4460.000000,4234.871794,4237.435897,4509.230769,4223.589743,4656.410256,4026.666666,4079.487179
162,4409.743589,4572.307692,4544.615384,4274.358974,4514.871794,4195.384615,4460.512820,4238.974358,4242.564102,4509.230769,4225.641025,4658.974358,4029.743589,4090.769230
163,4409.743589,4575.897435,4543.076923,4274.358974,4519.487179,4199.487179,4463.589743,4242.051282,4246.153846,4515.897435,4229.230769,4658.974358,4027.179487,4086.153846
164,4412.307692,4575.897435,4540.000000,4272.820512,4519.487179,4201.025641,4462.051282,4242.051282,4246.153846,4516.410256,4223.589743,4656.410256,4023.076923,4079.487179
165,4414.871794,4576.410256,4541.025641,4277.948717,4514.871794,4195.384615,4459.487179,4240.512820,4241.025641,4510.256410,4211.794871,4660.000000,4028.717948,4081.025641
166,4415.384615,4577.948717,4543.589743,4279.487179,4510.769230,4194.358974,4461.025641,4235.897435,4234.871794,4504.102564,4221.538461,4664.615384,4032.307692,4087.179487
167,4412.307692,4576.410256,4546.666666,4271.282051,4510.256410,4194.871794,4455.897435,4236.410256,4243.076923,4509.743589,4236.923076,4662.564102,4028.717948,4090.256410
168,4410.769230,4574.871794,4543.589743,4271.282051,4508.717948,4192.307692,4450.769230,4240.512820,4255.384615,4516.923076,4226.153846,4661.538461,4030.769230,4084.615384
169,4409.230769,4574.871794,4537.435897,4274.871794,4503.076923,4190.769230,4451.282051,4236.923076,4247.692307,4507.692307,4216.923076,4662.051282,4031.282051,4079.487179
170,4404.615384,4572.307692,4538.461538,4274.871794,4498.974358,4189.230769,4446.153846,4231.282051,4232.820512,4495.897435,4224.615384,4656.923076,4023.076923,4073.333333
171,4404.615384,4567.179487,4538.974358,4273.846153,4498.974358,4185.641025,4443.076923,4236.410256,4235.897435,4504.615384,4224.615384,4652.820512,4018.974358,4070.769230
172,4407.692307,4570.769230,4538.974358,4271.282051,4504.615384,4188.205128,4453.333333,4243.589743,4250.769230,4521.025641,4228.205128,4654.871794,4024.102564,4080.512820
173,4408.717948,4580.000000,4541.025641,4272.820512,4511.282051,4194.871794,4460.512820,4245.641025,4254.871794,4521.538461,4237.948717,4658.974358,4028.717948,4085.128205
174,4409.743589,4578.974358,4540.000000,4277.435897,4511.794871,4194.871794,4458.461538,4244.615384,4247.692307,4517.435897,4230.256410,4659.487179,4031.794871,4080.512820
175,4408.717948,4572.820512,4532.307692,4276.923076,4508.717948,4192.820512,4454.358974,4236.923076,4242.051282,4514.358974,4221.025641,4654.871794,4028.205128,4072.820512
176,4406.153846,4569.743589,4529.230769,4271.794871,4504.615384,4188.717948,4447.692307,4225.128205,4238.461538,4502.564102,4224.102564,4647.692307,4020.000000,4064.102564
177,4401.025641,4572.307692,4529.743589,4269.743589,4502.051282,4186.153846,4443.589743,4225.641025,4235.384615,4500.000000,4222.051282,4648.205128,4020.512820,4062.564102
178,4399.487179,4571.794871,4531.282051,4274.871794,4501.538461,4188.717948,4445.641025,4233.333333,4241.025641,4511.794871,4216.923076,4654.358974,4026.153846,4071.794871
179,4405.641025,4568.717948,4535.384615,4281.025641,4503.589743,4190.256410,4447.179487,4236.410256,4247.179487,4513.846153,4225.641025,4654.358974,4025.641025,4072.307692
180,4409.743589,4567.692307,4532.307692,4276.410256,4505.641025,4188.717948,4445.641025,4234.871794,4240.000000,4501.538461,4230.256410,4650.769230,4022.564102,4065.641025
181,4405.641025,4568.205128,4528.717948,4264.615384,4504.102564,4188.717948,4445.641025,4232.307692,4232.307692,4496.410256,4222.564102,4649.230769,4025.128205,4066.153846
182,4404.102564,4570.769230,4530.256410,4270.256410,4504.615384,4192.307692,4453.846153,4233.333333,4239.487179,4505.641025,4223.076923,4650.256410,4031.282051,4072.820512
183,4408.205128,4573.846153,4533.333333,4284.102564,4509.743589,4195.897435,4461.538461,4239.487179,4244.615384,4511.282051,4228.717948,4654.358974,4032.820512,4077.435897
184,4409.230769,4575.384615,4534.871794,4286.153846,4512.820512,4195.384615,4460.512820,4242.564102,4242.564102,4510.256410,4228.205128,4656.923076,4026.666666,4076.923076
185,4407.692307,4573.333333,4537.435897,4281.538461,4511.282051,4192.307692,4457.948717,4240.000000,4246.153846,4513.846153,4227.179487,4656.410256,4025.128205,4075.897435
186,4407.179487,4570.256410,4531.282051,4270.256410,4507.692307,4190.256410,4456.923076,4233.846153,4240.512820,4510.769230,4221.538461,4654.358974,4029.743589,4069.230769
187,4404.102564,4567.692307,4521.538461,4263.076923,4505.641025,4189.743589,4452.820512,4228.717948,4227.179487,4500.512820,4210.769230,4649.743589,4030.769230,4060.512820
188,4396.923076,4560.512820,4522.564102,4266.666666,4504.615384,4188.717948,4448.717948,4225.128205,4230.769230,4501.538461,4208.205128,4645.128205,4032.307692,4061.538461
189,4392.307692,4558.461538,4522.564102,4268.205128,4504.102564,4185.128205,4446.666666,4222.564102,4241.538461,4506.666666,4215.384615,4645.641025,4029.743589,4067.179487
190,4399.487179,4564.102564,4522.564102,4268.205128,4500.512820,4182.564102,4445.641025,4220.512820,4234.871794,4502.051282,4223.589743,4650.256410,4022.564102,4064.615384
191,4404.615384,4567.179487,4523.589743,4267.179487,4497.435897,4181.025641,4446.666666,4221.025641,4226.666666,4498.974358,4223.076923,4650.256410,4020.512820,4060.000000
192,4394.871794,4562.051282,4521.025641,4260.000000,4496.923076,4178.461538,4445.641025,4222.051282,4226.153846,4500.000000,4213.846153,4643.076923,4016.410256,4057.435897
193,4391.282051,4555.897435,4521.025641,4266.153846,4497.948717,4182.564102,4444.615384,4223.076923,4228.205128,4500.000000,4208.717948,4642.051282,4011.282051,4056.410256
194,4400.000000,4557.435897,4523.589743,4282.564102,4501.025641,4189.230769,4452.307692,4228.205128,4231.794871,4502.564102,4210.769230,4649.230769,4020.000000,4064.102564
195,4404.102564,4562.564102,4522.564102,4276.923076,4503.589743,4188.205128,4453.846153,4231.282051,4232.307692,4502.051282,4206.666666,4650.769230,4029.230769,4071.794871
196,4404.102564,4566.153846,4524.102564,4262.051282,4506.666666,4186.153846,4449.230769,4231.794871,4235.897435,4506.666666,4202.564102,4648.717948,4023.076923,4071.794871
197,4409.230769,4566.153846,4532.820512,4268.717948,4511.282051,4192.307692,4452.820512,4237.948717,4244.615384,4512.307692,4215.384615,4654.358974,4024.615384,4073.846153
198,4410.256410,4568.717948,4535.384615,4283.076923,4514.358974,4196.923076,4462.051282,4243.589743,4250.769230,4514.358974,4237.435897,4662.051282,4039.487179,4077.435897
199,4405.128205,4572.820512,4534.358974,4281.025641,4516.410256,4196.410256,4463.076923,4242.051282,4254.871794,4523.076923,4244.615384,4663.076923,4046.153846,4073.846153
200,4406.153846,4571.794871,4530.256410,4271.282051,4516.923076,4196.410256,4454.358974,4240.512820,4253.333333,4526.153846,4226.666666,4658.974358,4037.948717,4072.307692
201,4408.717948,4571.282051,4529.230769,4263.076923,4512.820512,4194.871794,4447.179487,4237.948717,4245.128205,4514.358974,4216.410256,4655.897435,4028.717948,4078.974358
202,4408.717948,4568.717948,4532.820512,4261.538461,4511.794871,4191.794871,4446.153846,4232.820512,4240.000000,4507.179487,4230.769230,4657.435897,4033.846153,4076.410256
203,4406.666666,4561.025641,4528.205128,4263.589743,4513.333333,4190.769230,4445.641025,4229.743589,4242.051282,4510.256410,4228.717948,4656.410256,4037.435897,4061.025641
204,4402.051282,4561.025641,4522.564102,4263.076923,4508.205128,4187.179487,4440.000000,4222.051282,4243.589743,4512.307692,4209.230769,4649.743589,4028.717948,4061.538461
205,4404.102564,4572.307692,4526.666666,4261.538461,4504.615384,4183.589743,4438.461538,4212.820512,4241.025641,4513.846153,4218.461538,4650.256410,4027.179487,4080.000000
206,4413.846153,4575.897435,4533.846153,4264.102564,4508.205128,4185.128205,4439.487179,4215.384615,4240.512820,4515.384615,4240.000000,4658.461538,4040.000000,4087.179487
207,4420.512820,4574.871794,4536.923076,4273.846153,4508.717948,4189.230769,4439.487179,4225.128205,4247.692307,4520.512820,4232.820512,4665.128205,4046.666666,4085.128205
208,4421.025641,4581.025641,4541.025641,4280.512820,4507.179487,4191.282051,4443.076923,4231.282051,4249.230769,4526.153846,4223.589743,4669.743589,4041.538461,4082.564102
209,4418.974358,4585.128205,4542.051282,4279.487179,4508.717948,4192.820512,4445.641025,4230.769230,4241.025641,4514.358974,4231.282051,4667.179487,4038.974358,4076.410256
210,4409.743589,4582.051282,4535.384615,4269.743589,4511.794871,4193.333333,4444.102564,4228.717948,4238.461538,4501.025641,4231.794871,4658.461538,4037.435897,4071.794871
211,4397.435897,4573.333333,4525.641025,4253.333333,4511.794871,4191.282051,4442.564102,4227.692307,4240.512820,4506.666666,4222.564102,4649.230769,4026.153846,4068.205128
212,4400.000000,4566.153846,4521.538461,4252.820512,4506.153846,4191.282051,4444.102564,4227.179487,4238.974358,4509.743589,4212.820512,4645.128205,4018.461538,4064.615384
213,4411.794871,4571.794871,4528.205128,4270.769230,4506.666666,4194.358974,4448.205128,4230.256410,4241.025641,4505.641025,4216.410256,4652.307692,4031.794871,4068.717948
214,4410.769230,4577.948717,4534.358974,4273.333333,4510.256410,4194.871794,4447.692307,4231.794871,4248.205128,4513.846153,4229.743589,4662.051282,4044.615384,4071.794871
215,4401.025641,4570.256410,4531.794871,4253.333333,4506.666666,4190.769230,4442.564102,4228.717948,4248.717948,4519.487179,4228.205128,4657.435897,4034.358974,4069.743589
216,4403.589743,4566.153846,4525.641025,4252.820512,4503.589743,4188.205128,4441.025641,4229.743589,4243.589743,4510.256410,4218.461538,4650.256410,4025.128205,4072.307692
217,4412.307692,4574.871794,4528.717948,4271.794871,4508.205128,4191.794871,4445.641025,4236.923076,4241.538461,4507.179487,4223.589743,4656.923076,4028.205128,4074.871794
218,4408.717948,4575.384615,4532.820512,4268.717948,4505.128205,4192.307692,4445.641025,4235.384615,4242.564102,4513.333333,4232.820512,4661.025641,4023.589743,4071.282051
219,4394.871794,4564.615384,4522.051282,4247.179487,4496.923076,4184.102564,4438.461538,4226.153846,4238.461538,4509.230769,4218.461538,4648.205128,4017.948717,4060.512820
220,4391.282051,4562.051282,4514.358974,4247.179487,4498.461538,4183.076923,4437.435897,4224.102564,4235.384615,4503.076923,4203.076923,4641.538461,4027.179487,4057.948717
221,4403.076923,4572.307692,4523.589743,4263.589743,4502.564102,4192.307692,4441.025641,4226.666666,4240.000000,4507.179487,4212.820512,4649.743589,4032.820512,4069.230769
222,4405.128205,4574.358974,4525.128205,4266.666666,4501.025641,4189.230769,4437.948717,4223.589743,4241.025641,4510.769230,4221.538461,4651.794871,4025.128205,4072.307692
223,4396.410256,4565.128205,4517.435897,4258.461538,4499.487179,4181.538461,4435.897435,4217.948717,4234.358974,4503.076923,4212.820512,4644.615384,4020.512820,4064.615384
224,4396.923076,4566.153846,4520.512820,4252.820512,4502.564102,4186.153846,4442.564102,4221.538461,4230.256410,4495.384615,4204.102564,4645.641025,4020.512820,4060.512820
225,4397.948717,4575.897435,4523.589743,4254.871794,4504.615384,4189.230769,4446.153846,4227.692307,4227.692307,4494.358974,4212.307692,4651.282051,4020.000000,4055.897435
226,4395.384615,4572.820512,4522.051282,4260.000000,4500.512820,4188.205128,4439.487179,4225.641025,4226.153846,4493.846153,4224.615384,4652.307692,4021.538461,4056.923076
227,4398.461538,4565.128205,4522.051282,4261.538461,4501.025641,4188.205128,4434.871794,4223.076923,4225.641025,4493.846153,4224.102564,4652.307692,4024.102564,4064.615384
228,4402.051282,4567.692307,4522.564102,4258.974358,4501.538461,4183.076923,4437.435897,4224.102564,4228.717948,4501.025641,4214.358974,4651.794871,4023.589743,4061.538461
229,4401.025641,4573.846153,4521.538461,4252.820512,4497.948717,4181.538461,4439.487179,4228.717948,4236.923076,4509.743589,4213.846153,4651.282051,4023.589743,4061.538461
230,4402.564102,4574.358974,4524.102564,4249.743589,4498.974358,4189.743589,4438.974358,4230.769230,4243.076923,4514.358974,4223.076923,4656.410256,4024.102564,4070.256410
231,4407.692307,4575.897435,4531.282051,4256.410256,4507.692307,4191.794871,4441.025641,4229.230769,4244.615384,4516.410256,4228.205128,4663.076923,4026.153846,4073.846153
232,4409.743589,4572.820512,4535.897435,4265.128205,4510.769230,4190.769230,4444.102564,4228.717948,4243.589743,4508.205128,4221.538461,4663.076923,4024.102564,4073.846153
233,4410.769230,4566.153846,4535.897435,4260.512820,4508.205128,4192.820512,4441.025641,4228.205128,4240.512820,4501.538461,4212.307692,4658.974358,4015.897435,4072.820512
234,4408.205128,4569.743589,4538.974358,4251.282051,4511.282051,4192.820512,4437.948717,4226.666666,4238.974358,4509.743589,4217.948717,4656.923076,4010.256410,4071.794871
235,4398.461538,4573.846153,4541.025641,4245.641025,4509.743589,4191.794871,4441.538461,4223.076923,4237.435897,4510.769230,4227.179487,4652.307692,4005.128205,4069.230769
236,4391.282051,4565.641025,4534.358974,4246.153846,4506.153846,4192.307692,4437.948717,4221.538461,4237.948717,4505.128205,4215.897435,4640.512820,3994.358975,4058.461538
237,4395.384615,4564.102564,4537.948717,4249.230769,4508.717948,4190.769230,4433.333333,4225.641025,4243.589743,4509.230769,4205.641025,4640.512820,3990.256411,4055.384615
238,4398.461538,4566.666666,4548.717948,4247.692307,4506.153846,4187.179487,4437.435897,4229.230769,4244.102564,4507.692307,4214.358974,4648.205128,3994.871795,4066.666666
239,4394.358974,4561.538461,4545.641025,4244.102564,4498.974358,4186.666666,4441.025641,4225.641025,4233.846153,4495.897435,4222.564102,4649.230769,3993.846154,4070.769230
240,4394.871794,4561.025641,4544.615384,4246.666666,4500.000000,4185.641025,4440.000000,4227.692307,4233.846153,4497.948717,4220.512820,4651.282051,3991.794872,4064.615384
241,4392.307692,4563.589743,4548.717948,4250.256410,4501.025641,4182.564102,4438.461538,4234.871794,4243.589743,4503.589743,4209.743589,4650.256410,3989.230770,4061.538461
242,4388.205128,4555.897435,4546.666666,4249.743589,4496.923076,4182.564102,4435.897435,4232.820512,4239.487179,4497.435897,4202.051282,4641.025641,3982.564103,4057.435897
243,4390.256410,4551.282051,4542.564102,4242.051282,4497.948717,4183.076923,4430.769230,4227.179487,4225.641025,4494.871794,4206.666666,4638.974358,3977.435898,4054.871794
244,4389.230769,4554.871794,4541.025641,4233.846153,4494.871794,4178.974358,4428.717948,4225.641025,4228.205128,4495.384615,4205.641025,4641.025641,3974.871795,4057.948717
245,4387.692307,4556.410256,4539.487179,4240.000000,4491.282051,4178.461538,4428.205128,4223.076923,4238.461538,4493.846153,4192.820512,4635.897435,3977.435898,4057.948717
246,4389.743589,4557.948717,4540.000000,4250.769230,4494.871794,4180.512820,4427.692307,4223.589743,4235.897435,4493.333333,4196.410256,4633.846153,3983.076924,4055.897435
247,4390.256410,4560.000000,4542.051282,4251.282051,4498.461538,4178.461538,4429.743589,4223.589743,4230.256410,4494.358974,4206.666666,4637.435897,3984.102565,4057.435897
248,4392.307692,4557.948717,4542.051282,4253.846153,4495.897435,4177.435897,4429.230769,4214.871794,4230.256410,4491.794871,4198.974358,4637.435897,3981.025642,4056.410256
249,4393.333333,4558.461538,4541.538461,4256.410256,4494.358974,4176.923076,4427.692307,4211.282051,4226.153846,4487.692307,4197.948717,4635.384615,3981.025642,4052.307692
250,4388.717948,4555.384615,4537.948717,4246.666666,4496.923076,4177.948717,4429.743589,4213.846153,4223.076923,4487.692307,4204.615384,4630.256410,3980.000000,4052.307692
251,4387.179487,4549.743589,4533.846153,4241.538461,4500.512820,4181.538461,4430.769230,4214.871794,4227.179487,4486.666666,4196.923076,4627.692307,3973.333334,4052.307692
252,4387.692307,4550.769230,4536.923076,4250.769230,4500.000000,4182.051282,4430.256410,4214.871794,4227.179487,4486.153846,4194.871794,4628.205128,3973.333334,4047.692307
253,4384.102564,4555.384615,4537.948717,4250.256410,4492.307692,4177.948717,4427.179487,4211.794871,4224.102564,4484.102564,4198.461538,4625.641025,3981.025642,4049.230769
254,4384.102564,4552.820512,4534.358974,4244.102564,4491.282051,4175.897435,4424.615384,4211.282051,4222.564102,4480.512820,4190.256410,4626.666666,3980.512821,4051.282051
255,4386.666666,4548.717948,4532.820512,4250.256410,4492.820512,4176.410256,4425.128205,4213.846153,4221.538461,4480.512820,4188.205128,4631.282051,3976.410257,4050.769230
256,4383.589743,4546.666666,4535.384615,4249.743589,4489.743589,4173.846153,4424.615384,4213.333333,4227.692307,4486.666666,4203.076923,4629.743589,3977.435898,4051.282051
257,4381.025641,4548.205128,4536.410256,4235.897435,4489.230769,4173.333333,4424.615384,4215.897435,4237.948717,4495.384615,4208.717948,4631.282051,3979.487180,4051.282051
258,4385.641025,4554.871794,4541.025641,4240.512820,4492.820512,4176.410256,4432.820512,4221.538461,4236.923076,4497.435897,4204.102564,4638.974358,3986.153847,4057.948717
259,4395.897435,4558.974358,4545.641025,4257.435897,4494.871794,4178.461538,4438.461538,4223.589743,4227.179487,4491.282051,4205.128205,4641.538461,3991.794872,4065.128205
