,AF3,F7,F3,FC5,T7,P7,O1,O2,P8,T8,FC6,F4,F8,AF4
0,4387.692307,4493.846153,4531.794871,4280.000000,4518.974358,4180.000000,4444.102564,4204.615384,4242.051282,4454.871794,4179.487179,4636.410256,3974.871795,4062.051282
1,4396.923076,4498.974358,4535.384615,4281.025641,4521.538461,4189.743589,4450.256410,4215.384615,4255.384615,4470.256410,4191.282051,4644.102564,3975.384616,4067.179487
2,4393.333333,4497.435897,4533.333333,4278.974358,4521.538461,4185.641025,4447.179487,4209.230769,4249.743589,4471.794871,4186.153846,4637.435897,3970.769231,4068.717948
3,4380.000000,4488.205128,4526.153846,4271.282051,4513.846153,4174.871794,4438.461538,4192.820512,4226.153846,4448.717948,4168.717948,4623.589743,3964.615385,4056.923076
4,4377.948717,4481.538461,4527.692307,4280.512820,4517.948717,4179.487179,4437.948717,4192.820512,4227.179487,4446.153846,4169.230769,4626.153846,3966.153847,4052.820512
5,4386.153846,4484.102564,4533.846153,4291.794871,4521.538461,4183.589743,4441.025641,4199.487179,4242.051282,4456.923076,4176.410256,4633.846153,3965.128206,4059.487179
6,4391.794871,4492.307692,4533.846153,4283.076923,4511.794871,4176.923076,4439.487179,4198.974358,4240.000000,4455.384615,4175.384615,4631.794871,3963.076924,4062.051282
7,4392.820512,4497.435897,4533.333333,4271.282051,4512.820512,4180.000000,4440.512820,4201.025641,4235.384615,4453.846153,4176.923076,4630.256410,3964.615385,4057.948717
8,4386.153846,4491.282051,4532.307692,4273.846153,4524.102564,4187.179487,4444.102564,4198.461538,4238.461538,4455.897435,4172.307692,4630.256410,3963.589744,4054.871794
9,4381.538461,4483.076923,4526.666666,4283.589743,4523.076923,4182.051282,4442.564102,4191.282051,4236.923076,4451.282051,4163.076923,4627.179487,3961.538462,4056.410256
10,4388.205128,4490.769230,4527.692307,4287.692307,4521.538461,4180.512820,4442.051282,4195.897435,4233.846153,4453.846153,4173.333333,4630.256410,3966.153847,4062.051282
11,4394.358974,4502.051282,4532.820512,4286.666666,4525.128205,4188.717948,4447.179487,4204.615384,4235.897435,4460.000000,4188.205128,4635.384615,3971.794872,4063.076923
12,4390.769230,4494.358974,4532.307692,4282.051282,4521.538461,4186.153846,4446.666666,4200.512820,4237.948717,4455.384615,4188.205128,4634.871794,3966.153847,4055.384615
13,4387.692307,4487.179487,4530.769230,4274.358974,4517.435897,4183.076923,4443.589743,4199.487179,4241.025641,4456.923076,4181.025641,4635.384615,3967.692308,4055.897435
14,4390.769230,4493.333333,4531.282051,4278.461538,4521.025641,4187.692307,4447.179487,4206.666666,4245.128205,4460.512820,4177.948717,4636.923076,3978.974359,4066.153846
15,4390.769230,4494.871794,4530.769230,4288.205128,4522.051282,4185.641025,4447.179487,4204.102564,4242.564102,4456.410256,4178.461538,4633.333333,3978.461539,4066.153846
16,4384.102564,4485.641025,4528.205128,4287.179487,4519.487179,4182.564102,4442.564102,4196.923076,4236.410256,4456.923076,4184.615384,4630.256410,3971.282052,4056.410256
17,4381.538461,4486.153846,4527.692307,4280.000000,4521.025641,4184.615384,4443.589743,4201.538461,4238.974358,4465.128205,4193.333333,4632.820512,3973.333334,4058.461538
18,4389.743589,4497.435897,4529.230769,4276.923076,4517.948717,4185.641025,4446.153846,4208.205128,4250.256410,4464.615384,4195.384615,4635.384615,3980.000000,4069.743589
19,4394.358974,4503.076923,4533.333333,4281.538461,4511.794871,4186.153846,4443.589743,4205.641025,4254.871794,4461.538461,4187.692307,4634.871794,3985.641026,4066.666666
20,4386.153846,4498.461538,4530.256410,4281.538461,4515.384615,4183.076923,4436.923076,4198.974358,4245.641025,4465.128205,4185.641025,4633.333333,3981.538462,4055.897435
21,4387.692307,4496.923076,4527.692307,4281.025641,4514.871794,4172.820512,4428.717948,4198.461538,4235.897435,4464.615384,4198.461538,4637.948717,3974.871795,4064.615384
22,4399.487179,4503.076923,4537.948717,4291.794871,4511.794871,4173.333333,4430.256410,4200.000000,4238.974358,4462.564102,4204.615384,4644.615384,3983.589744,4080.512820
23,4401.538461,4509.743589,4543.589743,4288.205128,4513.846153,4181.025641,4437.948717,4201.538461,4245.641025,4468.205128,4192.820512,4645.128205,3989.743590,4075.897435
24,4396.923076,4511.794871,4535.384615,4275.897435,4513.333333,4178.974358,4440.512820,4202.051282,4243.589743,4468.205128,4186.666666,4645.128205,3987.692308,4068.717948
25,4396.410256,4505.641025,4531.794871,4287.179487,4514.358974,4178.974358,4441.025641,4200.000000,4235.897435,4455.897435,4189.743589,4645.128205,3994.358975,4075.384615
26,4396.923076,4496.410256,4533.846153,4294.871794,4522.564102,4183.076923,4438.461538,4199.487179,4234.358974,4455.897435,4190.256410,4642.564102,3985.128206,4074.358974
27,4393.333333,4494.871794,4532.307692,4283.589743,4523.076923,4183.076923,4437.435897,4200.512820,4241.025641,4471.794871,4190.769230,4638.974358,3964.102565,4063.076923
28,4392.820512,4503.076923,4531.794871,4285.128205,4514.871794,4182.564102,4440.000000,4200.512820,4244.102564,4470.769230,4195.897435,4640.512820,3971.282052,4061.538461
29,4397.435897,4510.256410,4534.358974,4294.871794,4511.282051,4180.000000,4439.487179,4200.512820,4238.461538,4460.512820,4191.794871,4640.512820,3989.230770,4069.230769
30,4398.461538,4507.692307,4533.846153,4288.717948,4505.641025,4175.897435,4435.897435,4201.538461,4240.000000,4463.076923,4186.153846,4637.948717,3987.179488,4074.358974
31,4398.461538,4502.051282,4533.333333,4282.564102,4505.128205,4181.538461,4435.897435,4202.051282,4249.743589,4471.794871,4193.846153,4642.051282,3990.256411,4073.333333
32,4398.461538,4498.974358,4536.923076,4292.307692,4512.820512,4186.666666,4439.487179,4202.051282,4249.230769,4470.769230,4204.102564,4647.692307,3995.897436,4068.205128
33,4400.000000,4500.000000,4537.435897,4295.897435,4519.487179,4182.051282,4442.564102,4201.538461,4242.051282,4462.051282,4206.666666,4647.179487,3982.564103,4066.666666
34,4400.000000,4506.153846,4534.871794,4287.692307,4522.051282,4182.564102,4440.000000,4200.000000,4239.487179,4460.000000,4203.589743,4643.076923,3976.923077,4071.794871
35,4400.512820,4513.333333,4534.358974,4286.666666,4520.000000,4185.128205,4434.358974,4199.487179,4242.564102,4466.153846,4190.256410,4641.538461,3991.794872,4073.333333
36,4401.538461,4515.897435,4536.410256,4293.333333,4518.974358,4183.589743,4439.487179,4200.000000,4246.666666,4469.743589,4182.051282,4643.076923,3996.923077,4068.205128
37,4406.153846,4516.410256,4540.000000,4296.410256,4523.589743,4190.256410,4449.230769,4207.179487,4253.846153,4470.256410,4194.358974,4647.692307,3995.384616,4072.820512
38,4410.256410,4515.384615,4542.051282,4298.461538,4525.128205,4197.948717,4447.692307,4214.871794,4257.435897,4472.307692,4204.102564,4646.153846,4002.564102,4084.102564
39,4405.128205,4508.205128,4536.410256,4300.512820,4519.487179,4192.820512,4446.153846,4208.717948,4255.384615,4469.743589,4194.871794,4635.897435,3996.923077,4075.384615
40,4396.410256,4500.512820,4525.128205,4284.615384,4512.820512,4183.589743,4444.615384,4199.487179,4250.769230,4458.974358,4181.538461,4629.743589,3976.410257,4053.846153
41,4392.307692,4496.410256,4520.512820,4268.717948,4508.717948,4181.538461,4438.974358,4196.410256,4244.615384,4454.871794,4180.000000,4628.717948,3973.333334,4051.282051
42,4398.974358,4503.589743,4527.692307,4280.512820,4512.820512,4186.666666,4444.102564,4203.076923,4244.615384,4462.051282,4192.820512,4630.256410,3981.538462,4066.666666
43,4406.153846,4512.307692,4533.846153,4300.000000,4520.512820,4192.307692,4454.358974,4214.358974,4249.743589,4468.205128,4204.615384,4636.410256,3982.051283,4074.358974
44,4403.076923,4512.820512,4532.307692,4303.589743,4522.564102,4188.205128,4448.205128,4209.743589,4249.743589,4463.076923,4195.897435,4641.025641,3987.692308,4069.230769
45,4404.102564,4512.820512,4533.333333,4293.333333,4522.564102,4187.692307,4444.102564,4201.025641,4247.179487,4462.051282,4188.205128,4640.000000,3998.461539,4066.153846
46,4408.717948,4515.897435,4538.974358,4289.230769,4520.000000,4194.358974,4452.820512,4208.205128,4249.230769,4473.333333,4203.076923,4642.051282,3993.333334,4070.256410
47,4401.538461,4512.307692,4535.897435,4297.435897,4515.897435,4192.820512,4454.358974,4212.307692,4249.743589,4473.846153,4214.358974,4643.589743,3977.948718,4069.743589
48,4388.205128,4504.102564,4524.615384,4293.333333,4516.410256,4187.179487,4449.743589,4202.051282,4240.512820,4456.923076,4197.435897,4633.333333,3975.384616,4057.435897
49,4387.179487,4501.025641,4521.538461,4280.000000,4520.512820,4185.128205,4447.179487,4197.948717,4232.820512,4444.615384,4180.000000,4625.128205,3983.589744,4052.307692
50,4394.358974,4496.410256,4528.205128,4284.615384,4523.076923,4187.179487,4449.230769,4205.128205,4242.564102,4452.820512,4192.307692,4632.820512,3985.641026,4065.128205
51,4394.871794,4489.230769,4532.820512,4291.794871,4520.000000,4191.794871,4456.410256,4214.871794,4262.564102,4467.179487,4211.282051,4641.025641,3980.000000,4068.717948
52,4388.205128,4494.358974,4528.717948,4275.384615,4513.333333,4190.256410,4459.487179,4219.487179,4262.564102,4465.641025,4200.000000,4635.897435,3976.410257,4054.358974
53,4383.589743,4504.615384,4527.179487,4277.435897,4514.871794,4187.692307,4455.384615,4214.871794,4244.615384,4452.820512,4184.102564,4633.333333,3982.051283,4055.384615
54,4393.846153,4503.589743,4532.307692,4305.128205,4523.076923,4194.358974,4459.487179,4215.384615,4243.589743,4454.358974,4196.410256,4636.923076,3992.307693,4071.282051
55,4403.589743,4497.435897,4533.333333,4299.487179,4524.615384,4197.948717,4466.666666,4217.435897,4253.333333,4467.179487,4205.641025,4635.384615,3990.769231,4067.692307
56,4396.923076,4499.487179,4528.717948,4282.051282,4521.538461,4193.846153,4461.538461,4213.846153,4250.769230,4466.153846,4197.948717,4634.871794,3985.128206,4057.948717
57,4394.358974,4509.743589,4526.153846,4293.846153,4523.589743,4200.000000,4459.487179,4214.871794,4251.282051,4461.025641,4198.461538,4638.461538,3992.820513,4067.692307
58,4405.641025,4515.384615,4528.205128,4302.051282,4527.179487,4204.615384,4468.205128,4218.974358,4256.410256,4469.743589,4208.205128,4639.487179,3997.948718,4077.435897
59,4404.615384,4508.717948,4529.230769,4292.307692,4528.717948,4197.948717,4470.769230,4216.923076,4252.820512,4472.307692,4213.846153,4640.000000,3991.282052,4069.230769
60,4394.358974,4498.461538,4529.230769,4292.307692,4528.205128,4198.461538,4466.666666,4217.435897,4252.820512,4466.153846,4209.230769,4643.589743,3990.256411,4064.102564
61,4401.538461,4497.948717,4530.769230,4298.461538,4522.051282,4201.025641,4466.666666,4222.051282,4257.948717,4467.179487,4200.000000,4645.128205,3990.769231,4072.307692
62,4410.769230,4505.641025,4531.794871,4298.461538,4513.333333,4191.282051,4465.641025,4221.538461,4254.358974,4468.717948,4200.000000,4643.076923,3995.384616,4078.461538
63,4403.589743,4508.205128,4530.769230,4297.948717,4512.820512,4186.666666,4460.512820,4216.923076,4252.820512,4466.153846,4206.666666,4643.076923,4003.076923,4073.333333
64,4394.358974,4507.179487,4525.641025,4294.358974,4520.512820,4192.307692,4457.435897,4211.282051,4255.897435,4468.205128,4200.000000,4640.000000,3992.307693,4063.589743
65,4393.333333,4505.641025,4516.923076,4290.769230,4522.051282,4192.307692,4454.358974,4201.025641,4249.230769,4465.641025,4185.128205,4630.256410,3973.333334,4059.487179
66,4393.846153,4502.051282,4512.307692,4292.820512,4519.487179,4187.692307,4451.282051,4195.897435,4238.974358,4454.358974,4187.692307,4625.128205,3979.487180,4061.025641
67,4391.794871,4501.025641,4521.025641,4293.846153,4518.974358,4188.717948,4451.794871,4201.025641,4238.461538,4455.384615,4196.923076,4630.256410,3995.384616,4061.025641
68,4394.871794,4508.205128,4532.820512,4295.384615,4516.923076,4192.820512,4453.846153,4204.102564,4241.025641,4464.102564,4192.307692,4636.923076,3990.769231,4063.076923
69,4405.128205,4517.435897,4535.897435,4297.435897,4513.846153,4192.307692,4456.923076,4200.000000,4242.564102,4467.692307,4191.282051,4641.538461,3985.128206,4070.769230
70,4408.205128,4513.333333,4535.384615,4295.897435,4515.384615,4192.820512,4460.000000,4203.076923,4246.153846,4463.589743,4205.128205,4644.102564,3990.256411,4075.897435
71,4404.102564,4504.102564,4535.384615,4298.974358,4519.487179,4196.923076,4463.076923,4214.358974,4254.871794,4456.410256,4206.153846,4647.692307,3991.794872,4071.794871
72,4405.641025,4505.641025,4536.923076,4295.897435,4523.076923,4197.435897,4468.717948,4217.435897,4260.512820,4463.589743,4198.461538,4652.820512,3993.333334,4072.307692
73,4411.794871,4511.282051,4540.512820,4290.256410,4523.076923,4195.384615,4471.794871,4219.487179,4260.512820,4477.435897,4209.230769,4654.871794,4000.000000,4084.615384
74,4420.000000,4514.871794,4547.692307,4302.564102,4518.461538,4198.974358,4471.282051,4228.205128,4269.743589,4484.102564,4221.538461,4656.923076,4006.666666,4094.358974
75,4416.923076,4513.333333,4544.102564,4304.615384,4516.923076,4197.948717,4467.692307,4224.102564,4271.794871,4477.948717,4214.358974,4653.846153,4002.051282,4082.564102
76,4396.410256,4504.102564,4529.230769,4284.102564,4515.384615,4183.589743,4455.384615,4202.564102,4247.179487,4462.051282,4197.435897,4639.487179,3989.230770,4062.564102
77,4390.769230,4504.615384,4525.641025,4283.589743,4517.435897,4179.487179,4451.794871,4193.846153,4233.333333,4453.846153,4195.384615,4635.384615,3978.461539,4064.615384
78,4406.666666,4516.410256,4533.333333,4300.000000,4525.128205,4193.846153,4461.025641,4208.717948,4248.205128,4466.153846,4207.179487,4645.641025,3982.051283,4077.948717
79,4404.615384,4504.615384,4532.820512,4294.358974,4520.000000,4196.410256,4460.512820,4213.333333,4250.256410,4471.282051,4203.076923,4644.102564,3993.846154,4071.794871
80,4393.333333,4488.717948,4528.205128,4284.615384,4508.205128,4187.179487,4454.871794,4206.666666,4241.025641,4458.974358,4191.794871,4637.435897,3994.871795,4058.974358
81,4401.538461,4504.102564,4533.333333,4288.717948,4513.846153,4189.230769,4465.128205,4213.333333,4251.794871,4465.128205,4200.512820,4641.538461,3992.307693,4068.205128
82,4406.666666,4514.871794,4535.897435,4291.282051,4525.641025,4197.948717,4471.794871,4221.025641,4260.512820,4476.923076,4211.282051,4644.615384,3995.897436,4082.051282
83,4405.128205,4507.179487,4537.435897,4296.410256,4522.051282,4200.000000,4465.128205,4216.923076,4258.974358,4470.256410,4214.358974,4645.128205,4003.076923,4083.076923
84,4412.307692,4512.307692,4544.102564,4298.974358,4517.948717,4197.948717,4465.128205,4216.410256,4263.076923,4469.230769,4217.948717,4653.333333,4008.717948,4084.615384
85,4412.307692,4513.333333,4542.051282,4290.256410,4520.000000,4192.307692,4468.205128,4216.410256,4260.512820,4474.871794,4213.333333,4654.871794,4001.538461,4090.256410
86,4400.000000,4501.025641,4536.923076,4285.641025,4516.410256,4188.205128,4460.512820,4210.256410,4253.846153,4470.256410,4200.000000,4644.615384,3989.743590,4089.743589
87,4403.076923,4505.641025,4539.487179,4294.358974,4517.435897,4195.384615,4457.435897,4212.307692,4256.410256,4472.307692,4195.897435,4641.538461,3995.897436,4085.641025
88,4413.846153,4522.051282,4543.589743,4301.538461,4528.205128,4201.538461,4463.589743,4220.000000,4257.948717,4477.948717,4204.615384,4647.692307,4003.076923,4087.692307
89,4410.256410,4525.128205,4540.512820,4302.051282,4532.307692,4196.410256,4460.512820,4214.358974,4251.794871,4470.769230,4209.230769,4646.153846,3990.256411,4087.179487
90,4402.564102,4515.384615,4540.512820,4294.871794,4526.666666,4195.897435,4453.333333,4205.641025,4250.769230,4470.256410,4198.974358,4640.512820,3981.538462,4084.615384
91,4409.230769,4507.692307,4545.641025,4288.205128,4523.589743,4200.512820,4459.487179,4208.205128,4257.435897,4477.948717,4193.846153,4645.641025,3995.897436,4091.282051
92,4420.000000,4513.333333,4553.333333,4296.410256,4523.076923,4200.512820,4467.692307,4216.410256,4258.974358,4477.435897,4209.743589,4654.358974,4006.153846,4098.974358
93,4417.948717,4519.487179,4558.974358,4307.692307,4526.153846,4201.025641,4465.641025,4217.948717,4255.897435,4469.230769,4222.564102,4656.410256,4000.000000,4097.435897
94,4408.717948,4508.717948,4556.923076,4300.512820,4531.282051,4200.512820,4458.461538,4213.333333,4254.871794,4461.538461,4218.461538,4652.820512,3991.282052,4091.794871
95,4408.717948,4497.948717,4556.923076,4289.743589,4528.205128,4195.384615,4455.384615,4213.846153,4256.923076,4465.641025,4210.769230,4653.846153,3990.769231,4093.333333
96,4417.435897,4508.205128,4563.589743,4296.410256,4521.538461,4195.384615,4461.538461,4217.948717,4257.948717,4476.410256,4207.692307,4661.025641,3995.384616,4094.871794
97,4417.948717,4518.461538,4567.692307,4300.512820,4522.051282,4201.025641,4468.717948,4217.948717,4257.948717,4476.410256,4206.666666,4661.538461,3998.461539,4094.358974
98,4405.128205,4509.743589,4560.512820,4283.076923,4524.102564,4198.461538,4465.128205,4216.410256,4256.410256,4468.205128,4203.076923,4650.769230,3996.410257,4091.794871
99,4400.512820,4498.974358,4554.871794,4277.948717,4520.512820,4194.871794,4456.923076,4214.871794,4251.282051,4465.641025,4206.153846,4647.179487,3988.205129,4086.666666
100,4413.333333,4504.102564,4558.974358,4298.461538,4521.538461,4196.410256,4455.897435,4210.769230,4249.743589,4467.179487,4213.846153,4653.846153,3987.179488,4086.666666
101,4419.487179,4516.410256,4562.564102,4307.179487,4529.743589,4198.461538,4460.512820,4210.769230,4254.358974,4474.358974,4210.256410,4655.384615,3997.948718,4090.256410
102,4412.820512,4515.897435,4561.538461,4301.538461,4532.820512,4196.410256,4458.974358,4212.820512,4255.897435,4476.923076,4204.615384,4652.307692,3997.435898,4091.794871
103,4411.794871,4506.666666,4561.538461,4300.512820,4525.641025,4191.794871,4452.820512,4209.230769,4253.846153,4467.692307,4211.282051,4653.846153,3988.205129,4094.871794
104,4413.333333,4505.128205,4562.051282,4293.846153,4521.538461,4189.743589,4451.794871,4206.666666,4252.820512,4464.615384,4213.846153,4656.410256,3991.794872,4093.846153
105,4408.205128,4507.179487,4558.461538,4287.179487,4522.051282,4189.743589,4454.871794,4204.102564,4250.256410,4464.102564,4207.179487,4653.333333,3997.948718,4086.153846
106,4407.179487,4508.205128,4554.871794,4292.820512,4521.538461,4190.256410,4458.461538,4204.102564,4249.743589,4466.153846,4206.666666,4649.230769,3993.333334,4088.205128
107,4409.743589,4510.256410,4558.461538,4294.871794,4529.743589,4195.384615,4460.000000,4212.820512,4256.410256,4475.384615,4213.333333,4654.358974,3989.230770,4098.461538
108,4411.282051,4508.205128,4562.564102,4293.846153,4536.923076,4200.512820,4459.487179,4216.410256,4261.538461,4475.384615,4217.435897,4662.051282,3994.871795,4095.897435
109,4411.282051,4501.025641,4558.974358,4296.923076,4525.641025,4199.487179,4465.641025,4211.794871,4255.384615,4468.205128,4217.948717,4658.974358,3997.435898,4087.179487
110,4403.076923,4495.384615,4550.769230,4291.282051,4518.461538,4195.384615,4469.230769,4211.794871,4248.717948,4467.692307,4212.307692,4651.282051,3989.743590,4084.615384
111,4392.307692,4492.820512,4545.128205,4281.025641,4524.615384,4193.846153,4462.051282,4213.846153,4250.769230,4471.794871,4207.692307,4646.153846,3985.641026,4078.974358
112,4398.461538,4496.410256,4548.205128,4282.051282,4522.564102,4196.923076,4464.615384,4213.333333,4260.000000,4476.410256,4212.307692,4647.179487,3990.769231,4074.871794
113,4407.179487,4496.923076,4554.358974,4294.871794,4521.025641,4199.487179,4472.820512,4220.000000,4266.666666,4477.435897,4210.256410,4651.282051,3991.282052,4077.435897
114,4397.948717,4486.153846,4552.820512,4294.358974,4523.076923,4195.384615,4467.179487,4220.512820,4263.076923,4471.794871,4201.025641,4646.153846,3983.076924,4076.923076
115,4388.717948,4483.589743,4545.641025,4277.948717,4518.461538,4195.384615,4464.102564,4213.846153,4257.948717,4466.666666,4206.153846,4641.025641,3981.025642,4074.871794
116,4397.948717,4490.256410,4545.641025,4273.846153,4519.487179,4202.051282,4474.358974,4215.897435,4257.435897,4468.717948,4210.256410,4648.717948,3983.076924,4076.923076
117,4410.769230,4496.410256,4555.384615,4289.743589,4524.615384,4202.564102,4477.948717,4218.461538,4255.384615,4467.179487,4198.461538,4655.897435,3983.076924,4081.025641
118,4409.230769,4502.564102,4556.923076,4301.025641,4524.102564,4201.025641,4471.282051,4211.794871,4250.769230,4463.076923,4198.461538,4650.769230,3985.128206,4085.128205
119,4403.076923,4499.487179,4552.307692,4301.025641,4522.564102,4203.076923,4463.589743,4208.717948,4246.153846,4465.641025,4205.128205,4644.615384,3989.230770,4083.076923
120,4404.615384,4496.923076,4551.282051,4293.333333,4524.615384,4199.487179,4458.461538,4210.256410,4247.692307,4467.179487,4201.025641,4649.230769,3989.230770,4077.948717
121,4409.743589,4506.666666,4552.307692,4283.589743,4525.128205,4195.384615,4460.512820,4208.205128,4252.820512,4463.076923,4202.051282,4652.307692,3985.128206,4079.487179
122,4409.230769,4508.205128,4545.641025,4283.076923,4524.102564,4196.923076,4461.025641,4205.641025,4251.794871,4460.512820,4203.076923,4644.615384,3979.487180,4080.000000
123,4404.615384,4500.512820,4541.025641,4291.794871,4522.051282,4199.487179,4457.948717,4205.128205,4247.179487,4471.282051,4196.410256,4640.512820,3984.102565,4076.410256
124,4402.051282,4496.923076,4546.153846,4298.974358,4523.076923,4200.000000,4461.025641,4209.743589,4251.794871,4481.025641,4201.025641,4648.205128,3994.871795,4076.923076
125,4404.102564,4489.743589,4545.641025,4295.384615,4524.615384,4197.435897,4461.538461,4210.769230,4255.384615,4472.820512,4209.230769,4652.307692,3992.820513,4075.897435
126,4408.205128,4489.230769,4542.564102,4281.538461,4519.487179,4194.358974,4458.974358,4208.205128,4253.333333,4466.666666,4206.666666,4650.769230,3982.564103,4075.897435
127,4410.256410,4507.179487,4552.307692,4282.564102,4522.564102,4196.923076,4466.666666,4216.410256,4261.025641,4476.923076,4208.205128,4658.461538,3991.282052,4083.589743
128,4413.846153,4512.307692,4560.512820,4303.589743,4532.820512,4202.051282,4473.846153,4224.102564,4269.230769,4486.666666,4217.435897,4664.615384,4008.205128,4092.307692
129,4420.000000,4503.076923,4554.358974,4315.897435,4529.230769,4203.076923,4467.179487,4221.538461,4261.538461,4481.025641,4220.512820,4661.538461,4007.179487,4097.435897
130,4413.846153,4497.948717,4546.153846,4301.538461,4520.512820,4198.461538,4457.435897,4213.846153,4253.846153,4471.794871,4215.897435,4656.410256,3998.974359,4094.871794
131,4401.538461,4494.871794,4542.564102,4286.153846,4523.076923,4190.256410,4457.948717,4207.692307,4254.871794,4466.153846,4205.128205,4648.205128,3996.923077,4078.974358
132,4402.564102,4497.948717,4539.487179,4281.538461,4526.666666,4189.230769,4460.512820,4205.128205,4255.897435,4464.102564,4205.128205,4644.102564,3991.282052,4072.307692
133,4408.717948,4505.128205,4542.564102,4279.487179,4522.051282,4196.923076,4458.974358,4210.769230,4256.923076,4468.717948,4215.897435,4649.743589,3983.589744,4080.000000
134,4403.076923,4501.538461,4545.128205,4286.666666,4522.564102,4200.000000,4461.025641,4214.358974,4258.974358,4480.000000,4210.256410,4651.794871,3989.743590,4083.076923
135,4400.000000,4496.923076,4543.076923,4294.871794,4524.615384,4195.897435,4466.153846,4212.307692,4256.923076,4483.589743,4197.948717,4648.205128,4004.615384,4080.512820
136,4410.769230,4501.538461,4545.128205,4290.256410,4521.025641,4199.487179,4466.666666,4215.897435,4260.000000,4482.564102,4206.666666,4654.358974,4010.256410,4082.564102
137,4418.461538,4501.538461,4549.230769,4277.948717,4527.179487,4205.641025,4467.692307,4224.615384,4270.769230,4489.743589,4223.076923,4662.051282,4013.846153,4094.358974
138,4414.358974,4501.025641,4548.717948,4271.282051,4534.871794,4201.538461,4470.256410,4226.666666,4273.846153,4491.282051,4225.641025,4658.461538,4012.307692,4099.487179
139,4409.743589,4508.717948,4547.692307,4276.923076,4529.743589,4197.435897,4469.743589,4220.512820,4269.743589,4480.512820,4221.538461,4653.846153,3998.461539,4090.256410
140,4411.282051,4506.153846,4548.717948,4291.282051,4522.051282,4204.102564,4471.794871,4220.000000,4267.692307,4474.358974,4216.923076,4655.897435,3994.871795,4082.051282
141,4416.410256,4501.538461,4549.743589,4293.333333,4523.076923,4209.743589,4476.410256,4223.076923,4263.589743,4479.487179,4211.282051,4660.512820,4004.615384,4085.641025
142,4415.384615,4510.769230,4549.230769,4280.512820,4523.076923,4204.615384,4476.923076,4216.410256,4256.410256,4476.923076,4212.820512,4662.564102,4003.589743,4086.666666
143,4407.179487,4508.205128,4549.230769,4281.538461,4522.051282,4200.512820,4474.358974,4211.282051,4257.948717,4468.205128,4214.871794,4662.564102,3995.384616,4078.974358
144,4409.230769,4496.923076,4550.769230,4289.743589,4525.128205,4202.051282,4468.717948,4216.410256,4264.102564,4472.820512,4213.333333,4663.076923,3998.974359,4081.025641
145,4421.025641,4504.615384,4555.384615,4288.717948,4524.102564,4202.051282,4466.153846,4218.974358,4261.538461,4479.487179,4218.461538,4663.076923,4005.128205,4090.769230
146,4418.974358,4517.948717,4554.871794,4286.666666,4522.564102,4201.025641,4468.205128,4216.923076,4260.000000,4475.384615,4224.615384,4661.538461,4006.666666,4092.820512
147,4407.179487,4509.743589,4547.692307,4290.256410,4525.641025,4200.000000,4466.153846,4215.384615,4265.128205,4474.871794,4218.974358,4657.948717,4003.589743,4081.538461
148,4412.820512,4500.000000,4550.256410,4289.743589,4523.076923,4199.487179,4464.615384,4218.974358,4265.641025,4485.641025,4216.410256,4661.025641,4000.000000,4081.025641
149,4427.692307,4504.615384,4561.025641,4283.589743,4526.666666,4202.051282,4474.358974,4228.717948,4265.641025,4491.282051,4224.615384,4670.769230,4012.820512,4105.128205
150,4426.153846,4510.256410,4564.102564,4294.358974,4535.897435,4203.076923,4481.025641,4233.333333,4269.230769,4488.205128,4228.717948,4676.410256,4023.589743,4113.333333
151,4416.923076,4510.769230,4556.923076,4309.230769,4530.769230,4200.512820,4471.794871,4226.666666,4270.769230,4486.153846,4220.000000,4669.743589,4009.230769,4090.769230
152,4413.846153,4505.128205,4547.692307,4304.102564,4518.974358,4198.461538,4460.512820,4216.410256,4265.128205,4484.102564,4207.692307,4658.461538,3992.820513,4078.974358
153,4414.358974,4503.589743,4547.179487,4294.358974,4520.000000,4198.461538,4464.615384,4214.871794,4259.487179,4482.051282,4207.179487,4655.384615,3995.897436,4090.769230
154,4413.846153,4504.615384,4550.769230,4297.435897,4523.589743,4200.000000,4470.256410,4218.461538,4261.538461,4478.461538,4212.820512,4657.948717,4005.641025,4095.384615
155,4409.230769,4497.435897,4548.717948,4296.923076,4522.051282,4202.564102,4467.692307,4218.461538,4264.102564,4479.487179,4213.333333,4658.974358,4009.743589,4086.153846
156,4408.205128,4492.307692,4545.128205,4290.769230,4524.102564,4201.025641,4464.102564,4214.358974,4261.025641,4487.179487,4214.871794,4658.461538,4005.641025,4084.615384
157,4413.333333,4501.538461,4545.641025,4291.794871,4525.641025,4198.974358,4465.128205,4215.897435,4262.051282,4487.692307,4216.410256,4655.897435,3996.410257,4091.794871
158,4416.923076,4509.743589,4548.205128,4289.743589,4522.564102,4200.000000,4464.102564,4223.589743,4272.307692,4483.589743,4210.256410,4655.897435,3997.948718,4092.820512
159,4413.333333,4505.641025,4549.230769,4293.333333,4522.051282,4197.435897,4462.564102,4224.615384,4274.871794,4489.230769,4209.230769,4657.948717,4008.717948,4083.589743
160,4411.794871,4504.615384,4549.230769,4295.384615,4531.282051,4197.435897,4467.179487,4224.102564,4268.717948,4491.282051,4218.974358,4658.974358,4010.256410,4082.051282
161,4412.307692,4504.102564,4547.179487,4287.692307,4536.923076,4204.102564,4471.282051,4227.179487,4269.230769,4488.205128,4219.487179,4655.384615,4001.538461,4088.205128
162,4406.666666,4493.846153,4544.102564,4286.666666,4528.205128,4205.128205,4466.666666,4221.025641,4266.666666,4485.641025,4206.153846,4647.179487,3991.282052,4080.000000
163,4404.102564,4491.794871,4542.564102,4296.923076,4528.717948,4201.025641,4458.461538,4210.769230,4256.410256,4477.435897,4202.564102,4643.589743,3990.769231,4072.307692
164,4406.153846,4501.025641,4542.564102,4297.435897,4535.897435,4195.897435,4455.897435,4206.153846,4251.794871,4472.820512,4210.769230,4648.205128,4003.076923,4081.538461
165,4405.641025,4504.615384,4540.512820,4285.641025,4529.743589,4193.846153,4453.846153,4204.615384,4255.384615,4477.435897,4212.307692,4650.256410,4009.743589,4085.128205
166,4406.666666,4496.923076,4540.000000,4282.051282,4519.487179,4193.333333,4451.794871,4206.153846,4257.948717,4476.923076,4211.282051,4649.743589,3998.461539,4077.948717
167,4412.307692,4495.384615,4544.102564,4291.282051,4521.025641,4191.282051,4459.487179,4208.717948,4260.512820,4471.794871,4220.512820,4653.333333,3992.307693,4077.948717
168,4409.230769,4497.948717,4544.615384,4298.461538,4522.564102,4191.282051,4463.076923,4205.128205,4261.025641,4472.820512,4223.076923,4654.358974,3997.435898,4080.512820
169,4397.435897,4487.692307,4534.358974,4289.743589,4518.461538,4188.205128,4455.897435,4197.435897,4249.743589,4470.769230,4208.205128,4646.666666,3993.846154,4074.358974
170,4397.435897,4475.384615,4530.256410,4280.000000,4518.461538,4187.692307,4455.384615,4199.487179,4246.153846,4470.769230,4207.692307,4646.666666,3987.179488,4072.820512
171,4407.179487,4485.128205,4542.051282,4282.051282,4521.538461,4196.410256,4467.692307,4213.333333,4260.512820,4482.564102,4228.205128,4658.461538,4000.000000,4081.025641
172,4412.307692,4500.512820,4551.794871,4282.564102,4524.615384,4204.615384,4477.435897,4224.615384,4273.846153,4489.230769,4229.230769,4665.128205,4012.820512,4090.256410
173,4409.230769,4494.358974,4543.076923,4286.666666,4523.589743,4203.589743,4475.384615,4222.051282,4271.794871,4486.666666,4210.256410,4655.897435,4007.179487,4088.205128
174,4402.051282,4485.641025,4531.282051,4290.769230,4522.051282,4197.948717,4469.743589,4214.871794,4262.564102,4478.461538,4206.153846,4645.128205,3993.846154,4072.820512
175,4396.923076,4492.820512,4529.743589,4277.435897,4521.025641,4191.282051,4462.564102,4207.179487,4254.358974,4471.794871,4210.256410,4643.589743,3983.076924,4060.000000
176,4394.871794,4492.307692,4529.230769,4266.666666,4519.487179,4186.153846,4455.897435,4195.897435,4243.076923,4465.641025,4203.076923,4641.538461,3981.025642,4057.948717
177,4391.794871,4478.974358,4523.589743,4279.487179,4519.487179,4188.205128,4455.384615,4193.846153,4236.410256,4461.538461,4196.410256,4634.358974,3984.102565,4060.512820
178,4391.282051,4477.948717,4523.076923,4290.256410,4521.025641,4189.230769,4458.461538,4202.564102,4240.000000,4461.025641,4199.487179,4633.333333,3982.564103,4064.102564
179,4401.025641,4487.692307,4533.333333,4289.230769,4526.666666,4193.333333,4458.974358,4209.743589,4253.333333,4468.205128,4206.153846,4643.589743,3984.102565,4067.179487
180,4414.871794,4496.923076,4545.641025,4299.487179,4530.256410,4201.538461,4464.102564,4215.897435,4267.179487,4483.076923,4214.871794,4655.384615,3993.333334,4072.820512
181,4418.461538,4504.102564,4548.205128,4301.025641,4524.102564,4203.076923,4471.794871,4219.487179,4267.179487,4491.794871,4224.102564,4656.410256,4004.615384,4084.102564
182,4411.282051,4497.435897,4540.000000,4283.589743,4519.487179,4197.948717,4470.769230,4215.384615,4260.000000,4481.538461,4225.641025,4649.230769,4005.128205,4085.128205
183,4397.435897,4476.923076,4532.307692,4281.025641,4523.076923,4195.897435,4466.153846,4212.820512,4252.307692,4465.128205,4210.769230,4643.589743,3993.333334,4065.641025
184,4390.769230,4474.871794,4531.282051,4291.794871,4524.615384,4195.384615,4465.641025,4211.282051,4246.153846,4461.538461,4193.333333,4638.461538,3977.435898,4052.307692
185,4396.410256,4490.769230,4530.769230,4290.769230,4521.538461,4193.333333,4466.666666,4207.179487,4246.153846,4470.769230,4202.051282,4637.948717,3975.897436,4063.076923
186,4401.538461,4493.333333,4531.794871,4279.487179,4520.000000,4194.358974,4470.769230,4210.769230,4253.333333,4475.384615,4222.564102,4644.102564,3986.666667,4069.743589
187,4398.974358,4484.615384,4537.435897,4275.384615,4520.000000,4195.897435,4470.769230,4216.410256,4257.948717,4471.282051,4214.358974,4648.717948,3986.153847,4061.025641
188,4398.974358,4484.102564,4541.025641,4284.615384,4523.589743,4193.333333,4462.564102,4206.153846,4251.282051,4471.282051,4194.358974,4645.641025,3981.025642,4062.564102
189,4403.589743,4488.717948,4535.897435,4295.384615,4521.025641,4190.769230,4458.461538,4196.923076,4245.641025,4473.333333,4202.051282,4642.564102,3990.256411,4075.384615
190,4401.538461,4490.769230,4531.282051,4293.333333,4512.820512,4190.256410,4458.974358,4199.487179,4245.128205,4464.615384,4216.923076,4646.153846,4001.025641,4076.923076
191,4397.435897,4493.333333,4538.461538,4281.538461,4515.384615,4188.205128,4457.435897,4199.487179,4245.641025,4463.076923,4217.948717,4648.717948,3991.282052,4068.205128
192,4395.897435,4489.743589,4542.051282,4276.923076,4519.487179,4187.179487,4454.358974,4198.974358,4249.230769,4471.794871,4212.820512,4646.153846,3984.615385,4066.153846
193,4396.923076,4480.512820,4534.871794,4278.461538,4517.435897,4187.692307,4454.871794,4204.615384,4251.282051,4471.794871,4205.641025,4642.051282,3994.871795,4070.769230
194,4395.897435,4479.487179,4529.230769,4284.615384,4518.461538,4184.102564,4454.871794,4201.538461,4245.641025,4460.512820,4202.564102,4639.487179,3992.307693,4069.230769
195,4387.692307,4486.153846,4529.230769,4287.692307,4518.461538,4183.589743,4452.820512,4196.923076,4242.051282,4458.461538,4206.666666,4635.897435,3974.358975,4057.435897
196,4389.743589,4489.230769,4534.358974,4282.564102,4514.871794,4190.256410,4455.897435,4202.564102,4250.256410,4467.179487,4208.717948,4637.948717,3974.871795,4057.435897
197,4402.564102,4487.179487,4542.051282,4287.692307,4518.974358,4192.820512,4466.153846,4205.641025,4255.897435,4475.897435,4207.692307,4648.717948,3995.384616,4074.358974
198,4405.641025,4493.333333,4544.102564,4296.410256,4525.641025,4189.743589,4465.128205,4201.538461,4253.333333,4478.974358,4211.282051,4650.256410,4005.641025,4077.948717
199,4402.564102,4501.538461,4542.564102,4296.923076,4523.589743,4188.717948,4454.358974,4204.102564,4254.871794,4477.948717,4215.897435,4642.051282,3999.487180,4069.230769
200,4406.153846,4495.897435,4544.615384,4295.384615,4522.564102,4190.769230,4455.897435,4208.717948,4257.435897,4478.974358,4218.461538,4643.076923,3995.897436,4070.256410
201,4405.641025,4487.692307,4542.564102,4290.256410,4522.051282,4188.205128,4461.538461,4208.205128,4252.820512,4477.435897,4218.461538,4646.153846,3992.820513,4074.871794
202,4397.435897,4493.333333,4540.512820,4283.589743,4521.025641,4188.205128,4461.538461,4208.205128,4248.205128,4473.846153,4210.256410,4642.051282,3990.769231,4072.820512
203,4396.410256,4500.000000,4540.512820,4285.128205,4524.615384,4189.743589,4462.564102,4205.641025,4248.717948,4468.717948,4205.641025,4637.435897,3994.871795,4067.692307
204,4400.512820,4491.794871,4535.897435,4288.717948,4523.589743,4185.128205,4461.025641,4199.487179,4247.692307,4462.564102,4206.153846,4634.871794,3993.333334,4065.128205
205,4400.512820,4488.205128,4536.410256,4291.282051,4520.512820,4185.128205,4458.461538,4198.461538,4244.102564,4464.102564,4208.717948,4635.897435,3985.641026,4068.205128
206,4401.538461,4498.461538,4542.564102,4292.307692,4523.076923,4189.230769,4460.000000,4203.076923,4245.641025,4467.692307,4208.205128,4641.025641,3987.179488,4072.820512
207,4403.589743,4502.564102,4542.564102,4293.846153,4522.564102,4185.128205,4458.974358,4204.615384,4247.692307,4469.230769,4201.025641,4642.051282,3992.820513,4069.230769
208,4404.102564,4499.487179,4538.461538,4293.846153,4520.512820,4182.564102,4454.871794,4203.589743,4248.205128,4474.871794,4196.923076,4639.487179,3992.820513,4068.717948
209,4402.564102,4498.974358,4540.512820,4285.641025,4528.205128,4191.794871,4460.000000,4206.153846,4255.384615,4477.435897,4205.128205,4643.589743,3996.410257,4078.974358
210,4406.153846,4503.589743,4545.641025,4280.000000,4533.333333,4196.410256,4467.179487,4209.230769,4258.974358,4475.384615,4212.820512,4649.230769,4000.000000,4085.128205
211,4411.794871,4509.230769,4548.717948,4291.794871,4525.641025,4194.358974,4469.743589,4212.820512,4253.846153,4478.461538,4208.205128,4648.205128,3994.871795,4082.564102
212,4412.820512,4511.282051,4548.717948,4298.461538,4519.487179,4194.871794,4472.820512,4216.410256,4256.410256,4483.589743,4198.974358,4649.743589,3997.948718,4086.153846
213,4409.743589,4510.769230,4547.692307,4293.333333,4524.102564,4193.333333,4472.820512,4213.846153,4266.666666,4485.128205,4198.461538,4652.307692,4006.666666,4093.333333
214,4404.102564,4511.282051,4547.179487,4291.794871,4531.282051,4193.333333,4469.743589,4207.179487,4261.025641,4483.589743,4207.179487,4650.769230,4000.512820,4088.717948
215,4404.102564,4506.666666,4547.692307,4290.769230,4535.384615,4197.435897,4467.179487,4203.589743,4250.769230,4472.307692,4214.871794,4655.384615,3993.846154,4082.564102
216,4406.153846,4497.948717,4551.282051,4292.307692,4540.000000,4197.948717,4464.615384,4205.128205,4253.333333,4466.153846,4210.256410,4661.538461,3996.923077,4085.641025
217,4400.512820,4495.897435,4549.230769,4293.846153,4534.358974,4194.871794,4458.974358,4205.128205,4250.769230,4477.435897,4196.410256,4657.435897,3989.230770,4085.641025
218,4398.461538,4501.025641,4546.153846,4284.615384,4525.128205,4198.461538,4460.000000,4204.102564,4245.128205,4484.102564,4195.384615,4652.307692,3984.102565,4081.025641
219,4404.102564,4507.179487,4547.692307,4284.102564,4531.794871,4204.102564,4471.282051,4207.179487,4255.384615,4475.384615,4208.717948,4652.820512,3993.846154,4078.461538
220,4401.538461,4496.923076,4546.666666,4289.230769,4534.358974,4198.974358,4475.384615,4212.307692,4260.512820,4465.128205,4206.666666,4651.282051,3983.589744,4070.256410
221,4389.743589,4477.948717,4541.025641,4280.000000,4523.076923,4194.358974,4472.820512,4215.897435,4251.282051,4464.615384,4188.205128,4647.692307,3961.538462,4061.538461
222,4396.410256,4487.692307,4545.128205,4279.487179,4524.102564,4196.923076,4473.846153,4214.871794,4250.256410,4471.282051,4185.128205,4649.743589,3969.743590,4072.820512
223,4414.871794,4514.358974,4556.923076,4295.897435,4531.794871,4197.948717,4471.794871,4215.897435,4258.974358,4473.846153,4196.410256,4657.948717,3993.846154,4085.128205
224,4418.461538,4517.435897,4558.974358,4300.512820,4530.769230,4195.897435,4464.102564,4217.435897,4255.897435,4470.256410,4201.025641,4662.564102,3996.923077,4083.076923
225,4411.794871,4508.717948,4551.794871,4295.384615,4531.282051,4194.358974,4461.538461,4212.820512,4246.666666,4470.256410,4197.948717,4655.384615,3982.051283,4082.051282
226,4407.179487,4510.256410,4547.692307,4292.820512,4532.307692,4193.333333,4464.102564,4204.615384,4241.025641,4467.692307,4191.282051,4646.666666,3970.256411,4082.051282
227,4401.538461,4506.666666,4546.666666,4282.051282,4526.153846,4194.358974,4464.102564,4198.974358,4238.461538,4458.974358,4184.102564,4649.230769,3971.282052,4072.820512
228,4400.000000,4498.974358,4545.128205,4276.410256,4522.051282,4195.384615,4464.102564,4199.487179,4237.948717,4456.410256,4177.435897,4651.282051,3973.846154,4066.153846
229,4404.615384,4496.923076,4545.128205,4290.769230,4528.205128,4195.897435,4463.589743,4201.538461,4240.000000,4463.076923,4170.769230,4646.153846,3971.282052,4069.743589
230,4409.230769,4500.512820,4546.153846,4303.076923,4532.307692,4196.923076,4462.564102,4196.923076,4238.974358,4464.102564,4177.948717,4646.153846,3972.307693,4076.410256
231,4414.358974,4509.230769,4547.179487,4298.461538,4530.769230,4194.358974,4459.487179,4189.230769,4233.846153,4461.025641,4200.000000,4654.871794,3981.025642,4086.153846
232,4416.923076,4504.615384,4552.307692,4292.820512,4528.717948,4191.282051,4460.512820,4189.743589,4233.333333,4464.615384,4213.333333,4658.461538,3986.153847,4086.666666
233,4417.948717,4498.461538,4560.000000,4293.333333,4528.717948,4191.794871,4463.589743,4197.435897,4240.000000,4471.794871,4210.256410,4662.051282,3987.179488,4083.589743
234,4427.179487,4515.384615,4571.794871,4303.076923,4529.230769,4196.410256,4468.717948,4206.666666,4250.769230,4478.974358,4215.384615,4672.820512,3993.333334,4098.974358
235,4431.794871,4526.666666,4576.410256,4309.743589,4532.307692,4196.410256,4467.179487,4214.358974,4258.461538,4483.076923,4227.179487,4677.435897,4002.051282,4112.307692
236,4425.641025,4512.307692,4569.743589,4305.641025,4538.461538,4192.307692,4462.051282,4218.461538,4260.000000,4481.538461,4217.948717,4671.794871,4010.256410,4100.512820
237,4417.948717,4501.538461,4563.589743,4303.076923,4540.512820,4193.846153,4463.076923,4218.974358,4257.435897,4482.564102,4203.589743,4666.666666,4008.717948,4086.153846
238,4412.820512,4506.153846,4556.923076,4301.025641,4533.846153,4200.512820,4470.256410,4212.307692,4257.948717,4488.717948,4208.717948,4664.102564,3992.307693,4087.179487
239,4410.256410,4509.230769,4550.256410,4296.923076,4528.205128,4203.076923,4477.948717,4207.692307,4264.102564,4484.102564,4216.410256,4663.076923,3989.743590,4090.769230
240,4410.769230,4506.153846,4551.794871,4295.384615,4528.717948,4202.051282,4478.461538,4207.692307,4263.589743,4469.743589,4211.282051,4663.076923,4004.102564,4084.615384
241,4407.692307,4498.461538,4553.333333,4296.410256,4530.769230,4205.128205,4475.897435,4207.179487,4253.846153,4471.794871,4208.205128,4661.025641,4000.512820,4076.923076
242,4405.641025,4494.871794,4553.333333,4298.461538,4532.307692,4206.666666,4480.512820,4214.358974,4255.897435,4490.256410,4221.538461,4662.051282,3986.153847,4080.512820
243,4410.256410,4501.025641,4557.435897,4292.820512,4532.820512,4201.538461,4484.615384,4224.615384,4265.641025,4496.923076,4233.333333,4666.666666,3991.282052,4088.717948
244,4412.307692,4503.589743,4553.846153,4284.615384,4529.743589,4199.487179,4478.461538,4223.076923,4264.102564,4488.205128,4216.923076,4665.128205,4001.538461,4086.153846
245,4411.282051,4499.487179,4548.205128,4294.871794,4528.717948,4202.051282,4472.307692,4213.846153,4260.512820,4485.128205,4196.410256,4659.487179,4002.051282,4083.076923
246,4411.794871,4505.128205,4552.820512,4311.282051,4535.897435,4206.153846,4470.256410,4208.205128,4262.051282,4486.153846,4207.692307,4658.461538,4002.051282,4089.743589
247,4413.846153,4510.769230,4555.897435,4311.794871,4541.538461,4202.564102,4468.205128,4201.025641,4252.820512,4483.589743,4224.615384,4660.512820,4000.000000,4092.820512
248,4414.871794,4505.128205,4554.358974,4306.153846,4537.435897,4198.461538,4467.179487,4194.871794,4243.076923,4482.564102,4212.307692,4663.589743,3996.410257,4084.102564
249,4415.384615,4505.128205,4559.487179,4300.000000,4529.230769,4201.538461,4466.666666,4200.512820,4248.717948,4481.025641,4196.923076,4664.615384,3996.923077,4077.948717
250,4413.846153,4510.769230,4563.589743,4293.333333,4522.051282,4201.538461,4467.179487,4209.743589,4254.871794,4475.897435,4200.512820,4663.589743,3989.230770,4084.102564
251,4407.179487,4498.461538,4555.897435,4298.461538,4522.564102,4198.461538,4473.333333,4209.743589,4250.769230,4470.256410,4200.512820,4662.051282,3976.923077,4085.128205
252,4403.076923,4486.153846,4550.769230,4305.128205,4524.615384,4201.538461,4476.410256,4206.153846,4246.153846,4467.692307,4186.666666,4661.538461,3975.384616,4075.897435
253,4408.205128,4492.820512,4556.923076,4300.000000,4525.128205,4205.641025,4474.358974,4209.230769,4243.589743,4464.615384,4183.076923,4662.564102,3976.410257,4073.846153
254,4413.333333,4497.435897,4562.051282,4292.820512,4526.666666,4203.076923,4474.871794,4209.230769,4240.512820,4464.102564,4193.333333,4661.025641,3977.435898,4083.589743
255,4410.256410,4489.230769,4559.487179,4293.333333,4524.615384,4197.435897,4476.410256,4205.128205,4241.025641,4467.179487,4199.487179,4660.512820,3982.564103,4083.589743
