,AF3,F7,F3,FC5,T7,P7,O1,O2,P8,T8,FC6,F4,F8,AF4
0,4426.666666,4546.666666,4569.743589,4268.717948,4488.205128,4214.358974,4457.948717,4211.282051,4238.974358,4521.025641,4238.461538,4674.358974,4102.051282,4114.358974
1,4417.435897,4543.589743,4561.025641,4264.615384,4489.743589,4210.256410,4458.461538,4205.641025,4243.589743,4511.794871,4225.128205,4670.256410,4085.128205,4102.051282
2,4433.333333,4558.461538,4572.307692,4283.589743,4497.435897,4216.923076,4468.205128,4218.974358,4253.333333,4512.820512,4255.897435,4683.589743,4092.307692,4114.358974
3,4447.692307,4567.179487,4586.666666,4295.897435,4497.948717,4225.128205,4469.230769,4231.282051,4255.897435,4522.051282,4277.435897,4692.820512,4113.333333,4131.794871
4,4435.384615,4562.051282,4576.410256,4282.564102,4489.230769,4216.923076,4458.974358,4215.897435,4244.102564,4511.794871,4251.794871,4684.102564,4109.743589,4124.102564
5,4423.076923,4556.923076,4562.564102,4273.333333,4487.179487,4206.153846,4454.358974,4201.538461,4235.897435,4501.025641,4235.897435,4675.384615,4091.282051,4108.717948
6,4427.179487,4555.384615,4564.615384,4279.487179,4491.282051,4208.205128,4458.974358,4205.641025,4237.948717,4508.717948,4251.282051,4676.410256,4091.282051,4109.230769
7,4428.205128,4551.282051,4567.179487,4278.974358,4491.282051,4211.282051,4458.461538,4204.102564,4231.282051,4507.692307,4246.153846,4675.384615,4096.410256,4111.794871
8,4423.589743,4552.307692,4568.205128,4276.923076,4490.256410,4215.384615,4454.358974,4200.000000,4226.153846,4495.897435,4230.256410,4674.871794,4091.282051,4110.769230
9,4428.205128,4554.871794,4572.307692,4289.230769,4491.794871,4217.948717,4461.025641,4205.128205,4235.897435,4499.487179,4243.076923,4683.589743,4092.307692,4115.384615
10,4436.410256,4555.384615,4572.307692,4297.948717,4491.282051,4215.897435,4467.692307,4213.846153,4248.717948,4513.846153,4263.076923,4687.692307,4101.025641,4123.589743
11,4435.897435,4558.974358,4569.743589,4291.282051,4492.820512,4217.948717,4467.692307,4220.000000,4253.333333,4517.948717,4266.666666,4682.051282,4105.128205,4126.153846
12,4429.230769,4556.923076,4571.282051,4286.666666,4495.897435,4222.051282,4469.743589,4218.461538,4247.179487,4511.282051,4260.000000,4677.948717,4100.000000,4121.025641
13,4428.205128,4554.358974,4571.794871,4289.230769,4494.358974,4223.589743,4470.256410,4211.282051,4242.051282,4505.641025,4253.846153,4680.512820,4094.358974,4116.923076
14,4430.256410,4555.384615,4569.743589,4288.205128,4495.384615,4220.000000,4464.102564,4209.230769,4245.128205,4503.076923,4251.282051,4676.410256,4090.256410,4113.846153
15,4424.615384,4550.769230,4567.179487,4284.102564,4497.948717,4216.923076,4459.487179,4211.794871,4247.692307,4504.615384,4247.179487,4668.717948,4080.512820,4108.717948
16,4420.512820,4547.179487,4566.153846,4282.051282,4493.333333,4215.897435,4460.512820,4211.794871,4247.692307,4509.230769,4240.512820,4669.743589,4075.384615,4106.153846
17,4423.589743,4552.307692,4568.205128,4284.102564,4489.230769,4217.948717,4465.641025,4211.282051,4252.307692,4513.333333,4234.871794,4673.333333,4081.538461,4107.692307
18,4422.051282,4552.820512,4568.717948,4287.692307,4492.307692,4220.512820,4467.692307,4211.282051,4250.256410,4507.692307,4235.897435,4670.769230,4086.153846,4107.179487
19,4416.410256,4546.666666,4562.051282,4283.589743,4492.820512,4216.923076,4464.102564,4211.794871,4242.564102,4501.538461,4242.051282,4666.666666,4075.384615,4104.102564
20,4412.307692,4542.564102,4555.897435,4276.410256,4490.769230,4214.358974,4462.051282,4211.282051,4239.487179,4501.538461,4242.564102,4664.102564,4059.487179,4098.974358
21,4405.641025,4538.974358,4554.358974,4276.410256,4490.769230,4216.410256,4464.102564,4206.666666,4240.000000,4499.487179,4235.384615,4658.461538,4053.333333,4090.256410
22,4405.128205,4536.410256,4554.871794,4281.025641,4490.769230,4217.435897,4463.076923,4207.179487,4240.512820,4499.487179,4232.820512,4657.435897,4053.846153,4088.205128
23,4407.692307,4538.974358,4553.333333,4279.487179,4490.769230,4216.923076,4461.538461,4212.307692,4239.487179,4501.538461,4227.692307,4655.897435,4050.769230,4086.666666
24,4402.051282,4538.461538,4551.794871,4273.333333,4490.769230,4215.897435,4463.076923,4215.384615,4242.564102,4496.410256,4216.923076,4649.230769,4039.487179,4080.512820
25,4401.538461,4536.410256,4553.333333,4274.871794,4491.282051,4215.384615,4462.051282,4213.846153,4246.666666,4494.871794,4222.564102,4650.769230,4034.871794,4083.589743
26,4405.641025,4537.435897,4554.358974,4278.974358,4492.307692,4216.410256,4460.512820,4207.692307,4240.000000,4499.487179,4235.897435,4656.410256,4038.974358,4089.230769
27,4406.153846,4541.538461,4554.358974,4276.923076,4494.871794,4223.076923,4464.102564,4207.692307,4236.410256,4502.564102,4232.820512,4658.974358,4047.179487,4089.230769
28,4409.230769,4543.076923,4556.410256,4277.948717,4496.923076,4221.025641,4467.692307,4214.358974,4246.666666,4503.589743,4231.282051,4662.051282,4049.743589,4091.794871
29,4408.205128,4535.384615,4555.384615,4275.384615,4492.307692,4212.307692,4463.589743,4211.282051,4247.179487,4501.025641,4229.743589,4659.487179,4037.435897,4090.769230
30,4395.897435,4527.179487,4547.692307,4268.205128,4486.666666,4210.769230,4458.461538,4201.538461,4236.923076,4492.307692,4216.923076,4649.743589,4026.153846,4081.025641
31,4393.846153,4527.179487,4539.487179,4270.256410,4488.205128,4210.256410,4458.974358,4202.051282,4241.025641,4492.307692,4214.358974,4646.666666,4025.641025,4075.897435
32,4399.487179,4532.307692,4540.512820,4277.435897,4491.282051,4208.717948,4461.538461,4208.205128,4246.153846,4499.487179,4227.692307,4648.717948,4024.615384,4079.487179
33,4395.897435,4532.820512,4549.230769,4273.846153,4488.717948,4213.333333,4461.025641,4209.230769,4242.564102,4494.358974,4226.666666,4648.717948,4023.589743,4082.051282
34,4396.923076,4532.820512,4552.307692,4269.230769,4491.282051,4218.461538,4462.051282,4212.820512,4246.666666,4492.307692,4220.000000,4651.282051,4026.666666,4082.564102
35,4403.076923,4537.435897,4544.615384,4275.897435,4496.923076,4222.564102,4469.230769,4215.384615,4249.230769,4502.564102,4231.282051,4653.846153,4022.564102,4081.025641
36,4392.820512,4530.769230,4536.923076,4276.410256,4492.307692,4222.051282,4469.230769,4211.794871,4241.025641,4500.000000,4228.205128,4645.128205,4012.307692,4073.333333
37,4378.461538,4516.410256,4534.871794,4265.641025,4488.205128,4213.846153,4461.025641,4206.666666,4237.435897,4491.794871,4207.179487,4636.410256,4006.666666,4066.153846
38,4380.000000,4514.871794,4536.923076,4260.000000,4488.205128,4209.230769,4462.051282,4210.256410,4246.153846,4495.897435,4211.282051,4638.974358,4006.666666,4067.179487
39,4386.666666,4522.051282,4537.948717,4266.666666,4483.589743,4215.897435,4468.717948,4219.487179,4251.794871,4497.435897,4225.128205,4642.564102,4006.153846,4067.692307
40,4385.128205,4520.512820,4536.410256,4271.282051,4482.564102,4217.435897,4469.743589,4217.435897,4247.692307,4489.230769,4216.410256,4640.512820,4003.589743,4063.589743
41,4384.102564,4521.025641,4535.384615,4267.692307,4488.205128,4214.358974,4471.282051,4213.846153,4246.666666,4491.794871,4210.256410,4640.000000,4002.564102,4063.076923
42,4388.717948,4528.205128,4538.974358,4272.820512,4491.794871,4222.564102,4477.435897,4224.615384,4256.410256,4500.512820,4220.512820,4646.153846,4003.589743,4069.743589
43,4389.230769,4521.025641,4542.051282,4278.974358,4492.307692,4230.256410,4480.000000,4231.282051,4262.051282,4503.076923,4222.051282,4648.205128,4003.589743,4070.769230
44,4383.589743,4513.333333,4540.000000,4273.846153,4494.358974,4223.589743,4478.461538,4226.666666,4256.923076,4500.000000,4219.487179,4641.538461,3998.974359,4065.641025
45,4379.487179,4518.461538,4537.948717,4269.743589,4491.794871,4214.871794,4474.871794,4224.615384,4255.897435,4493.846153,4223.589743,4640.000000,3994.358975,4064.615384
46,4380.512820,4517.435897,4536.410256,4271.282051,4489.743589,4215.384615,4473.846153,4223.589743,4254.871794,4493.333333,4221.025641,4643.589743,3995.897436,4067.692307
47,4384.615384,4513.333333,4538.461538,4274.871794,4491.282051,4215.384615,4475.897435,4222.564102,4249.230769,4502.051282,4221.538461,4647.692307,4004.615384,4070.256410
48,4387.179487,4520.512820,4538.974358,4277.948717,4490.256410,4213.846153,4474.358974,4227.179487,4255.384615,4507.692307,4228.205128,4646.153846,4006.666666,4070.256410
49,4387.692307,4522.051282,4537.435897,4276.410256,4490.769230,4217.948717,4475.897435,4231.282051,4260.000000,4504.615384,4221.025641,4645.641025,3997.435898,4071.282051
50,4384.615384,4515.897435,4535.897435,4270.769230,4490.769230,4218.461538,4476.410256,4218.461538,4242.564102,4492.820512,4201.538461,4641.538461,3986.666667,4064.102564
51,4375.897435,4514.358974,4528.717948,4270.769230,4488.205128,4211.794871,4468.717948,4198.461538,4221.025641,4475.384615,4193.846153,4631.794871,3977.435898,4051.282051
52,4375.384615,4520.512820,4521.538461,4277.948717,4491.282051,4215.897435,4467.692307,4200.512820,4225.128205,4469.743589,4203.589743,4630.256410,3981.538462,4051.794871
53,4382.564102,4526.153846,4528.205128,4282.051282,4498.974358,4227.179487,4476.410256,4218.461538,4246.666666,4486.153846,4207.179487,4637.435897,3991.282052,4058.974358
54,4383.589743,4525.641025,4535.897435,4280.000000,4496.923076,4223.589743,4476.923076,4223.076923,4256.410256,4505.128205,4211.282051,4641.025641,3994.871795,4060.512820
55,4385.641025,4526.153846,4536.410256,4277.948717,4496.410256,4220.512820,4470.256410,4221.538461,4257.435897,4511.282051,4228.205128,4643.076923,4008.717948,4065.641025
56,4394.871794,4529.743589,4538.974358,4281.538461,4500.512820,4225.641025,4472.307692,4230.769230,4263.589743,4515.384615,4236.410256,4651.282051,4023.589743,4075.897435
57,4393.333333,4527.179487,4535.384615,4282.564102,4495.897435,4223.076923,4475.897435,4230.256410,4263.589743,4514.871794,4225.128205,4652.820512,4012.307692,4070.769230
58,4387.692307,4528.205128,4530.769230,4281.538461,4496.923076,4222.564102,4475.384615,4222.051282,4254.358974,4503.076923,4217.948717,4644.102564,3994.358975,4061.025641
59,4389.743589,4537.435897,4532.820512,4282.564102,4502.564102,4228.205128,4476.923076,4228.205128,4258.974358,4503.589743,4221.025641,4640.512820,3998.461539,4064.102564
60,4390.256410,4534.871794,4532.820512,4281.538461,4500.512820,4229.743589,4479.487179,4232.820512,4266.666666,4513.333333,4223.076923,4642.051282,4010.256410,4069.230769
61,4392.820512,4531.282051,4533.846153,4283.076923,4498.974358,4227.179487,4481.025641,4229.230769,4260.000000,4515.384615,4227.179487,4646.153846,4015.384615,4070.769230
62,4398.461538,4541.538461,4537.948717,4286.666666,4503.589743,4228.205128,4480.000000,4226.153846,4253.846153,4511.282051,4229.743589,4648.205128,4012.820512,4072.820512
63,4393.846153,4539.487179,4537.948717,4285.128205,4503.589743,4227.692307,4474.871794,4217.948717,4249.743589,4497.948717,4214.871794,4644.102564,4002.564102,4070.256410
64,4390.256410,4531.282051,4534.871794,4282.564102,4501.025641,4223.076923,4471.282051,4210.769230,4242.564102,4483.076923,4200.000000,4643.076923,3995.384616,4065.128205
65,4397.435897,4540.000000,4536.923076,4287.179487,4502.564102,4224.102564,4476.923076,4223.589743,4251.794871,4495.897435,4210.769230,4651.282051,3997.435898,4067.179487
66,4402.051282,4541.538461,4540.512820,4291.794871,4505.128205,4230.769230,4482.051282,4241.025641,4266.153846,4516.923076,4227.179487,4654.358974,4005.128205,4073.846153
67,4398.461538,4528.205128,4535.384615,4288.205128,4507.692307,4232.307692,4477.948717,4241.025641,4263.076923,4512.307692,4222.564102,4646.666666,4008.205128,4071.282051
68,4394.358974,4529.230769,4526.666666,4282.564102,4507.692307,4225.641025,4474.871794,4235.384615,4258.974358,4503.076923,4212.820512,4640.512820,4002.564102,4064.615384
69,4392.307692,4539.487179,4525.641025,4282.051282,4501.025641,4220.000000,4468.205128,4227.692307,4254.358974,4501.538461,4215.384615,4638.974358,3997.435898,4063.076923
70,4393.333333,4533.333333,4528.205128,4285.128205,4499.487179,4221.538461,4459.487179,4218.461538,4244.102564,4495.384615,4212.307692,4638.461538,3996.923077,4063.076923
71,4391.282051,4521.025641,4524.102564,4280.000000,4502.051282,4222.564102,4463.589743,4219.487179,4247.179487,4496.923076,4202.051282,4638.461538,3993.846154,4060.512820
72,4387.692307,4514.358974,4523.589743,4271.794871,4499.487179,4222.564102,4475.384615,4228.205128,4258.974358,4505.128205,4202.051282,4641.025641,3991.282052,4061.025641
73,4385.641025,4512.820512,4527.179487,4270.256410,4496.923076,4222.564102,4475.897435,4228.717948,4257.435897,4500.512820,4205.128205,4640.512820,3996.410257,4064.615384
74,4381.538461,4510.769230,4522.051282,4266.153846,4497.435897,4219.487179,4466.153846,4218.974358,4247.179487,4487.179487,4195.384615,4632.820512,3998.461539,4060.000000
75,4378.461538,4509.230769,4520.512820,4263.076923,4494.871794,4215.384615,4461.538461,4214.871794,4245.128205,4481.538461,4185.128205,4629.743589,4000.000000,4052.820512
76,4386.153846,4514.871794,4531.282051,4271.794871,4497.948717,4216.923076,4461.538461,4221.025641,4245.128205,4484.615384,4199.487179,4641.538461,4012.820512,4062.564102
77,4393.333333,4520.000000,4537.948717,4279.487179,4503.076923,4222.564102,4462.051282,4226.153846,4244.102564,4488.205128,4206.153846,4647.179487,4016.410256,4072.307692
78,4388.205128,4514.871794,4534.871794,4270.256410,4498.974358,4218.461538,4461.025641,4223.076923,4245.128205,4490.256410,4189.230769,4636.410256,4002.564102,4064.615384
79,4384.615384,4509.230769,4534.358974,4261.538461,4496.410256,4212.307692,4462.051282,4220.000000,4246.153846,4489.230769,4187.692307,4633.846153,4005.641025,4057.948717
80,4388.717948,4511.282051,4536.410256,4264.102564,4501.538461,4216.410256,4462.564102,4218.974358,4244.615384,4482.564102,4203.076923,4642.051282,4026.666666,4062.564102
81,4394.358974,4513.846153,4538.461538,4269.743589,4501.538461,4223.076923,4460.512820,4214.358974,4241.538461,4488.717948,4212.820512,4646.153846,4035.384615,4071.282051
82,4403.589743,4519.487179,4548.717948,4275.384615,4504.102564,4225.641025,4460.512820,4216.410256,4247.179487,4505.128205,4216.410256,4652.820512,4042.051282,4081.538461
83,4411.794871,4531.282051,4556.923076,4280.512820,4511.282051,4221.538461,4460.512820,4221.538461,4250.256410,4505.641025,4217.948717,4660.000000,4053.846153,4084.102564
84,4412.307692,4533.333333,4554.358974,4277.948717,4503.589743,4215.897435,4456.923076,4223.589743,4249.230769,4495.897435,4218.974358,4660.000000,4054.358974,4083.076923
85,4410.256410,4526.153846,4553.846153,4270.256410,4492.307692,4211.282051,4449.743589,4217.435897,4244.615384,4489.743589,4223.076923,4660.000000,4050.256410,4087.692307
86,4413.846153,4526.666666,4556.410256,4268.205128,4495.384615,4210.769230,4449.743589,4209.230769,4237.435897,4489.230769,4227.692307,4663.589743,4051.282051,4093.846153
87,4421.025641,4533.846153,4556.923076,4277.435897,4501.538461,4214.871794,4457.435897,4209.230769,4239.487179,4496.923076,4233.333333,4666.666666,4053.846153,4097.435897
88,4421.538461,4532.307692,4557.435897,4284.615384,4498.974358,4218.461538,4462.051282,4211.794871,4247.179487,4503.589743,4236.923076,4668.205128,4061.025641,4099.487179
89,4411.794871,4526.666666,4554.358974,4275.897435,4495.897435,4216.923076,4460.000000,4211.282051,4244.615384,4494.871794,4232.820512,4663.589743,4060.512820,4096.410256
90,4410.256410,4525.641025,4552.820512,4266.153846,4493.846153,4209.743589,4454.358974,4214.358974,4238.461538,4488.717948,4224.102564,4661.538461,4049.743589,4090.769230
91,4414.871794,4527.179487,4553.333333,4266.666666,4488.205128,4207.179487,4453.846153,4217.948717,4241.025641,4490.769230,4217.948717,4664.102564,4052.820512,4092.820512
92,4413.846153,4529.230769,4553.846153,4267.179487,4486.153846,4208.205128,4451.794871,4214.871794,4244.102564,4485.128205,4224.102564,4664.615384,4069.230769,4095.897435
93,4412.307692,4529.743589,4556.410256,4269.230769,4489.743589,4207.179487,4446.666666,4211.794871,4241.538461,4482.564102,4236.923076,4665.641025,4074.358974,4096.410256
94,4417.435897,4531.282051,4558.974358,4276.410256,4493.846153,4206.666666,4448.205128,4213.846153,4241.538461,4490.769230,4232.307692,4665.641025,4073.333333,4099.487179
95,4422.051282,4538.461538,4559.487179,4283.076923,4493.333333,4207.692307,4455.384615,4217.435897,4246.666666,4498.461538,4225.641025,4663.589743,4075.384615,4105.128205
96,4419.487179,4539.487179,4562.564102,4277.948717,4495.384615,4208.205128,4456.923076,4218.461538,4247.692307,4498.974358,4226.153846,4665.641025,4072.820512,4103.589743
97,4420.512820,4537.435897,4568.205128,4275.897435,4500.000000,4211.794871,4455.897435,4216.410256,4243.076923,4503.589743,4228.205128,4672.307692,4074.358974,4102.051282
98,4428.717948,4541.025641,4569.230769,4282.051282,4501.025641,4218.974358,4454.871794,4219.487179,4247.692307,4512.820512,4243.589743,4680.000000,4083.589743,4111.282051
99,4427.692307,4537.435897,4567.692307,4277.435897,4496.923076,4217.435897,4452.307692,4224.102564,4256.410256,4511.282051,4263.076923,4685.128205,4087.179487,4112.820512
100,4418.461538,4532.820512,4568.205128,4274.358974,4493.846153,4208.717948,4451.794871,4223.076923,4255.897435,4502.564102,4260.000000,4683.589743,4088.205128,4108.717948
101,4423.076923,4536.923076,4568.205128,4276.923076,4495.384615,4208.205128,4453.846153,4223.076923,4253.333333,4496.923076,4242.051282,4680.512820,4095.384615,4111.282051
102,4437.948717,4546.153846,4576.410256,4278.461538,4502.051282,4219.487179,4461.025641,4230.256410,4257.435897,4503.589743,4246.666666,4688.717948,4104.102564,4118.974358
103,4440.000000,4556.410256,4585.128205,4285.128205,4511.794871,4232.820512,4473.846153,4237.435897,4266.153846,4522.564102,4264.102564,4697.435897,4104.615384,4128.205128
104,4429.743589,4550.769230,4578.974358,4293.333333,4515.384615,4233.846153,4477.948717,4235.897435,4270.769230,4526.666666,4253.846153,4691.794871,4093.846153,4124.615384
105,4425.128205,4536.923076,4569.230769,4286.153846,4510.769230,4224.102564,4469.230769,4226.666666,4261.538461,4511.282051,4237.948717,4683.589743,4083.076923,4113.333333
106,4430.256410,4541.538461,4574.358974,4278.461538,4507.179487,4222.051282,4465.128205,4223.589743,4248.717948,4503.076923,4251.794871,4687.179487,4085.641025,4114.358974
107,4435.384615,4556.410256,4585.641025,4285.641025,4508.205128,4226.153846,4469.743589,4228.717948,4249.743589,4507.692307,4265.641025,4692.820512,4089.230769,4126.153846
108,4435.384615,4552.820512,4584.615384,4288.717948,4511.282051,4226.153846,4475.384615,4233.333333,4258.974358,4506.666666,4249.743589,4691.794871,4079.487179,4125.128205
109,4431.282051,4542.564102,4577.435897,4283.589743,4511.794871,4225.128205,4475.897435,4234.358974,4258.974358,4506.666666,4233.333333,4690.256410,4073.333333,4112.820512
110,4422.051282,4535.384615,4568.717948,4274.871794,4510.769230,4223.076923,4468.717948,4230.256410,4247.692307,4504.615384,4231.282051,4681.538461,4066.666666,4103.589743
111,4410.256410,4525.128205,4558.461538,4263.589743,4507.692307,4217.948717,4460.512820,4224.615384,4237.948717,4495.384615,4224.102564,4668.205128,4050.256410,4095.897435
112,4406.666666,4517.948717,4552.820512,4261.538461,4504.102564,4215.897435,4464.102564,4226.666666,4240.512820,4495.897435,4212.307692,4667.179487,4042.051282,4090.769230
113,4407.179487,4520.000000,4553.846153,4262.564102,4503.589743,4220.512820,4468.205128,4225.128205,4247.692307,4497.435897,4211.282051,4669.743589,4040.000000,4087.692307
114,4405.641025,4523.589743,4554.358974,4258.974358,4503.076923,4218.461538,4464.102564,4221.538461,4247.692307,4486.666666,4217.435897,4667.692307,4035.384615,4088.717948
115,4401.025641,4517.435897,4552.820512,4254.871794,4501.538461,4214.358974,4461.538461,4225.641025,4244.102564,4481.538461,4210.256410,4666.666666,4031.282051,4086.153846
116,4398.974358,4511.794871,4553.333333,4260.000000,4501.538461,4216.410256,4465.641025,4231.282051,4244.615384,4495.384615,4204.615384,4666.666666,4031.282051,4081.025641
117,4403.589743,4518.974358,4560.512820,4269.743589,4504.615384,4223.076923,4469.230769,4236.410256,4251.282051,4510.256410,4219.487179,4667.692307,4031.282051,4085.128205
118,4408.717948,4526.153846,4565.128205,4273.333333,4508.205128,4228.205128,4474.358974,4242.564102,4257.435897,4511.282051,4226.153846,4671.282051,4028.717948,4089.743589
119,4410.256410,4525.128205,4565.641025,4276.410256,4511.282051,4230.256410,4478.461538,4245.641025,4258.461538,4509.230769,4222.051282,4676.410256,4028.205128,4088.205128
120,4409.743589,4526.153846,4568.205128,4275.897435,4511.794871,4228.717948,4476.923076,4242.051282,4261.538461,4512.820512,4223.589743,4677.435897,4029.230769,4087.692307
121,4407.692307,4527.692307,4569.743589,4269.743589,4510.769230,4226.666666,4476.923076,4238.461538,4262.564102,4513.846153,4220.000000,4671.794871,4027.179487,4090.256410
122,4404.102564,4526.666666,4561.025641,4265.128205,4509.743589,4229.230769,4476.923076,4238.974358,4259.487179,4506.153846,4209.230769,4665.641025,4022.051282,4083.589743
123,4397.948717,4519.487179,4553.846153,4260.000000,4511.794871,4227.692307,4475.897435,4241.025641,4256.410256,4501.538461,4202.051282,4663.076923,4017.948717,4071.794871
124,4393.846153,4512.820512,4553.846153,4256.923076,4508.717948,4223.589743,4475.897435,4237.948717,4258.974358,4504.102564,4201.025641,4657.948717,4014.358974,4070.769230
125,4391.794871,4511.282051,4552.307692,4257.435897,4504.102564,4222.564102,4473.333333,4230.769230,4256.410256,4502.051282,4205.641025,4652.307692,4010.769230,4069.230769
126,4391.282051,4514.358974,4551.282051,4255.384615,4505.641025,4222.051282,4470.256410,4231.794871,4252.820512,4494.358974,4211.282051,4653.846153,4011.282051,4061.538461
127,4394.358974,4516.410256,4552.820512,4256.410256,4506.666666,4221.538461,4470.256410,4241.025641,4261.025641,4500.000000,4210.769230,4658.461538,4012.820512,4062.051282
128,4400.512820,4520.512820,4553.846153,4267.692307,4505.641025,4223.076923,4475.384615,4244.102564,4266.153846,4517.435897,4216.923076,4664.102564,4017.948717,4076.923076
129,4402.051282,4522.051282,4555.384615,4270.256410,4509.230769,4227.179487,4476.410256,4243.076923,4260.000000,4520.000000,4225.128205,4667.179487,4025.128205,4082.564102
130,4397.435897,4517.435897,4554.871794,4262.051282,4510.256410,4227.692307,4473.333333,4242.051282,4257.948717,4506.666666,4210.256410,4662.564102,4025.128205,4073.333333
131,4397.435897,4518.461538,4554.871794,4263.589743,4506.153846,4223.076923,4473.846153,4240.512820,4265.128205,4505.641025,4202.564102,4663.076923,4022.051282,4073.846153
132,4403.076923,4527.179487,4557.435897,4270.769230,4510.256410,4221.025641,4473.846153,4238.974358,4264.615384,4520.512820,4220.512820,4669.230769,4022.564102,4084.102564
133,4405.641025,4532.307692,4557.435897,4273.846153,4514.871794,4227.179487,4473.846153,4241.025641,4260.000000,4521.025641,4230.256410,4669.230769,4026.153846,4085.128205
134,4407.692307,4533.333333,4556.923076,4276.923076,4515.897435,4232.820512,4476.410256,4238.461538,4262.564102,4511.794871,4220.000000,4666.666666,4029.743589,4081.538461
135,4406.666666,4531.794871,4557.435897,4280.512820,4517.435897,4229.743589,4475.897435,4230.769230,4265.128205,4511.282051,4212.307692,4665.641025,4020.512820,4080.512820
136,4402.564102,4529.230769,4556.923076,4278.974358,4513.333333,4225.128205,4473.333333,4233.846153,4267.692307,4512.307692,4217.435897,4664.102564,4013.846153,4076.410256
137,4398.461538,4524.102564,4555.384615,4270.769230,4512.307692,4226.153846,4474.358974,4241.025641,4268.205128,4510.769230,4220.512820,4663.076923,4022.051282,4070.769230
138,4394.871794,4520.512820,4555.384615,4270.769230,4514.358974,4230.769230,4476.923076,4240.512820,4266.666666,4513.333333,4218.974358,4663.589743,4021.538461,4073.846153
139,4397.435897,4522.051282,4556.410256,4280.512820,4515.384615,4231.794871,4475.384615,4236.410256,4266.153846,4518.461538,4216.923076,4663.589743,4011.282051,4078.974358
140,4404.615384,4527.692307,4555.897435,4281.538461,4514.871794,4228.205128,4473.333333,4230.256410,4262.051282,4515.384615,4212.820512,4660.512820,4016.410256,4076.410256
141,4405.128205,4531.282051,4553.846153,4273.333333,4513.333333,4227.179487,4473.333333,4230.769230,4260.000000,4511.794871,4212.820512,4660.512820,4026.666666,4072.820512
142,4399.487179,4533.333333,4552.307692,4274.358974,4513.846153,4230.256410,4475.897435,4240.000000,4268.717948,4517.435897,4223.589743,4663.589743,4027.179487,4078.461538
143,4396.410256,4531.282051,4553.333333,4277.435897,4516.923076,4229.743589,4475.384615,4242.564102,4273.333333,4517.948717,4230.769230,4662.564102,4025.641025,4081.538461
144,4398.974358,4526.153846,4552.307692,4270.769230,4516.923076,4225.641025,4472.820512,4232.820512,4268.717948,4514.871794,4220.512820,4657.948717,4026.666666,4076.923076
145,4404.102564,4525.641025,4551.794871,4269.743589,4514.871794,4223.589743,4472.820512,4228.717948,4264.615384,4516.923076,4215.897435,4658.974358,4025.641025,4075.897435
146,4403.076923,4527.692307,4553.333333,4276.410256,4518.461538,4224.615384,4472.820512,4231.794871,4258.974358,4512.820512,4213.846153,4661.538461,4020.512820,4076.410256
147,4402.051282,4526.666666,4554.358974,4280.512820,4519.487179,4227.692307,4472.820512,4232.820512,4256.410256,4507.692307,4206.666666,4662.051282,4019.487179,4076.410256
148,4405.128205,4529.230769,4554.871794,4277.435897,4518.974358,4229.743589,4475.384615,4234.871794,4262.564102,4514.358974,4215.897435,4662.564102,4027.179487,4081.538461
149,4402.564102,4532.307692,4550.769230,4274.358974,4523.076923,4227.692307,4472.820512,4236.923076,4268.205128,4518.461538,4229.743589,4659.487179,4030.769230,4080.512820
150,4392.820512,4524.615384,4542.051282,4272.307692,4522.564102,4225.641025,4471.282051,4236.923076,4267.692307,4511.794871,4218.974358,4653.846153,4022.051282,4070.256410
151,4388.205128,4516.410256,4537.948717,4268.717948,4517.435897,4223.589743,4470.256410,4234.871794,4261.025641,4510.769230,4207.179487,4650.769230,4011.282051,4066.153846
152,4392.307692,4521.025641,4541.538461,4271.794871,4517.948717,4223.076923,4470.256410,4236.410256,4259.487179,4514.358974,4223.076923,4655.384615,4014.358974,4072.307692
153,4397.435897,4522.564102,4543.076923,4277.948717,4517.435897,4224.615384,4471.794871,4241.025641,4265.641025,4512.820512,4233.333333,4657.435897,4020.512820,4073.846153
154,4394.358974,4515.384615,4538.461538,4275.384615,4512.820512,4223.589743,4468.717948,4237.948717,4257.948717,4511.282051,4216.410256,4650.769230,4016.923076,4068.717948
155,4388.205128,4515.897435,4538.974358,4270.256410,4512.307692,4223.076923,4467.179487,4230.256410,4252.820512,4513.846153,4204.102564,4649.230769,4016.410256,4068.205128
156,4392.820512,4523.076923,4548.717948,4275.384615,4516.923076,4226.666666,4472.820512,4230.256410,4263.589743,4514.871794,4211.794871,4655.384615,4024.615384,4073.333333
157,4402.051282,4528.205128,4553.333333,4284.615384,4518.974358,4230.256410,4474.358974,4234.871794,4262.564102,4513.333333,4224.615384,4657.435897,4025.641025,4076.923076
158,4400.512820,4530.256410,4549.230769,4283.589743,4520.000000,4229.230769,4471.282051,4233.846153,4251.282051,4512.307692,4215.897435,4654.871794,4017.435897,4074.871794
159,4390.256410,4521.025641,4537.435897,4266.153846,4515.897435,4224.102564,4465.128205,4226.666666,4252.820512,4503.589743,4192.820512,4649.743589,4009.230769,4064.102564
160,4380.000000,4506.153846,4528.205128,4253.333333,4511.282051,4220.512820,4460.000000,4221.538461,4250.769230,4491.794871,4189.230769,4643.589743,4006.666666,4055.384615
161,4384.615384,4510.769230,4535.897435,4270.769230,4513.333333,4223.076923,4463.076923,4225.641025,4245.128205,4497.435897,4207.692307,4647.692307,4014.871794,4064.102564
162,4397.948717,4524.102564,4552.820512,4289.230769,4517.948717,4225.641025,4470.769230,4235.384615,4258.461538,4515.897435,4225.128205,4658.461538,4025.641025,4077.948717
163,4401.538461,4522.051282,4557.435897,4281.538461,4514.358974,4222.564102,4467.179487,4239.487179,4269.743589,4522.051282,4230.256410,4662.051282,4023.076923,4077.948717
164,4395.897435,4520.512820,4547.179487,4274.871794,4509.743589,4220.512820,4459.487179,4235.384615,4260.512820,4514.871794,4227.179487,4659.487179,4021.025641,4073.846153
165,4395.384615,4527.692307,4545.128205,4281.025641,4513.333333,4223.076923,4464.615384,4235.384615,4256.410256,4508.717948,4221.025641,4657.435897,4025.128205,4075.897435
166,4396.923076,4522.564102,4549.230769,4278.461538,4516.923076,4224.615384,4472.307692,4240.512820,4265.641025,4512.820512,4215.897435,4656.410256,4022.564102,4073.333333
167,4389.743589,4509.743589,4543.076923,4271.794871,4512.307692,4220.512820,4469.230769,4240.512820,4264.615384,4515.897435,4209.743589,4653.846153,4016.923076,4068.205128
168,4386.153846,4510.256410,4542.051282,4273.846153,4504.615384,4216.923076,4467.692307,4237.435897,4254.358974,4508.205128,4197.435897,4652.307692,4013.846153,4066.666666
169,4395.897435,4524.615384,4552.307692,4279.487179,4508.205128,4221.025641,4472.820512,4241.025641,4261.025641,4508.205128,4196.923076,4656.923076,4014.871794,4071.282051
170,4398.461538,4526.666666,4551.282051,4281.025641,4512.820512,4223.589743,4472.307692,4245.641025,4269.743589,4508.717948,4208.717948,4656.410256,4014.358974,4076.410256
171,4385.128205,4516.923076,4536.410256,4273.846153,4507.179487,4217.435897,4467.179487,4240.000000,4261.538461,4500.000000,4210.256410,4645.128205,4006.666666,4067.692307
172,4380.000000,4519.487179,4535.897435,4268.717948,4505.641025,4217.435897,4472.307692,4234.871794,4256.410256,4505.128205,4203.076923,4644.615384,4006.153846,4058.974358
173,4391.282051,4528.205128,4544.102564,4275.384615,4507.179487,4223.076923,4476.410256,4241.025641,4261.025641,4514.358974,4204.615384,4653.333333,4013.846153,4065.641025
174,4391.794871,4518.974358,4541.538461,4278.974358,4506.153846,4222.051282,4474.358974,4241.025641,4257.948717,4506.153846,4204.102564,4649.743589,4007.692307,4070.769230
175,4381.025641,4508.205128,4537.948717,4274.358974,4506.666666,4218.974358,4474.358974,4237.948717,4254.871794,4505.128205,4194.358974,4645.641025,3996.923077,4065.128205
176,4381.025641,4514.871794,4540.000000,4273.846153,4507.179487,4224.102564,4474.358974,4242.564102,4265.128205,4515.897435,4202.051282,4653.846153,4002.564102,4068.717948
177,4388.717948,4515.897435,4540.512820,4269.743589,4503.076923,4227.179487,4471.282051,4244.615384,4268.205128,4511.282051,4208.205128,4656.923076,4010.256410,4074.358974
178,4383.589743,4503.076923,4536.923076,4259.487179,4502.051282,4216.923076,4469.230769,4236.923076,4256.923076,4498.974358,4191.794871,4648.205128,4005.641025,4064.615384
179,4377.948717,4497.948717,4536.923076,4259.487179,4500.512820,4211.794871,4468.717948,4235.384615,4255.897435,4498.974358,4186.666666,4644.615384,4003.076923,4060.512820
180,4382.051282,4501.538461,4538.461538,4261.025641,4494.871794,4216.410256,4465.128205,4237.435897,4257.435897,4500.000000,4196.410256,4647.692307,4002.564102,4063.589743
181,4382.051282,4502.564102,4538.461538,4253.333333,4497.435897,4217.435897,4462.051282,4228.205128,4244.102564,4494.358974,4197.948717,4649.743589,4000.512820,4060.000000
182,4384.102564,4504.615384,4545.641025,4260.000000,4508.717948,4217.435897,4462.051282,4229.230769,4240.000000,4494.871794,4198.974358,4654.871794,4011.794871,4063.076923
183,4393.846153,4512.307692,4555.384615,4272.307692,4514.358974,4223.589743,4464.615384,4242.564102,4258.974358,4510.769230,4192.820512,4658.974358,4028.717948,4075.384615
184,4394.358974,4515.384615,4555.384615,4266.666666,4512.307692,4226.666666,4466.666666,4242.051282,4272.820512,4517.435897,4177.435897,4654.871794,4026.153846,4076.410256
185,4385.128205,4508.205128,4550.769230,4262.051282,4509.230769,4222.051282,4465.128205,4232.307692,4262.564102,4503.076923,4180.512820,4648.717948,4013.846153,4065.641025
186,4380.000000,4500.512820,4550.769230,4264.615384,4507.179487,4221.025641,4458.461538,4228.717948,4247.179487,4493.333333,4192.820512,4644.102564,4010.769230,4057.948717
187,4378.461538,4504.615384,4549.743589,4258.974358,4506.153846,4221.025641,4456.923076,4223.589743,4241.538461,4493.333333,4186.153846,4641.538461,4011.794871,4056.410256
188,4380.512820,4509.230769,4544.615384,4254.358974,4504.615384,4217.948717,4462.564102,4208.205128,4234.871794,4483.076923,4172.307692,4640.000000,4007.179487,4056.410256
189,4377.948717,4504.102564,4540.000000,4252.307692,4501.025641,4213.333333,4455.384615,4198.461538,4222.564102,4467.692307,4163.589743,4633.846153,3996.923077,4047.179487
190,4368.717948,4498.974358,4534.358974,4247.179487,4493.333333,4206.666666,4442.051282,4198.974358,4221.025641,4461.538461,4161.538461,4623.589743,3989.230770,4037.435897
191,4369.230769,4500.000000,4538.461538,4247.692307,4490.769230,4205.641025,4447.179487,4205.128205,4229.230769,4470.256410,4171.282051,4628.717948,3996.410257,4044.615384
192,4379.487179,4503.076923,4550.769230,4255.384615,4493.333333,4212.820512,4459.487179,4211.794871,4232.820512,4482.051282,4179.487179,4641.538461,4007.179487,4055.384615
193,4382.051282,4509.743589,4554.358974,4261.025641,4496.923076,4214.871794,4457.948717,4211.794871,4232.307692,4477.948717,4170.769230,4638.974358,4004.102564,4051.282051
194,4377.435897,4512.820512,4550.256410,4264.102564,4499.487179,4212.307692,4454.358974,4211.794871,4235.384615,4478.461538,4169.230769,4633.333333,4003.076923,4050.769230
195,4378.974358,4511.794871,4551.794871,4264.615384,4498.974358,4215.897435,4459.487179,4219.487179,4238.974358,4493.846153,4186.153846,4637.948717,4010.256410,4059.487179
196,4387.692307,4518.461538,4557.948717,4264.615384,4502.051282,4219.487179,4460.512820,4224.615384,4242.564102,4495.897435,4193.846153,4646.153846,4015.384615,4064.102564
197,4395.384615,4521.025641,4556.923076,4265.128205,4501.025641,4214.871794,4455.897435,4218.461538,4244.615384,4487.179487,4182.564102,4648.205128,4015.897435,4063.076923
198,4393.333333,4513.846153,4554.871794,4261.025641,4496.410256,4211.282051,4456.923076,4215.897435,4242.564102,4491.282051,4173.333333,4646.153846,4013.846153,4061.025641
199,4392.307692,4513.846153,4562.564102,4257.435897,4497.948717,4213.846153,4465.128205,4225.641025,4245.641025,4497.948717,4185.641025,4652.307692,4021.025641,4066.153846
200,4400.000000,4516.410256,4569.743589,4263.589743,4500.000000,4219.487179,4469.743589,4230.256410,4254.358974,4501.025641,4204.615384,4663.589743,4032.307692,4080.000000
201,4400.000000,4512.820512,4561.538461,4261.538461,4498.974358,4215.384615,4461.538461,4226.666666,4253.846153,4497.435897,4203.589743,4661.025641,4032.820512,4080.512820
202,4393.333333,4511.794871,4552.307692,4251.794871,4497.948717,4210.769230,4456.410256,4225.128205,4244.102564,4487.692307,4196.923076,4651.794871,4027.179487,4071.794871
203,4395.384615,4514.358974,4555.897435,4254.871794,4500.512820,4216.410256,4460.512820,4229.230769,4251.282051,4494.871794,4203.076923,4654.871794,4029.743589,4074.358974
204,4402.051282,4515.384615,4557.948717,4262.051282,4500.512820,4216.923076,4459.487179,4229.230769,4262.051282,4513.846153,4203.589743,4659.487179,4034.871794,4075.897435
205,4404.615384,4520.512820,4556.923076,4261.025641,4501.025641,4210.769230,4455.384615,4223.076923,4252.307692,4511.282051,4196.923076,4657.435897,4038.974358,4075.897435
206,4406.153846,4529.230769,4564.615384,4264.102564,4502.051282,4218.974358,4462.564102,4222.564102,4246.666666,4502.564102,4205.641025,4664.615384,4045.128205,4089.230769
207,4412.307692,4535.897435,4570.769230,4270.769230,4507.692307,4229.743589,4468.717948,4229.743589,4261.538461,4511.794871,4213.333333,4672.307692,4046.153846,4102.051282
208,4416.410256,4536.923076,4570.769230,4268.205128,4511.794871,4225.641025,4464.615384,4235.897435,4266.153846,4516.923076,4204.615384,4669.230769,4046.666666,4097.435897
209,4411.794871,4532.307692,4568.205128,4265.128205,4504.615384,4219.487179,4460.000000,4232.820512,4256.410256,4504.615384,4200.000000,4666.666666,4046.666666,4088.717948
210,4408.205128,4534.871794,4567.179487,4266.666666,4502.564102,4219.487179,4458.974358,4228.205128,4251.282051,4502.051282,4206.153846,4667.179487,4040.512820,4087.179487
211,4415.384615,4543.076923,4571.282051,4271.794871,4513.333333,4226.666666,4467.179487,4227.179487,4250.256410,4515.897435,4215.897435,4667.692307,4040.000000,4090.769230
212,4420.000000,4545.641025,4574.871794,4279.487179,4517.948717,4230.256410,4474.358974,4228.717948,4253.846153,4517.435897,4218.974358,4665.641025,4044.615384,4090.769230
213,4412.307692,4541.025641,4569.743589,4274.871794,4510.769230,4223.589743,4468.205128,4231.282051,4260.512820,4507.179487,4206.153846,4661.025641,4042.564102,4084.615384
214,4409.743589,4538.974358,4569.230769,4269.743589,4508.205128,4220.000000,4465.641025,4230.769230,4256.410256,4505.641025,4201.538461,4663.589743,4043.589743,4083.589743
215,4417.948717,4543.589743,4575.897435,4275.384615,4513.333333,4223.076923,4469.743589,4228.717948,4249.230769,4508.205128,4214.358974,4670.769230,4051.282051,4089.743589
216,4416.410256,4543.076923,4574.871794,4275.384615,4511.794871,4221.025641,4465.641025,4226.666666,4251.282051,4509.743589,4215.384615,4668.717948,4046.153846,4090.256410
217,4408.205128,4535.384615,4570.256410,4272.820512,4507.179487,4217.948717,4464.615384,4228.205128,4258.974358,4515.384615,4201.538461,4664.102564,4039.487179,4088.205128
218,4411.282051,4536.410256,4569.743589,4277.435897,4508.717948,4221.025641,4473.333333,4233.333333,4264.615384,4512.307692,4203.076923,4668.717948,4048.205128,4089.743589
219,4423.076923,4547.692307,4575.384615,4281.538461,4515.384615,4226.666666,4477.435897,4239.487179,4266.153846,4503.076923,4219.487179,4676.410256,4055.897435,4096.923076
220,4420.512820,4550.256410,4581.025641,4276.923076,4516.410256,4229.743589,4473.333333,4238.974358,4258.974358,4502.564102,4223.076923,4677.948717,4053.846153,4100.000000
221,4412.307692,4541.538461,4575.384615,4272.820512,4513.333333,4229.743589,4470.256410,4232.307692,4252.820512,4503.589743,4214.358974,4675.384615,4053.846153,4093.846153
222,4420.000000,4539.487179,4575.384615,4281.025641,4512.820512,4228.717948,4470.769230,4235.384615,4258.974358,4509.743589,4217.948717,4678.974358,4057.948717,4093.333333
223,4427.179487,4542.051282,4583.589743,4290.256410,4513.846153,4224.615384,4471.794871,4243.076923,4267.179487,4521.025641,4228.205128,4684.615384,4059.487179,4100.512820
224,4416.923076,4538.974358,4578.974358,4282.564102,4510.769230,4222.051282,4471.794871,4237.948717,4266.153846,4515.897435,4225.128205,4677.948717,4056.923076,4096.923076
225,4408.717948,4538.461538,4568.205128,4272.820512,4510.256410,4223.589743,4469.230769,4230.256410,4263.076923,4502.564102,4210.256410,4667.179487,4050.256410,4084.615384
226,4416.923076,4542.051282,4568.205128,4281.025641,4510.256410,4223.589743,4464.615384,4229.743589,4256.923076,4497.948717,4203.589743,4666.153846,4051.794871,4088.205128
227,4425.128205,4542.564102,4574.871794,4286.153846,4511.282051,4223.589743,4465.128205,4230.256410,4250.256410,4501.538461,4216.410256,4674.871794,4062.051282,4100.512820
228,4423.589743,4548.205128,4581.025641,4280.000000,4520.000000,4230.769230,4472.307692,4237.435897,4257.948717,4517.435897,4232.820512,4682.564102,4067.179487,4099.487179
229,4424.102564,4555.384615,4586.153846,4286.666666,4526.153846,4236.923076,4477.948717,4249.743589,4276.923076,4532.820512,4231.282051,4683.076923,4069.230769,4101.025641
230,4424.102564,4550.256410,4582.051282,4291.282051,4518.974358,4230.256410,4472.307692,4247.692307,4274.358974,4521.025641,4223.076923,4678.974358,4068.205128,4106.153846
231,4419.487179,4540.512820,4573.333333,4277.948717,4508.205128,4220.512820,4466.153846,4236.410256,4256.410256,4500.512820,4224.102564,4671.794871,4053.846153,4096.923076
232,4413.333333,4537.435897,4568.205128,4269.743589,4501.538461,4218.974358,4465.128205,4230.256410,4251.282051,4504.102564,4215.897435,4665.128205,4041.025641,4084.102564
233,4406.666666,4531.282051,4565.128205,4268.717948,4503.589743,4222.564102,4463.589743,4224.102564,4250.769230,4505.128205,4200.000000,4661.538461,4043.076923,4079.487179
234,4405.128205,4527.692307,4567.179487,4268.717948,4508.717948,4223.076923,4465.641025,4226.666666,4251.282051,4497.435897,4204.615384,4663.076923,4048.205128,4078.974358
235,4409.743589,4532.307692,4570.256410,4273.333333,4503.589743,4219.487179,4466.666666,4240.000000,4260.000000,4510.256410,4215.384615,4668.205128,4044.102564,4085.128205
236,4414.871794,4532.307692,4571.794871,4276.923076,4496.410256,4217.435897,4462.051282,4243.589743,4262.564102,4523.589743,4216.923076,4673.846153,4040.000000,4095.384615
237,4411.794871,4530.256410,4573.333333,4273.333333,4501.025641,4218.461538,4463.076923,4237.948717,4255.384615,4512.307692,4223.076923,4675.384615,4042.564102,4093.846153
238,4407.692307,4529.230769,4572.820512,4270.256410,4502.051282,4220.000000,4469.743589,4237.435897,4256.410256,4499.487179,4223.589743,4670.769230,4044.102564,4087.692307
239,4408.717948,4527.179487,4570.256410,4270.256410,4496.923076,4218.461538,4467.179487,4237.435897,4261.538461,4500.512820,4208.717948,4666.153846,4040.000000,4087.179487
240,4411.794871,4527.179487,4570.256410,4268.717948,4500.000000,4216.923076,4463.076923,4231.794871,4260.512820,4503.076923,4205.128205,4666.666666,4038.461538,4088.205128
241,4409.230769,4530.769230,4570.769230,4271.282051,4503.076923,4220.000000,4465.641025,4227.179487,4252.820512,4502.564102,4220.512820,4666.666666,4037.435897,4087.692307
242,4398.974358,4525.641025,4561.025641,4268.717948,4502.051282,4218.461538,4462.051282,4222.564102,4242.564102,4499.487179,4218.974358,4660.000000,4029.743589,4080.000000
243,4392.307692,4514.358974,4551.794871,4258.461538,4500.000000,4215.897435,4455.897435,4217.435897,4239.487179,4495.384615,4203.589743,4654.358974,4023.589743,4071.794871
244,4392.820512,4516.923076,4554.358974,4259.487179,4499.487179,4215.897435,4460.512820,4221.025641,4244.102564,4494.871794,4203.076923,4653.846153,4023.076923,4072.820512
245,4393.333333,4519.487179,4555.897435,4265.641025,4500.000000,4215.897435,4466.153846,4226.666666,4247.179487,4490.769230,4199.487179,4649.743589,4018.461538,4070.769230
246,4389.230769,4509.743589,4551.282051,4261.538461,4497.948717,4214.871794,4465.641025,4224.615384,4250.769230,4481.538461,4180.512820,4644.102564,4009.743589,4060.512820
247,4386.153846,4508.205128,4550.769230,4254.358974,4493.846153,4217.435897,4464.102564,4222.564102,4249.743589,4481.025641,4179.487179,4645.128205,4008.205128,4059.487179
248,4391.282051,4516.410256,4553.846153,4259.487179,4497.435897,4221.025641,4471.794871,4228.717948,4244.102564,4490.256410,4195.897435,4651.794871,4011.794871,4069.743589
249,4394.871794,4516.923076,4555.897435,4264.102564,4505.128205,4223.589743,4478.974358,4236.410256,4249.743589,4498.461538,4198.974358,4653.333333,4012.307692,4073.846153
250,4395.384615,4517.948717,4561.538461,4262.564102,4504.102564,4227.179487,4475.897435,4238.461538,4262.051282,4498.461538,4199.487179,4652.820512,4012.820512,4070.769230
251,4400.000000,4526.153846,4569.230769,4268.205128,4507.692307,4228.205128,4474.358974,4241.025641,4265.641025,4497.435897,4208.717948,4660.512820,4017.435897,4073.333333
252,4400.512820,4526.153846,4570.769230,4271.794871,4509.743589,4227.179487,4474.358974,4237.948717,4262.564102,4500.000000,4206.153846,4664.615384,4016.410256,4075.384615
253,4396.410256,4525.128205,4567.179487,4271.282051,4504.102564,4227.179487,4473.333333,4232.307692,4261.538461,4498.974358,4196.410256,4662.051282,4014.871794,4074.358974
254,4400.512820,4528.717948,4568.205128,4271.282051,4506.153846,4224.102564,4473.333333,4236.410256,4257.948717,4497.948717,4200.512820,4661.025641,4016.410256,4076.923076
255,4398.974358,4523.589743,4566.666666,4267.179487,4507.179487,4217.948717,4464.615384,4234.871794,4251.794871,4500.512820,4196.410256,4655.897435,4007.692307,4073.333333
256,4386.153846,4513.333333,4558.974358,4261.538461,4495.897435,4210.256410,4455.384615,4220.512820,4246.153846,4495.384615,4184.102564,4646.153846,3995.384616,4064.615384
257,4385.128205,4515.384615,4560.000000,4260.000000,4489.743589,4209.743589,4457.948717,4215.384615,4242.564102,4488.717948,4192.307692,4647.179487,3996.923077,4063.589743
258,4393.846153,4518.461538,4568.717948,4262.051282,4495.384615,4212.820512,4459.487179,4221.025641,4244.102564,4493.846153,4204.102564,4652.307692,4004.615384,4068.717948
259,4393.846153,4514.871794,4570.256410,4264.102564,4496.923076,4208.717948,4452.820512,4222.051282,4249.230769,4498.974358,4196.410256,4651.282051,4007.692307,4072.307692
