,AF3,F7,F3,FC5,T7,P7,O1,O2,P8,T8,FC6,F4,F8,AF4
0,4377.435897,4522.564102,4515.897435,4248.717948,4469.743589,4194.358974,4423.076923,4191.794871,4209.230769,4482.051282,4181.025641,4649.743589,3937.435898,4081.025641
1,4363.589743,4511.282051,4505.641025,4245.128205,4458.974358,4187.179487,4414.358974,4187.179487,4208.205128,4472.307692,4172.307692,4648.205128,3931.794872,4067.179487
2,4360.512820,4505.641025,4504.615384,4237.948717,4467.179487,4190.769230,4415.897435,4194.358974,4212.820512,4469.230769,4169.230769,4647.692307,3933.846154,4062.051282
3,4366.666666,4508.205128,4504.615384,4235.384615,4484.102564,4202.051282,4427.692307,4197.948717,4215.897435,4467.179487,4175.897435,4650.256410,3934.871795,4068.717948
4,4362.051282,4508.205128,4500.000000,4236.923076,4476.410256,4196.923076,4425.641025,4192.820512,4210.769230,4456.923076,4180.512820,4652.820512,3932.820513,4068.717948
5,4356.410256,4507.692307,4498.974358,4240.000000,4467.692307,4194.871794,4422.564102,4196.923076,4212.820512,4467.179487,4181.025641,4656.410256,3935.897436,4060.512820
6,4358.974358,4510.256410,4497.435897,4235.384615,4475.897435,4203.076923,4429.230769,4204.102564,4223.589743,4487.692307,4184.615384,4657.948717,3942.051283,4052.820512
7,4355.384615,4507.179487,4489.230769,4231.282051,4470.256410,4197.435897,4430.256410,4200.512820,4219.487179,4485.641025,4181.538461,4649.230769,3938.461539,4048.717948
8,4348.717948,4506.666666,4488.205128,4233.333333,4448.717948,4186.666666,4424.102564,4194.871794,4209.230769,4466.666666,4172.307692,4638.974358,3931.794872,4049.230769
9,4354.358974,4514.871794,4491.282051,4233.333333,4451.282051,4189.230769,4423.076923,4190.769230,4210.256410,4454.871794,4173.333333,4640.512820,3933.333334,4052.820512
10,4358.461538,4516.410256,4489.230769,4232.820512,4473.333333,4190.769230,4418.461538,4187.692307,4208.717948,4454.358974,4177.435897,4643.589743,3933.846154,4051.282051
11,4355.384615,4514.871794,4490.256410,4233.333333,4484.615384,4190.769230,4412.820512,4185.128205,4202.564102,4463.589743,4174.871794,4643.589743,3931.282052,4045.641025
12,4357.435897,4517.435897,4493.333333,4232.820512,4484.102564,4195.384615,4418.974358,4186.666666,4207.179487,4475.897435,4175.897435,4646.666666,3933.846154,4041.025641
13,4355.897435,4514.871794,4491.794871,4227.179487,4476.410256,4192.307692,4423.076923,4187.179487,4208.717948,4474.358974,4175.897435,4645.641025,3931.794872,4031.282051
14,4347.692307,4505.641025,4490.256410,4220.000000,4458.974358,4181.538461,4416.410256,4183.076923,4197.435897,4449.230769,4166.666666,4641.025641,3917.948718,4026.153846
15,4346.153846,4501.025641,4491.282051,4216.410256,4448.717948,4182.564102,4415.384615,4183.589743,4197.435897,4436.410256,4165.128205,4644.102564,3917.948718,4032.307692
16,4346.666666,4503.076923,4489.743589,4217.435897,4452.307692,4188.205128,4418.974358,4189.230769,4204.615384,4458.461538,4174.358974,4647.692307,3928.205129,4034.358974
17,4348.205128,4504.102564,4489.230769,4222.051282,4457.435897,4183.589743,4414.358974,4190.256410,4201.025641,4471.794871,4178.461538,4648.717948,3925.641026,4028.205128
18,4356.410256,4509.743589,4497.948717,4229.230769,4468.205128,4184.102564,4416.410256,4192.820512,4201.538461,4466.666666,4178.974358,4653.846153,3926.153847,4031.282051
19,4360.000000,4517.948717,4506.153846,4232.820512,4476.410256,4193.333333,4426.153846,4198.974358,4211.282051,4468.717948,4180.000000,4658.461538,3935.897436,4037.435897
20,4357.948717,4517.948717,4507.179487,4226.666666,4473.846153,4193.333333,4426.666666,4200.000000,4217.948717,4475.897435,4185.128205,4660.512820,3935.897436,4036.923076
21,4360.512820,4515.897435,4503.076923,4227.692307,4476.923076,4192.307692,4426.153846,4202.051282,4220.512820,4480.512820,4189.230769,4663.076923,3935.897436,4041.025641
22,4360.000000,4517.435897,4500.000000,4230.769230,4481.025641,4198.974358,4429.743589,4202.051282,4220.000000,4479.487179,4186.666666,4659.487179,3941.025642,4041.538461
23,4350.256410,4511.794871,4494.871794,4223.076923,4464.102564,4196.410256,4426.666666,4191.282051,4210.256410,4465.641025,4174.871794,4649.743589,3928.717949,4028.205128
24,4342.051282,4506.666666,4490.256410,4220.512820,4451.282051,4188.205128,4424.102564,4187.692307,4205.128205,4460.000000,4168.205128,4645.128205,3915.897436,4015.897435
25,4347.692307,4514.358974,4498.461538,4228.205128,4471.282051,4196.410256,4432.307692,4199.487179,4214.358974,4479.487179,4174.871794,4651.282051,3928.205129,4022.051282
26,4357.435897,4518.974358,4506.666666,4231.282051,4486.153846,4206.666666,4434.871794,4207.179487,4223.076923,4487.692307,4183.076923,4660.512820,3938.461539,4037.435897
27,4357.435897,4513.333333,4498.461538,4224.615384,4475.897435,4195.384615,4427.692307,4198.461538,4215.897435,4469.743589,4182.564102,4658.461538,3929.230770,4035.897435
28,4351.282051,4512.820512,4489.230769,4218.461538,4468.205128,4185.128205,4424.615384,4187.692307,4204.102564,4462.051282,4177.948717,4650.769230,3924.102565,4020.512820
29,4346.666666,4512.307692,4493.846153,4217.948717,4464.615384,4186.666666,4422.051282,4188.205128,4205.641025,4472.820512,4172.307692,4649.230769,3925.128206,4011.282051
30,4338.974358,4504.102564,4493.333333,4215.897435,4455.384615,4185.128205,4417.435897,4192.820512,4209.743589,4475.384615,4166.666666,4644.102564,3920.000000,4013.333333
31,4336.410256,4504.102564,4488.205128,4216.923076,4464.102564,4186.666666,4422.564102,4195.384615,4210.769230,4475.384615,4172.820512,4642.564102,3923.589744,4023.076923
32,4344.102564,4510.256410,4492.820512,4221.538461,4477.948717,4192.307692,4429.230769,4199.487179,4214.871794,4482.564102,4183.076923,4651.282051,3932.307693,4034.871794
33,4348.717948,4512.307692,4494.871794,4223.589743,4476.410256,4191.794871,4426.153846,4201.025641,4215.897435,4475.897435,4177.435897,4651.794871,3925.641026,4029.743589
34,4350.769230,4515.897435,4492.820512,4225.128205,4478.461538,4190.256410,4425.128205,4197.948717,4214.358974,4463.589743,4170.769230,4648.205128,3918.461539,4014.871794
35,4349.743589,4518.461538,4493.846153,4228.205128,4469.743589,4190.256410,4427.692307,4195.384615,4214.871794,4471.282051,4167.692307,4646.153846,3915.384616,4015.384615
36,4341.538461,4508.717948,4490.769230,4223.589743,4447.179487,4182.564102,4424.615384,4190.769230,4208.717948,4480.512820,4159.487179,4638.974358,3910.256411,4021.025641
37,4340.512820,4503.589743,4490.769230,4219.487179,4456.923076,4184.102564,4423.589743,4188.717948,4204.102564,4473.846153,4161.025641,4637.435897,3914.871795,4016.923076
38,4350.256410,4515.897435,4501.025641,4230.769230,4489.743589,4198.461538,4428.205128,4198.461538,4217.435897,4472.820512,4176.410256,4651.794871,3930.256411,4025.641025
39,4361.538461,4526.666666,4509.743589,4237.948717,4500.512820,4204.615384,4431.282051,4206.153846,4223.589743,4477.948717,4184.102564,4663.076923,3937.948718,4043.589743
40,4363.076923,4522.564102,4509.230769,4233.333333,4485.641025,4198.461538,4429.743589,4198.461538,4214.871794,4485.128205,4181.538461,4661.025641,3934.358975,4042.564102
41,4351.794871,4514.871794,4503.076923,4230.769230,4468.205128,4189.743589,4427.179487,4191.794871,4215.897435,4493.846153,4174.871794,4653.846153,3929.743590,4032.820512
42,4348.717948,4514.871794,4499.487179,4231.282051,4472.820512,4189.230769,4426.666666,4194.871794,4222.051282,4494.871794,4171.794871,4651.282051,3928.205129,4032.307692
43,4361.538461,4522.051282,4502.051282,4234.358974,4486.666666,4193.846153,4427.179487,4198.974358,4221.025641,4486.153846,4180.512820,4655.384615,3931.794872,4034.358974
44,4364.102564,4526.153846,4505.128205,4234.871794,4485.641025,4193.846153,4427.179487,4205.128205,4224.615384,4478.461538,4187.692307,4656.923076,3932.820513,4035.384615
45,4357.435897,4522.051282,4507.179487,4232.307692,4483.076923,4194.871794,4431.282051,4212.307692,4230.256410,4476.923076,4184.102564,4655.384615,3934.871795,4040.512820
46,4353.846153,4513.846153,4503.589743,4233.333333,4480.512820,4195.384615,4434.871794,4210.256410,4226.153846,4484.102564,4180.512820,4654.358974,3935.897436,4037.435897
47,4346.153846,4512.307692,4493.846153,4230.769230,4471.794871,4192.820512,4431.282051,4200.512820,4216.923076,4490.769230,4171.794871,4645.128205,3924.615385,4022.051282
48,4342.051282,4514.358974,4492.307692,4229.743589,4470.256410,4192.820512,4429.743589,4198.974358,4215.384615,4491.794871,4163.589743,4640.000000,3917.948718,4018.974358
49,4351.794871,4514.871794,4503.076923,4232.820512,4469.743589,4192.307692,4428.717948,4204.102564,4220.512820,4492.820512,4172.820512,4649.743589,3930.769231,4032.307692
50,4361.025641,4516.410256,4508.205128,4234.358974,4469.743589,4190.256410,4428.205128,4204.615384,4224.102564,4489.230769,4183.589743,4654.871794,3940.512821,4040.000000
51,4363.589743,4522.564102,4505.128205,4234.358974,4490.256410,4199.487179,4438.461538,4204.102564,4223.589743,4487.179487,4185.128205,4655.384615,3938.974359,4039.487179
52,4362.564102,4525.128205,4506.153846,4236.410256,4503.076923,4204.102564,4442.564102,4203.076923,4220.000000,4496.923076,4187.179487,4657.435897,3936.410257,4043.076923
53,4352.820512,4515.384615,4507.692307,4231.282051,4484.615384,4192.307692,4431.282051,4197.435897,4214.358974,4496.410256,4182.051282,4654.358974,3932.307693,4040.000000
54,4343.589743,4506.666666,4501.025641,4228.717948,4471.282051,4186.153846,4424.615384,4193.846153,4210.769230,4478.974358,4170.769230,4647.179487,3926.153847,4022.564102
55,4348.717948,4510.769230,4496.923076,4234.871794,4472.820512,4185.641025,4428.717948,4196.923076,4213.333333,4475.897435,4171.794871,4646.666666,3923.589744,4020.512820
56,4357.948717,4516.923076,4502.564102,4237.435897,4473.846153,4185.128205,4433.846153,4200.512820,4215.897435,4481.025641,4175.384615,4650.769230,3927.179488,4037.435897
57,4365.128205,4519.487179,4510.769230,4243.076923,4482.564102,4192.820512,4442.051282,4208.205128,4223.589743,4480.000000,4173.846153,4657.435897,3930.769231,4044.615384
58,4361.538461,4517.948717,4509.743589,4248.205128,4489.743589,4201.025641,4444.102564,4214.358974,4228.205128,4487.692307,4173.333333,4656.923076,3925.128206,4032.307692
59,4349.743589,4510.769230,4505.128205,4238.461538,4476.410256,4191.794871,4435.384615,4205.641025,4220.000000,4495.384615,4169.230769,4646.666666,3912.820513,4022.051282
60,4351.282051,4502.051282,4505.641025,4227.692307,4470.256410,4186.153846,4437.948717,4201.025641,4219.487179,4492.307692,4166.666666,4646.153846,3915.384616,4030.769230
61,4362.564102,4504.102564,4507.179487,4232.307692,4491.794871,4201.538461,4448.205128,4211.282051,4227.179487,4488.205128,4171.282051,4655.897435,3928.205129,4041.538461
62,4362.051282,4512.307692,4507.179487,4236.923076,4502.051282,4207.692307,4448.205128,4213.333333,4227.179487,4487.179487,4177.948717,4654.358974,3931.282052,4038.974358
63,4356.923076,4511.282051,4505.641025,4230.256410,4483.076923,4197.948717,4443.076923,4206.666666,4224.102564,4485.641025,4177.948717,4645.641025,3927.692308,4035.384615
64,4358.461538,4509.743589,4505.641025,4228.205128,4474.358974,4197.948717,4442.564102,4207.179487,4224.615384,4494.871794,4174.358974,4646.153846,3930.256411,4043.076923
65,4359.487179,4515.897435,4506.153846,4237.948717,4488.717948,4202.051282,4444.102564,4205.128205,4223.076923,4497.435897,4171.794871,4648.717948,3933.846154,4042.564102
66,4362.051282,4520.000000,4507.692307,4244.615384,4487.692307,4199.487179,4442.564102,4198.461538,4218.461538,4485.128205,4170.769230,4648.717948,3934.871795,4034.871794
67,4369.230769,4520.000000,4511.282051,4245.641025,4480.000000,4198.461538,4443.589743,4200.512820,4220.512820,4492.820512,4176.923076,4652.307692,3939.487180,4049.230769
68,4369.743589,4519.487179,4511.282051,4244.102564,4492.307692,4201.538461,4444.102564,4206.153846,4226.153846,4510.769230,4183.076923,4653.846153,3941.538462,4064.615384
69,4363.589743,4514.871794,4506.666666,4237.948717,4494.358974,4201.538461,4442.564102,4205.128205,4224.615384,4496.923076,4177.948717,4648.717948,3934.871795,4049.230769
70,4361.025641,4513.846153,4502.564102,4237.435897,4484.615384,4201.538461,4442.051282,4203.076923,4220.000000,4481.538461,4171.794871,4643.589743,3931.282052,4036.923076
71,4363.589743,4518.974358,4506.666666,4244.615384,4496.923076,4204.102564,4444.615384,4203.076923,4224.615384,4498.974358,4179.487179,4645.128205,3937.435898,4050.769230
72,4364.615384,4518.461538,4506.666666,4244.102564,4507.692307,4204.102564,4444.615384,4204.102564,4230.769230,4507.179487,4185.128205,4644.615384,3941.025642,4056.923076
73,4360.512820,4514.358974,4499.487179,4239.487179,4493.846153,4200.000000,4443.076923,4205.128205,4226.153846,4494.871794,4177.948717,4640.512820,3935.384616,4042.564102
74,4363.076923,4516.410256,4500.000000,4244.615384,4488.205128,4200.512820,4444.615384,4205.641025,4228.205128,4502.564102,4180.512820,4643.076923,3936.923077,4042.564102
75,4371.282051,4521.025641,4510.769230,4249.230769,4497.948717,4205.128205,4447.692307,4212.307692,4236.923076,4516.923076,4188.717948,4651.282051,3946.666667,4058.974358
76,4369.230769,4517.948717,4513.846153,4244.615384,4486.666666,4201.025641,4445.128205,4213.846153,4233.333333,4502.564102,4181.538461,4648.717948,3943.076924,4060.512820
77,4363.076923,4516.410256,4507.692307,4247.179487,4471.794871,4196.923076,4441.538461,4205.128205,4224.615384,4487.692307,4169.743589,4641.538461,3928.205129,4046.153846
78,4368.205128,4523.076923,4512.820512,4257.435897,4489.743589,4205.128205,4442.051282,4202.564102,4226.666666,4497.435897,4174.871794,4648.717948,3931.282052,4049.230769
79,4382.051282,4531.282051,4528.205128,4258.974358,4516.923076,4209.743589,4444.102564,4208.205128,4233.333333,4509.743589,4188.205128,4664.102564,3947.692308,4069.230769
80,4390.769230,4533.846153,4532.307692,4255.897435,4517.948717,4210.256410,4444.102564,4211.794871,4234.871794,4515.384615,4190.256410,4666.666666,3951.794872,4078.974358
81,4387.179487,4532.307692,4526.666666,4259.487179,4504.102564,4214.358974,4444.615384,4211.794871,4238.461538,4515.897435,4186.153846,4662.564102,3948.717949,4075.384615
82,4378.974358,4529.230769,4525.641025,4259.487179,4493.333333,4210.769230,4446.666666,4211.794871,4240.000000,4510.256410,4188.717948,4662.051282,3950.256411,4072.820512
83,4374.358974,4520.000000,4523.589743,4248.205128,4480.512820,4198.974358,4445.128205,4206.666666,4232.307692,4502.051282,4186.153846,4655.384615,3945.641026,4068.205128
84,4375.897435,4519.487179,4518.974358,4246.666666,4484.615384,4199.487179,4442.564102,4205.641025,4229.743589,4498.974358,4177.435897,4646.153846,3938.974359,4063.589743
85,4380.000000,4525.641025,4521.025641,4251.794871,4501.538461,4206.666666,4443.076923,4207.179487,4234.871794,4502.051282,4178.974358,4648.717948,3943.076924,4063.589743
86,4382.564102,4523.076923,4524.102564,4248.205128,4499.487179,4203.076923,4439.487179,4201.538461,4231.282051,4506.153846,4183.076923,4655.384615,3946.153847,4060.512820
87,4382.051282,4519.487179,4522.564102,4247.692307,4494.871794,4199.487179,4431.282051,4198.974358,4222.564102,4505.641025,4176.410256,4653.333333,3941.025642,4063.076923
88,4381.025641,4523.076923,4517.948717,4249.230769,4500.000000,4201.538461,4428.717948,4200.000000,4221.025641,4492.307692,4169.743589,4643.076923,3935.897436,4069.743589
89,4375.384615,4521.025641,4509.743589,4245.641025,4484.102564,4200.000000,4433.333333,4193.846153,4217.435897,4477.435897,4165.128205,4632.820512,3930.769231,4060.000000
90,4364.102564,4510.256410,4503.589743,4240.000000,4466.153846,4195.384615,4434.871794,4187.179487,4209.743589,4482.051282,4158.461538,4629.743589,3923.589744,4044.102564
91,4366.153846,4508.205128,4509.743589,4241.538461,4485.641025,4196.923076,4435.897435,4192.307692,4216.410256,4501.025641,4165.128205,4640.000000,3926.666667,4050.769230
92,4383.076923,4514.358974,4522.051282,4248.717948,4506.666666,4204.615384,4441.025641,4205.128205,4235.384615,4510.256410,4187.179487,4650.769230,3940.512821,4072.820512
93,4386.153846,4518.461538,4527.692307,4251.794871,4493.846153,4203.589743,4443.589743,4212.307692,4241.025641,4508.205128,4190.256410,4651.282051,3948.205129,4076.923076
94,4376.923076,4517.435897,4523.589743,4252.307692,4485.641025,4197.435897,4441.538461,4210.256410,4232.307692,4511.794871,4180.512820,4648.205128,3948.717949,4066.153846
95,4376.410256,4517.435897,4520.512820,4252.820512,4496.923076,4202.564102,4441.538461,4211.282051,4236.410256,4513.846153,4186.153846,4646.153846,3952.307693,4065.641025
96,4380.000000,4516.923076,4521.538461,4250.769230,4498.461538,4209.743589,4443.076923,4215.897435,4246.153846,4503.589743,4187.692307,4643.076923,3949.230770,4070.769230
97,4381.025641,4513.333333,4522.564102,4247.179487,4493.846153,4206.153846,4442.051282,4212.307692,4241.538461,4504.102564,4174.358974,4644.615384,3939.487180,4067.179487
98,4383.589743,4507.692307,4525.641025,4247.692307,4500.000000,4208.717948,4446.666666,4210.256410,4238.974358,4519.487179,4174.358974,4650.769230,3942.051283,4064.615384
99,4382.051282,4504.102564,4528.717948,4247.179487,4505.128205,4215.384615,4452.820512,4212.820512,4243.589743,4524.102564,4184.615384,4650.256410,3949.743590,4069.743589
100,4376.410256,4508.717948,4524.615384,4247.179487,4494.871794,4209.743589,4449.230769,4211.794871,4240.512820,4511.282051,4181.538461,4646.666666,3945.641026,4073.846153
101,4381.025641,4516.410256,4522.564102,4255.897435,4494.358974,4207.692307,4445.641025,4207.179487,4234.871794,4497.435897,4177.435897,4647.179487,3941.025642,4075.897435
102,4393.846153,4524.102564,4532.307692,4263.589743,4512.307692,4216.410256,4449.230769,4207.179487,4237.435897,4505.641025,4184.615384,4649.230769,3946.666667,4083.076923
103,4395.384615,4528.205128,4536.923076,4264.102564,4508.205128,4220.000000,4449.230769,4208.205128,4243.076923,4525.128205,4189.743589,4650.769230,3952.307693,4084.102564
104,4382.564102,4520.512820,4526.666666,4260.000000,4482.051282,4210.769230,4443.076923,4205.128205,4241.538461,4526.153846,4184.615384,4650.769230,3949.230770,4075.384615
105,4376.410256,4510.769230,4520.000000,4254.871794,4484.615384,4202.564102,4441.025641,4201.025641,4233.846153,4508.205128,4175.897435,4644.615384,3944.615385,4069.230769
106,4382.564102,4516.923076,4524.615384,4258.974358,4508.717948,4207.692307,4443.589743,4197.948717,4226.666666,4493.846153,4174.358974,4639.487179,3941.538462,4071.282051
107,4385.128205,4523.589743,4525.128205,4266.153846,4507.692307,4215.384615,4445.128205,4198.974358,4228.205128,4488.205128,4176.410256,4642.051282,3939.487180,4071.794871
108,4381.025641,4516.923076,4521.538461,4259.487179,4494.871794,4207.692307,4440.000000,4202.051282,4233.333333,4495.384615,4172.820512,4642.564102,3938.974359,4064.615384
109,4381.025641,4510.256410,4521.538461,4248.205128,4492.820512,4196.923076,4432.820512,4206.153846,4236.410256,4514.871794,4175.384615,4640.000000,3938.461539,4065.128205
110,4383.589743,4508.717948,4521.538461,4247.692307,4492.820512,4200.000000,4434.358974,4209.230769,4241.025641,4528.717948,4184.615384,4642.051282,3941.538462,4074.871794
111,4386.153846,4514.871794,4522.051282,4254.871794,4501.538461,4208.717948,4443.589743,4210.769230,4243.589743,4526.666666,4187.692307,4649.230769,3951.282052,4083.076923
112,4384.615384,4520.000000,4523.589743,4256.923076,4503.589743,4208.717948,4445.641025,4214.871794,4242.051282,4511.282051,4183.589743,4647.692307,3953.333334,4078.461538
113,4377.435897,4516.410256,4520.512820,4255.384615,4481.538461,4202.051282,4438.974358,4208.717948,4235.897435,4494.358974,4176.923076,4635.384615,3936.923077,4069.230769
114,4377.435897,4514.358974,4520.000000,4257.435897,4478.974358,4201.538461,4436.410256,4197.435897,4232.307692,4495.897435,4171.282051,4633.846153,3928.717949,4069.743589
115,4388.717948,4524.615384,4526.666666,4258.974358,4512.820512,4209.743589,4442.051282,4200.512820,4237.948717,4511.282051,4174.871794,4647.179487,3941.025642,4075.384615
116,4392.820512,4528.717948,4528.205128,4253.333333,4514.871794,4211.794871,4442.051282,4206.666666,4239.487179,4511.794871,4181.538461,4652.307692,3947.179488,4074.871794
117,4380.000000,4516.410256,4519.487179,4245.128205,4476.410256,4201.538461,4430.769230,4194.871794,4224.615384,4497.435897,4175.384615,4644.102564,3934.871795,4072.820512
118,4372.820512,4507.179487,4516.923076,4243.589743,4476.410256,4198.974358,4425.641025,4183.589743,4215.897435,4495.384615,4171.794871,4643.589743,3928.205129,4074.358974
119,4382.051282,4512.307692,4523.076923,4246.153846,4506.153846,4205.641025,4434.358974,4190.256410,4223.076923,4504.615384,4180.000000,4651.282051,3934.871795,4075.897435
120,4388.717948,4524.102564,4524.615384,4249.743589,4505.641025,4206.153846,4441.025641,4198.974358,4231.282051,4507.692307,4187.179487,4654.871794,3942.564103,4076.410256
121,4388.205128,4525.128205,4522.564102,4251.794871,4494.358974,4206.666666,4443.076923,4205.128205,4239.487179,4510.769230,4194.871794,4660.512820,3948.205129,4078.461538
122,4384.102564,4517.435897,4522.051282,4245.641025,4500.512820,4213.846153,4444.102564,4210.769230,4243.589743,4512.820512,4198.974358,4661.025641,3946.153847,4076.410256
123,4374.871794,4510.256410,4516.923076,4237.435897,4500.000000,4217.435897,4445.128205,4207.692307,4236.410256,4502.051282,4191.282051,4652.820512,3938.461539,4072.820512
124,4367.692307,4506.666666,4509.743589,4237.948717,4488.717948,4213.846153,4444.615384,4201.025641,4233.846153,4491.282051,4182.564102,4650.256410,3935.384616,4067.179487
125,4367.692307,4506.153846,4505.641025,4245.128205,4487.179487,4210.256410,4442.051282,4201.025641,4236.410256,4488.205128,4182.051282,4650.769230,3930.769231,4050.769230
126,4369.743589,4510.769230,4505.641025,4248.717948,4493.333333,4210.769230,4442.051282,4203.076923,4231.794871,4492.307692,4181.538461,4648.205128,3924.102565,4040.512820
127,4371.794871,4517.948717,4509.230769,4248.205128,4501.025641,4215.384615,4443.589743,4205.128205,4232.820512,4501.538461,4180.512820,4647.692307,3932.307693,4052.307692
128,4368.205128,4511.794871,4505.641025,4240.000000,4497.948717,4211.282051,4443.076923,4206.666666,4240.000000,4500.512820,4181.538461,4648.717948,3940.512821,4056.923076
129,4364.615384,4505.641025,4498.461538,4236.923076,4486.666666,4204.102564,4441.025641,4200.512820,4235.384615,4489.743589,4182.564102,4647.179487,3932.307693,4043.589743
130,4373.333333,4513.333333,4506.153846,4242.051282,4493.333333,4209.743589,4443.076923,4196.923076,4232.820512,4502.564102,4192.307692,4653.846153,3936.923077,4044.102564
131,4380.512820,4515.384615,4515.897435,4244.102564,4496.410256,4214.358974,4447.179487,4205.128205,4242.564102,4518.461538,4200.000000,4663.589743,3951.282052,4061.025641
132,4373.846153,4508.205128,4510.256410,4237.948717,4484.102564,4207.692307,4444.102564,4212.307692,4243.589743,4501.025641,4198.461538,4662.051282,3945.128206,4062.051282
133,4366.153846,4507.692307,4506.153846,4234.871794,4487.179487,4203.076923,4441.538461,4208.717948,4236.923076,4486.153846,4193.846153,4656.410256,3935.897436,4050.769230
134,4364.615384,4508.717948,4508.717948,4238.974358,4493.846153,4208.205128,4443.589743,4207.179487,4238.461538,4496.923076,4187.179487,4652.820512,3938.461539,4042.564102
135,4362.564102,4503.076923,4506.153846,4236.923076,4487.179487,4208.717948,4443.076923,4209.230769,4237.948717,4506.666666,4183.076923,4649.230769,3933.846154,4035.897435
136,4363.076923,4508.205128,4505.128205,4235.897435,4497.435897,4211.282051,4440.512820,4206.666666,4233.333333,4508.717948,4186.153846,4647.179487,3928.205129,4035.897435
137,4365.641025,4517.948717,4509.230769,4241.025641,4502.564102,4212.307692,4442.051282,4202.051282,4232.820512,4510.769230,4185.641025,4646.666666,3932.820513,4036.410256
138,4363.589743,4513.333333,4507.179487,4241.538461,4482.051282,4205.128205,4442.564102,4202.564102,4228.717948,4492.307692,4179.487179,4644.102564,3930.769231,4030.769230
139,4361.025641,4507.692307,4506.666666,4236.923076,4485.128205,4203.589743,4441.025641,4201.025641,4221.538461,4474.871794,4181.538461,4646.666666,3926.666667,4031.794871
140,4364.615384,4510.769230,4515.897435,4241.538461,4511.282051,4214.358974,4443.076923,4198.461538,4229.230769,4493.846153,4189.743589,4656.410256,3934.871795,4039.487179
141,4373.333333,4514.358974,4523.589743,4248.717948,4511.794871,4218.461538,4445.128205,4204.615384,4239.487179,4519.487179,4194.358974,4659.487179,3944.102565,4042.564102
142,4377.948717,4514.871794,4522.564102,4244.615384,4500.000000,4213.333333,4444.102564,4210.256410,4240.512820,4524.615384,4196.410256,4660.512820,3949.230770,4047.692307
143,4377.435897,4516.410256,4522.051282,4245.641025,4491.282051,4215.897435,4447.179487,4208.205128,4241.025641,4514.358974,4202.051282,4669.743589,3954.358975,4055.897435
144,4372.820512,4512.820512,4520.000000,4250.256410,4477.435897,4212.307692,4446.153846,4204.615384,4237.435897,4498.974358,4205.128205,4669.743589,3950.769231,4053.333333
145,4363.589743,4506.666666,4510.256410,4243.076923,4479.487179,4200.512820,4437.435897,4201.025641,4230.256410,4494.358974,4196.410256,4653.333333,3944.102565,4040.000000
146,4358.461538,4508.205128,4501.538461,4236.923076,4497.948717,4200.512820,4433.846153,4199.487179,4230.769230,4508.205128,4184.615384,4643.589743,3942.051283,4031.794871
147,4363.589743,4514.871794,4504.615384,4246.666666,4504.102564,4207.692307,4441.538461,4207.179487,4238.461538,4521.025641,4187.692307,4649.743589,3941.025642,4034.358974
148,4369.230769,4523.589743,4514.871794,4254.871794,4509.230769,4215.384615,4446.153846,4216.410256,4244.102564,4523.589743,4197.435897,4656.923076,3946.153847,4041.025641
149,4365.641025,4525.641025,4514.871794,4254.358974,4514.871794,4217.948717,4443.076923,4214.871794,4246.666666,4528.717948,4198.974358,4653.846153,3951.282052,4041.538461
150,4357.435897,4520.512820,4506.666666,4254.358974,4498.974358,4210.256410,4441.025641,4206.666666,4240.512820,4517.435897,4188.717948,4643.589743,3943.076924,4031.794871
151,4361.025641,4522.051282,4510.256410,4257.435897,4495.897435,4208.717948,4443.076923,4210.769230,4238.461538,4497.435897,4183.076923,4643.076923,3941.025642,4030.256410
152,4369.230769,4525.128205,4517.435897,4256.410256,4513.333333,4217.948717,4445.128205,4217.948717,4243.589743,4505.128205,4192.307692,4649.230769,3949.230770,4037.948717
153,4363.589743,4518.974358,4509.743589,4250.256410,4501.538461,4214.358974,4443.589743,4208.717948,4241.538461,4522.564102,4194.358974,4646.153846,3944.615385,4035.897435
154,4358.461538,4514.358974,4504.615384,4252.307692,4487.692307,4207.692307,4443.076923,4201.538461,4234.358974,4523.589743,4185.128205,4642.051282,3940.512821,4031.794871
155,4365.128205,4518.974358,4514.871794,4260.000000,4508.205128,4215.897435,4447.179487,4207.692307,4232.307692,4516.923076,4186.666666,4646.666666,3946.666667,4038.461538
156,4367.692307,4524.102564,4522.051282,4260.000000,4516.923076,4218.974358,4447.179487,4208.205128,4233.846153,4514.871794,4192.820512,4649.743589,3944.615385,4042.564102
157,4365.641025,4522.051282,4522.051282,4256.410256,4502.051282,4212.307692,4442.051282,4198.461538,4230.769230,4514.358974,4193.333333,4647.179487,3942.564103,4036.410256
158,4370.769230,4520.512820,4522.051282,4260.512820,4496.923076,4209.743589,4442.564102,4196.923076,4229.743589,4507.179487,4193.846153,4646.666666,3948.717949,4036.923076
159,4374.871794,4522.051282,4522.051282,4264.102564,4499.487179,4211.794871,4445.128205,4203.589743,4232.307692,4501.538461,4195.384615,4649.230769,3947.692308,4043.076923
160,4370.769230,4520.512820,4521.025641,4261.538461,4505.641025,4214.358974,4446.153846,4209.230769,4234.358974,4510.769230,4194.871794,4650.256410,3946.153847,4042.051282
161,4368.205128,4519.487179,4521.025641,4261.025641,4506.666666,4213.846153,4447.692307,4208.717948,4234.871794,4522.051282,4195.897435,4649.230769,3949.743590,4038.974358
162,4370.769230,4522.564102,4522.051282,4260.512820,4494.358974,4209.230769,4445.641025,4207.692307,4234.871794,4517.435897,4195.897435,4651.794871,3945.641026,4040.512820
163,4376.923076,4520.000000,4522.564102,4258.974358,4502.051282,4213.333333,4449.743589,4211.282051,4236.923076,4515.897435,4195.897435,4656.410256,3942.564103,4048.717948
164,4378.974358,4512.307692,4522.051282,4256.410256,4514.358974,4217.948717,4453.846153,4214.358974,4241.025641,4520.000000,4193.333333,4654.871794,3945.641026,4051.794871
165,4372.820512,4513.846153,4520.000000,4255.897435,4492.820512,4210.769230,4446.666666,4214.358974,4242.051282,4507.692307,4188.717948,4651.282051,3943.076924,4042.564102
166,4377.435897,4522.051282,4520.000000,4263.076923,4483.076923,4209.743589,4441.025641,4212.307692,4237.948717,4498.461538,4196.923076,4653.333333,3945.641026,4041.538461
167,4385.128205,4524.102564,4522.051282,4267.179487,4506.666666,4217.948717,4446.153846,4210.769230,4236.410256,4515.897435,4206.153846,4654.871794,3956.923077,4055.897435
168,4380.512820,4521.025641,4525.641025,4263.076923,4509.743589,4214.871794,4447.179487,4210.256410,4238.461538,4531.794871,4200.512820,4652.820512,3959.487180,4061.538461
169,4379.487179,4523.589743,4528.717948,4263.076923,4496.923076,4211.794871,4443.076923,4207.692307,4236.410256,4527.692307,4199.487179,4656.410256,3958.974359,4060.000000
170,4386.153846,4528.717948,4527.692307,4268.205128,4498.461538,4214.871794,4442.564102,4207.179487,4238.974358,4522.564102,4206.666666,4658.974358,3965.641026,4066.153846
171,4384.102564,4527.692307,4523.589743,4267.179487,4496.923076,4210.769230,4442.564102,4209.230769,4241.538461,4518.974358,4207.179487,4653.333333,3965.641026,4062.051282
172,4379.487179,4520.512820,4521.538461,4262.564102,4492.307692,4205.641025,4443.589743,4210.769230,4238.974358,4505.128205,4201.538461,4647.692307,3958.974359,4046.153846
173,4378.974358,4518.974358,4521.025641,4262.564102,4504.615384,4212.307692,4445.128205,4210.256410,4239.487179,4506.666666,4198.974358,4645.128205,3958.461539,4049.230769
174,4375.897435,4522.564102,4518.974358,4265.641025,4510.769230,4218.974358,4444.102564,4210.256410,4242.564102,4525.128205,4200.000000,4642.051282,3962.051283,4064.102564
175,4374.871794,4522.051282,4518.974358,4263.076923,4490.769230,4213.846153,4443.589743,4208.717948,4240.000000,4528.717948,4198.974358,4638.461538,3957.948718,4060.000000
176,4378.461538,4517.435897,4522.051282,4260.000000,4482.564102,4210.256410,4444.102564,4206.666666,4237.435897,4521.025641,4195.384615,4638.461538,3954.358975,4048.717948
177,4379.487179,4522.564102,4521.538461,4263.589743,4506.666666,4214.871794,4444.102564,4208.205128,4236.923076,4507.179487,4196.410256,4643.589743,3960.512821,4050.769230
178,4384.615384,4529.743589,4527.179487,4269.743589,4520.512820,4217.948717,4446.666666,4211.794871,4237.435897,4498.461538,4203.589743,4650.769230,3965.128206,4063.589743
179,4391.282051,4525.641025,4534.358974,4270.256410,4511.794871,4218.461538,4450.769230,4217.435897,4246.153846,4520.000000,4208.205128,4654.358974,3964.102565,4073.333333
180,4389.230769,4525.128205,4530.256410,4272.820512,4507.179487,4218.461538,4448.205128,4217.435897,4251.282051,4546.666666,4207.692307,4650.769230,3968.205129,4075.384615
181,4388.205128,4530.256410,4528.205128,4276.410256,4501.538461,4212.820512,4442.564102,4207.692307,4242.564102,4534.871794,4204.615384,4646.666666,3970.256411,4069.230769
182,4394.358974,4530.256410,4537.435897,4277.435897,4494.871794,4204.615384,4440.512820,4200.000000,4237.948717,4509.743589,4202.051282,4651.282051,3966.153847,4065.641025
183,4396.923076,4529.743589,4541.025641,4276.923076,4497.948717,4206.153846,4442.564102,4202.564102,4241.025641,4510.256410,4206.666666,4660.000000,3967.692308,4072.307692
184,4397.435897,4528.205128,4538.461538,4274.871794,4496.923076,4208.717948,4443.589743,4213.846153,4246.153846,4523.076923,4214.358974,4659.487179,3974.358975,4076.923076
185,4399.487179,4525.128205,4536.923076,4273.333333,4495.384615,4211.282051,4444.615384,4219.487179,4254.358974,4531.794871,4216.410256,4654.358974,3974.871795,4076.923076
186,4392.820512,4519.487179,4532.820512,4269.743589,4497.948717,4212.307692,4444.615384,4215.897435,4254.358974,4532.820512,4209.230769,4652.307692,3966.666667,4068.717948
187,4381.538461,4514.871794,4523.589743,4264.615384,4493.846153,4205.641025,4443.589743,4206.153846,4244.615384,4526.666666,4201.025641,4645.641025,3957.948718,4058.461538
188,4382.564102,4513.333333,4523.076923,4262.051282,4492.820512,4205.128205,4444.102564,4205.128205,4241.538461,4516.923076,4202.051282,4640.512820,3957.435898,4063.589743
189,4389.743589,4521.025641,4529.743589,4265.641025,4506.666666,4214.358974,4444.615384,4216.410256,4249.743589,4511.282051,4204.615384,4646.153846,3961.538462,4070.769230
190,4392.307692,4526.153846,4530.256410,4271.282051,4513.333333,4216.923076,4444.615384,4220.000000,4249.230769,4516.923076,4202.564102,4646.666666,3958.974359,4066.666666
191,4391.282051,4520.512820,4528.717948,4272.820512,4500.512820,4210.256410,4445.128205,4212.307692,4243.589743,4516.923076,4202.051282,4643.589743,3959.487180,4070.256410
192,4392.820512,4520.512820,4534.871794,4276.410256,4491.282051,4211.794871,4446.153846,4214.358974,4248.717948,4510.256410,4205.128205,4647.692307,3968.717949,4082.051282
193,4398.461538,4531.794871,4539.487179,4283.076923,4493.333333,4215.384615,4448.205128,4221.025641,4253.846153,4513.333333,4206.666666,4650.769230,3973.846154,4081.538461
194,4402.564102,4535.897435,4537.435897,4286.153846,4494.871794,4213.846153,4447.692307,4209.743589,4250.256410,4516.923076,4206.153846,4648.205128,3969.743590,4075.897435
195,4399.487179,4529.230769,4539.487179,4283.076923,4505.128205,4214.358974,4445.641025,4204.102564,4245.128205,4507.179487,4204.102564,4649.230769,3968.717949,4081.025641
196,4398.974358,4529.743589,4544.102564,4281.025641,4520.512820,4215.384615,4445.641025,4213.846153,4246.666666,4503.076923,4201.025641,4652.307692,3970.256411,4084.615384
197,4401.025641,4530.769230,4540.000000,4276.410256,4514.358974,4213.333333,4445.128205,4212.307692,4249.230769,4507.179487,4200.000000,4649.743589,3966.666667,4077.948717
198,4396.923076,4522.564102,4537.435897,4272.307692,4495.897435,4209.230769,4441.538461,4206.666666,4247.179487,4495.897435,4200.000000,4646.153846,3964.615385,4068.717948
199,4393.333333,4515.897435,4538.974358,4274.871794,4494.358974,4207.692307,4442.051282,4211.282051,4244.102564,4491.794871,4201.025641,4645.641025,3965.641026,4071.282051
200,4393.333333,4518.461538,4536.923076,4274.358974,4497.435897,4203.589743,4443.589743,4212.307692,4247.179487,4509.230769,4196.923076,4641.538461,3963.589744,4076.410256
201,4387.692307,4518.461538,4532.820512,4269.230769,4488.205128,4198.461538,4436.410256,4204.615384,4246.153846,4506.153846,4186.666666,4633.333333,3956.410257,4065.641025
202,4383.076923,4511.794871,4535.384615,4268.717948,4481.025641,4200.512820,4433.846153,4203.076923,4237.948717,4481.538461,4185.128205,4633.333333,3952.307693,4057.435897
203,4386.153846,4513.333333,4537.948717,4268.205128,4482.051282,4203.076923,4440.000000,4207.179487,4238.974358,4478.974358,4192.820512,4637.948717,3954.358975,4066.666666
204,4384.615384,4514.871794,4535.384615,4267.179487,4483.076923,4198.974358,4442.051282,4205.128205,4240.512820,4491.282051,4190.256410,4633.333333,3953.846154,4068.205128
205,4379.487179,4511.282051,4534.358974,4266.666666,4483.589743,4198.974358,4439.487179,4201.025641,4237.435897,4493.846153,4186.666666,4629.743589,3952.307693,4056.923076
206,4384.102564,4514.871794,4540.000000,4265.641025,4494.871794,4207.179487,4444.102564,4205.641025,4240.000000,4493.333333,4191.794871,4637.435897,3954.871795,4053.333333
207,4391.282051,4520.512820,4547.179487,4263.589743,4508.205128,4211.282051,4446.666666,4213.333333,4243.076923,4493.333333,4191.282051,4646.153846,3955.384616,4063.589743
208,4389.743589,4515.897435,4546.666666,4262.051282,4509.743589,4211.282051,4443.589743,4213.333333,4242.564102,4492.820512,4189.743589,4646.666666,3952.307693,4072.307692
209,4387.179487,4513.846153,4542.051282,4261.025641,4507.179487,4214.358974,4450.769230,4213.846153,4249.743589,4498.974358,4194.358974,4646.153846,3951.282052,4071.794871
210,4386.666666,4515.384615,4538.974358,4257.435897,4496.410256,4209.743589,4456.410256,4220.000000,4255.897435,4500.000000,4191.282051,4646.153846,3950.256411,4065.641025
211,4384.102564,4507.179487,4537.435897,4252.820512,4483.076923,4198.461538,4447.692307,4222.051282,4247.692307,4486.153846,4181.025641,4642.564102,3949.230770,4059.487179
212,4383.076923,4503.589743,4542.051282,4251.794871,4483.589743,4197.948717,4440.000000,4222.564102,4246.666666,4484.615384,4185.128205,4644.102564,3956.410257,4063.076923
213,4388.717948,4512.820512,4547.692307,4257.435897,4479.487179,4202.051282,4443.589743,4221.025641,4252.307692,4497.948717,4192.307692,4649.743589,3958.461539,4070.769230
214,4393.846153,4515.897435,4547.179487,4260.512820,4473.846153,4198.461538,4444.615384,4215.384615,4246.666666,4501.538461,4184.102564,4648.717948,3952.307693,4071.282051
215,4395.897435,4514.871794,4547.692307,4258.461538,4489.743589,4200.000000,4443.076923,4215.897435,4241.538461,4498.461538,4182.564102,4644.102564,3955.897436,4072.307692
216,4396.923076,4518.974358,4552.820512,4259.487179,4507.179487,4208.717948,4446.153846,4218.461538,4244.615384,4489.743589,4194.871794,4644.615384,3967.692308,4077.435897
217,4399.487179,4524.615384,4553.846153,4265.128205,4501.025641,4207.179487,4446.666666,4217.948717,4244.615384,4478.974358,4199.487179,4649.743589,3968.205129,4077.435897
218,4400.512820,4524.615384,4552.820512,4266.666666,4493.333333,4201.538461,4443.076923,4217.948717,4243.076923,4491.794871,4195.897435,4652.820512,3963.589744,4072.820512
219,4398.974358,4523.589743,4554.358974,4263.589743,4500.512820,4206.153846,4443.589743,4216.410256,4245.128205,4511.794871,4196.923076,4652.307692,3966.153847,4077.948717
220,4397.948717,4522.051282,4549.743589,4263.076923,4503.076923,4209.230769,4445.641025,4209.743589,4241.538461,4501.025641,4189.743589,4646.153846,3962.051283,4077.435897
221,4389.230769,4511.794871,4540.000000,4262.051282,4489.743589,4198.461538,4435.897435,4199.487179,4230.256410,4473.333333,4176.923076,4637.435897,3947.692308,4065.641025
222,4380.000000,4505.641025,4535.897435,4256.923076,4485.128205,4193.846153,4429.743589,4197.435897,4225.641025,4466.153846,4178.461538,4628.717948,3947.692308,4060.000000
223,4383.589743,4509.230769,4539.487179,4255.384615,4493.333333,4202.564102,4440.000000,4207.179487,4236.923076,4483.589743,4189.743589,4623.589743,3961.025642,4063.589743
224,4389.743589,4507.692307,4541.025641,4256.923076,4489.743589,4202.564102,4445.641025,4213.846153,4248.205128,4497.948717,4191.794871,4620.512820,3963.076924,4069.230769
225,4390.256410,4507.179487,4537.948717,4255.897435,4489.230769,4198.974358,4442.564102,4215.897435,4245.128205,4492.820512,4187.179487,4618.974358,3956.410257,4067.692307
226,4392.820512,4513.333333,4540.512820,4257.435897,4496.410256,4202.564102,4441.025641,4218.461538,4237.948717,4479.487179,4187.179487,4618.974358,3954.358975,4064.615384
227,4390.769230,4511.794871,4539.487179,4260.000000,4482.051282,4196.410256,4436.410256,4211.282051,4233.846153,4472.307692,4181.538461,4613.333333,3947.179488,4062.564102
228,4386.153846,4508.205128,4534.358974,4256.923076,4469.743589,4188.717948,4435.384615,4205.128205,4231.794871,4475.384615,4174.871794,4609.230769,3943.076924,4061.025641
229,4392.820512,4516.923076,4542.051282,4258.461538,4493.846153,4197.435897,4443.076923,4213.846153,4237.948717,4491.794871,4185.128205,4619.487179,3953.846154,4067.692307
230,4401.538461,4525.641025,4553.846153,4265.641025,4514.358974,4205.128205,4446.666666,4222.051282,4244.615384,4503.589743,4197.948717,4631.794871,3964.102565,4077.435897
231,4399.487179,4526.153846,4548.205128,4266.666666,4502.564102,4203.076923,4445.641025,4218.461538,4241.025641,4500.000000,4191.794871,4627.179487,3957.948718,4076.410256
232,4393.846153,4520.000000,4540.000000,4261.025641,4487.692307,4200.512820,4443.076923,4211.794871,4229.230769,4483.589743,4183.589743,4617.948717,3946.153847,4072.307692
233,4388.205128,4512.307692,4538.974358,4253.846153,4481.538461,4192.820512,4432.820512,4204.615384,4221.025641,4467.179487,4186.153846,4617.948717,3942.564103,4072.307692
234,4383.076923,4512.820512,4532.820512,4244.615384,4481.025641,4187.692307,4426.153846,4203.589743,4224.102564,4473.333333,4184.102564,4617.948717,3941.025642,4070.256410
235,4383.589743,4514.871794,4531.794871,4246.153846,4484.102564,4191.794871,4431.794871,4207.692307,4228.205128,4492.820512,4183.589743,4615.384615,3940.512821,4065.128205
236,4384.102564,4515.897435,4534.871794,4250.769230,4487.179487,4195.384615,4433.846153,4209.743589,4226.666666,4484.102564,4187.692307,4616.410256,3944.102565,4061.025641
237,4381.025641,4516.410256,4531.282051,4246.666666,4483.589743,4191.794871,4430.256410,4210.256410,4226.153846,4466.153846,4185.128205,4617.435897,3941.025642,4057.435897
238,4376.923076,4513.846153,4528.717948,4244.615384,4476.410256,4189.230769,4426.666666,4208.717948,4226.153846,4478.461538,4182.564102,4615.384615,3932.820513,4058.461538
239,4375.897435,4515.384615,4529.743589,4247.692307,4480.000000,4193.333333,4431.282051,4209.230769,4224.615384,4486.153846,4188.205128,4618.461538,3935.384616,4058.974358
240,4378.461538,4521.538461,4531.794871,4247.692307,4493.846153,4196.923076,4442.051282,4217.435897,4230.256410,4472.820512,4192.820512,4627.179487,3946.666667,4052.820512
241,4379.487179,4518.974358,4534.871794,4245.128205,4498.461538,4198.461538,4440.000000,4223.076923,4236.923076,4474.358974,4194.358974,4631.282051,3947.692308,4051.282051
242,4376.410256,4514.871794,4530.256410,4244.615384,4488.717948,4195.384615,4429.743589,4216.410256,4232.307692,4487.179487,4196.923076,4629.743589,3944.615385,4052.307692
243,4375.384615,4521.538461,4521.538461,4245.641025,4482.051282,4191.794871,4433.333333,4211.794871,4224.615384,4482.564102,4193.846153,4626.666666,3944.102565,4047.692307
244,4378.461538,4524.615384,4523.076923,4246.666666,4483.076923,4192.820512,4440.000000,4211.282051,4223.076923,4469.230769,4191.794871,4626.153846,3942.564103,4048.205128
245,4375.384615,4519.487179,4524.615384,4246.666666,4474.358974,4192.307692,4433.846153,4206.153846,4221.538461,4473.333333,4191.282051,4626.153846,3939.487180,4048.717948
246,4371.282051,4518.461538,4518.461538,4246.153846,4461.538461,4188.717948,4427.692307,4201.538461,4217.435897,4479.487179,4190.256410,4627.692307,3939.487180,4041.538461
247,4377.435897,4521.538461,4525.128205,4245.641025,4473.333333,4191.794871,4435.384615,4211.794871,4219.487179,4469.230769,4196.923076,4636.923076,3945.128206,4040.512820
248,4382.564102,4524.102564,4535.897435,4247.692307,4496.410256,4202.564102,4443.589743,4228.717948,4231.282051,4466.666666,4205.641025,4645.641025,3951.282052,4053.333333
249,4377.435897,4523.076923,4530.769230,4247.179487,4497.948717,4201.025641,4443.589743,4234.358974,4241.538461,4484.102564,4208.205128,4644.615384,3957.435898,4057.948717
250,4376.923076,4523.076923,4527.692307,4244.615384,4491.794871,4200.000000,4443.589743,4232.307692,4243.076923,4494.871794,4208.717948,4643.589743,3961.538462,4050.769230
251,4383.076923,4525.128205,4535.897435,4248.205128,4487.179487,4201.538461,4445.128205,4232.307692,4236.923076,4489.230769,4207.179487,4648.717948,3957.948718,4044.102564
252,4377.948717,4522.564102,4534.358974,4247.692307,4472.307692,4189.743589,4436.923076,4230.256410,4229.230769,4486.153846,4198.974358,4645.641025,3950.769231,4038.461538
253,4367.179487,4517.948717,4525.641025,4235.897435,4469.743589,4182.564102,4426.153846,4222.051282,4230.769230,4482.564102,4199.487179,4638.974358,3949.743590,4036.410256
254,4369.230769,4515.897435,4527.692307,4234.871794,4480.000000,4190.769230,4426.153846,4220.000000,4233.333333,4474.358974,4203.589743,4643.076923,3953.333334,4038.461538
255,4377.948717,4520.000000,4534.871794,4245.641025,4475.384615,4194.871794,4431.282051,4225.128205,4228.205128,4474.871794,4202.564102,4649.230769,3953.333334,4040.000000
256,4380.512820,4526.153846,4536.923076,4249.743589,4476.410256,4193.333333,4437.435897,4223.076923,4228.205128,4485.128205,4201.538461,4648.205128,3949.743590,4042.051282
257,4380.512820,4525.641025,4539.487179,4249.230769,4492.307692,4198.461538,4441.538461,4218.461538,4229.743589,4487.179487,4203.076923,4646.666666,3950.769231,4042.051282
258,4378.974358,4522.051282,4537.948717,4245.128205,4483.589743,4197.435897,4436.410256,4212.820512,4222.051282,4471.282051,4199.487179,4649.230769,3952.820513,4040.512820
259,4375.897435,4521.538461,4536.923076,4244.102564,4467.692307,4186.666666,4428.717948,4206.666666,4213.846153,4462.051282,4190.769230,4647.179487,3945.128206,4037.435897
260,4372.820512,4522.051282,4538.461538,4245.128205,4469.230769,4181.025641,4428.205128,4208.717948,4212.820512,4466.666666,4188.205128,4643.589743,3935.897436,4030.256410
261,4369.743589,4518.974358,4536.410256,4239.487179,4467.692307,4180.000000,4426.153846,4216.923076,4215.897435,4465.641025,4192.820512,4647.179487,3939.487180,4021.025641
262,4371.794871,4518.974358,4538.974358,4237.435897,4471.794871,4180.512820,4425.641025,4222.051282,4225.128205,4466.153846,4200.000000,4653.846153,3950.256411,4028.717948
263,4377.435897,4521.025641,4542.051282,4246.153846,4482.564102,4185.128205,4430.256410,4227.179487,4232.820512,4475.384615,4201.025641,4657.435897,3952.820513,4038.461538
264,4377.948717,4522.564102,4541.025641,4248.205128,4473.846153,4187.179487,4428.205128,4231.794871,4233.333333,4478.974358,4197.948717,4655.384615,3947.179488,4032.307692
265,4377.435897,4526.153846,4542.564102,4244.102564,4463.076923,4184.615384,4428.717948,4233.846153,4235.897435,4483.589743,4197.948717,4657.948717,3948.717949,4030.769230
266,4383.589743,4529.230769,4550.769230,4249.743589,4475.897435,4186.666666,4437.948717,4235.897435,4238.461538,4490.769230,4203.076923,4668.717948,3958.974359,4042.564102
267,4388.717948,4530.256410,4556.410256,4253.846153,4481.025641,4188.717948,4438.461538,4236.923076,4234.871794,4479.487179,4208.205128,4674.358974,3960.000000,4045.641025
