,AF3,F7,F3,FC5,T7,P7,O1,O2,P8,T8,FC6,F4,F8,AF4
0,4415.384615,4537.948717,4547.692307,4282.564102,4759.487179,4244.102564,4453.333333,4212.307692,4224.615384,4505.641025,4220.512820,4663.076923,3974.871795,4050.256410
1,4415.897435,4537.948717,4549.743589,4285.641025,4758.461538,4252.307692,4458.461538,4216.410256,4222.564102,4501.538461,4222.564102,4666.666666,3975.897436,4050.769230
2,4414.871794,4535.897435,4548.717948,4284.102564,4755.897435,4249.230769,4457.435897,4216.410256,4220.512820,4500.000000,4216.410256,4666.666666,3969.743590,4048.717948
3,4411.282051,4532.307692,4544.615384,4279.487179,4755.897435,4244.615384,4456.410256,4213.846153,4221.538461,4501.025641,4214.358974,4663.076923,3967.179488,4047.179487
4,4410.769230,4535.384615,4543.076923,4276.923076,4754.358974,4244.615384,4459.487179,4210.256410,4217.435897,4498.974358,4218.974358,4659.487179,3964.102565,4045.641025
5,4411.282051,4535.897435,4543.076923,4275.897435,4751.794871,4241.025641,4459.487179,4209.230769,4209.230769,4494.358974,4212.307692,4654.358974,3960.512821,4041.538461
6,4410.769230,4530.256410,4544.102564,4278.461538,4751.282051,4233.846153,4457.435897,4212.820512,4214.871794,4495.897435,4207.692307,4655.897435,3964.102565,4041.025641
7,4417.435897,4529.743589,4548.205128,4280.512820,4754.871794,4228.205128,4458.461538,4218.974358,4224.615384,4508.717948,4222.564102,4665.641025,3969.743590,4047.692307
8,4426.153846,4534.358974,4549.230769,4279.487179,4758.974358,4230.256410,4460.000000,4220.000000,4228.205128,4517.435897,4233.846153,4668.205128,3973.333334,4052.820512
9,4426.153846,4535.897435,4547.692307,4280.000000,4759.487179,4232.820512,4461.538461,4220.512820,4232.307692,4514.871794,4227.179487,4663.076923,3978.461539,4053.333333
10,4421.538461,4536.923076,4549.230769,4284.102564,4755.384615,4230.256410,4460.000000,4223.076923,4231.794871,4508.717948,4219.487179,4663.076923,3976.410257,4049.743589
11,4417.435897,4532.307692,4548.205128,4283.076923,4753.846153,4226.153846,4457.435897,4221.538461,4225.128205,4506.153846,4216.410256,4668.205128,3960.512821,4043.076923
12,4410.769230,4524.102564,4542.051282,4277.948717,4752.307692,4227.179487,4458.974358,4218.461538,4216.923076,4497.948717,4213.333333,4664.615384,3949.743590,4037.435897
13,4410.256410,4524.615384,4539.487179,4277.948717,4748.717948,4229.230769,4458.974358,4217.435897,4213.333333,4487.179487,4212.307692,4658.461538,3953.846154,4037.948717
14,4421.538461,4537.435897,4544.615384,4281.538461,4750.769230,4225.641025,4453.846153,4216.410256,4217.435897,4493.846153,4213.333333,4662.564102,3962.564103,4045.641025
15,4424.615384,4544.615384,4547.692307,4283.589743,4755.384615,4224.102564,4445.641025,4216.410256,4222.051282,4501.025641,4214.871794,4670.769230,3966.153847,4048.205128
16,4420.000000,4543.076923,4544.615384,4283.589743,4753.333333,4221.538461,4443.076923,4217.948717,4217.948717,4493.846153,4215.384615,4670.256410,3966.153847,4045.128205
17,4417.435897,4540.000000,4541.025641,4281.538461,4751.282051,4216.923076,4443.589743,4214.871794,4209.743589,4484.615384,4208.205128,4663.076923,3958.974359,4041.538461
18,4415.897435,4535.384615,4543.076923,4277.948717,4754.871794,4219.487179,4445.641025,4212.820512,4209.743589,4486.153846,4206.666666,4659.487179,3951.282052,4041.538461
19,4420.000000,4538.461538,4546.153846,4281.538461,4759.487179,4224.615384,4452.307692,4220.512820,4217.948717,4496.410256,4218.461538,4664.615384,3955.897436,4044.615384
20,4424.102564,4547.692307,4545.128205,4289.230769,4760.000000,4225.128205,4455.384615,4226.666666,4225.641025,4504.102564,4219.487179,4667.692307,3969.230770,4047.179487
21,4423.589743,4547.692307,4545.128205,4292.307692,4760.512820,4223.076923,4453.846153,4222.564102,4224.615384,4503.589743,4212.820512,4665.641025,3975.897436,4049.743589
22,4423.076923,4544.615384,4546.666666,4293.846153,4762.051282,4227.179487,4452.820512,4221.538461,4220.512820,4501.025641,4216.410256,4665.128205,3971.282052,4048.717948
23,4426.666666,4547.179487,4546.666666,4294.358974,4764.102564,4229.230769,4451.794871,4227.692307,4223.589743,4503.076923,4218.974358,4667.692307,3963.076924,4043.076923
24,4427.692307,4550.769230,4545.641025,4295.384615,4767.179487,4225.128205,4448.205128,4226.153846,4226.666666,4502.564102,4211.282051,4669.230769,3962.564103,4040.512820
25,4423.589743,4549.743589,4545.128205,4295.384615,4765.641025,4222.051282,4444.615384,4217.435897,4218.461538,4501.538461,4209.230769,4668.205128,3967.692308,4041.538461
26,4421.538461,4545.641025,4545.641025,4293.333333,4764.102564,4228.205128,4449.230769,4216.410256,4212.307692,4500.000000,4211.282051,4666.666666,3969.230770,4041.538461
27,4422.564102,4546.666666,4543.076923,4291.794871,4766.153846,4241.025641,4456.410256,4218.974358,4218.461538,4495.384615,4209.230769,4666.153846,3967.179488,4041.538461
28,4425.641025,4548.717948,4538.461538,4292.820512,4764.615384,4245.128205,4458.974358,4216.923076,4225.128205,4495.897435,4208.205128,4667.692307,3963.076924,4042.564102
29,4424.102564,4545.128205,4540.000000,4292.820512,4761.538461,4240.512820,4456.410256,4217.435897,4223.076923,4498.974358,4206.666666,4667.179487,3961.025642,4041.025641
30,4424.102564,4546.666666,4546.153846,4294.358974,4764.615384,4237.435897,4456.410256,4217.948717,4222.051282,4499.487179,4205.641025,4664.615384,3964.615385,4043.076923
31,4427.692307,4551.794871,4547.179487,4294.358974,4764.615384,4236.410256,4458.461538,4216.923076,4223.589743,4498.461538,4211.794871,4664.615384,3966.666667,4048.205128
32,4426.666666,4547.692307,4544.102564,4288.717948,4759.487179,4235.897435,4455.897435,4218.974358,4223.076923,4496.410256,4217.948717,4665.641025,3965.128206,4049.743589
33,4426.666666,4542.051282,4545.128205,4288.205128,4760.000000,4236.923076,4449.743589,4218.974358,4224.102564,4495.897435,4214.871794,4666.153846,3961.538462,4047.692307
34,4426.666666,4544.102564,4546.666666,4288.717948,4761.025641,4240.512820,4447.179487,4217.435897,4225.128205,4497.435897,4212.820512,4666.666666,3960.000000,4046.666666
35,4420.512820,4541.025641,4546.153846,4285.128205,4758.461538,4235.384615,4453.846153,4218.974358,4226.666666,4499.487179,4216.923076,4665.641025,3963.589744,4047.179487
36,4413.333333,4533.333333,4544.102564,4282.564102,4753.333333,4230.256410,4458.461538,4220.000000,4226.153846,4495.897435,4210.769230,4665.128205,3967.692308,4046.153846
37,4410.769230,4532.307692,4543.076923,4281.025641,4749.743589,4232.820512,4453.846153,4215.384615,4223.589743,4493.333333,4201.538461,4664.102564,3965.641026,4046.153846
38,4413.333333,4536.410256,4545.128205,4281.025641,4749.230769,4232.307692,4448.205128,4211.282051,4221.538461,4495.384615,4203.589743,4658.974358,3965.128206,4049.743589
39,4411.794871,4538.974358,4543.589743,4284.102564,4749.743589,4230.256410,4448.717948,4212.820512,4221.538461,4496.923076,4208.717948,4656.410256,3968.205129,4052.307692
40,4408.205128,4535.384615,4541.538461,4283.589743,4754.358974,4234.871794,4455.897435,4216.410256,4222.564102,4495.384615,4205.128205,4657.435897,3969.230770,4051.794871
41,4407.179487,4532.307692,4543.076923,4278.461538,4759.487179,4240.000000,4460.000000,4214.871794,4222.051282,4495.897435,4201.025641,4656.923076,3966.153847,4053.333333
42,4409.743589,4537.948717,4545.641025,4280.512820,4757.435897,4238.974358,4456.923076,4214.871794,4223.589743,4498.974358,4206.666666,4660.000000,3963.589744,4058.461538
43,4412.820512,4546.153846,4548.205128,4284.615384,4752.820512,4238.461538,4458.461538,4223.589743,4228.717948,4503.589743,4214.358974,4669.743589,3966.153847,4063.076923
44,4411.282051,4542.564102,4548.717948,4282.564102,4753.846153,4238.461538,4459.487179,4225.128205,4229.743589,4502.564102,4211.794871,4670.256410,3969.743590,4062.051282
45,4405.641025,4535.897435,4543.076923,4278.974358,4753.333333,4233.846153,4451.282051,4217.435897,4224.615384,4497.435897,4202.051282,4661.025641,3964.615385,4056.923076
46,4403.076923,4535.897435,4541.025641,4278.974358,4751.794871,4231.282051,4447.692307,4214.871794,4225.128205,4497.435897,4196.410256,4663.076923,3957.948718,4057.435897
47,4403.076923,4532.820512,4544.615384,4278.461538,4753.333333,4229.230769,4450.256410,4215.897435,4229.230769,4501.025641,4202.564102,4669.743589,3961.538462,4063.076923
48,4400.000000,4529.743589,4540.000000,4275.384615,4750.769230,4222.564102,4445.641025,4209.743589,4223.589743,4496.410256,4207.179487,4665.128205,3968.205129,4059.487179
49,4397.948717,4530.769230,4536.923076,4274.871794,4744.615384,4217.948717,4442.051282,4203.076923,4217.948717,4493.333333,4203.589743,4658.461538,3968.205129,4053.333333
50,4396.923076,4530.769230,4540.512820,4278.461538,4740.512820,4220.000000,4444.102564,4202.051282,4218.974358,4495.897435,4200.512820,4657.948717,3962.564103,4054.358974
51,4391.794871,4529.230769,4537.948717,4276.923076,4737.948717,4217.948717,4444.102564,4199.487179,4213.333333,4491.282051,4198.461538,4654.358974,3952.820513,4050.769230
52,4387.179487,4528.717948,4532.820512,4270.769230,4735.897435,4210.769230,4444.615384,4198.974358,4207.179487,4481.538461,4195.897435,4650.256410,3948.717949,4044.102564
53,4387.179487,4520.512820,4534.871794,4267.692307,4733.333333,4208.205128,4445.641025,4201.025641,4208.205128,4479.487179,4187.692307,4650.769230,3951.794872,4046.153846
54,4388.205128,4516.410256,4540.000000,4266.666666,4729.743589,4210.256410,4444.102564,4203.076923,4213.846153,4483.589743,4185.128205,4653.846153,3952.820513,4048.205128
55,4387.179487,4523.076923,4538.974358,4264.615384,4731.282051,4215.384615,4446.153846,4206.153846,4219.487179,4487.692307,4189.230769,4654.358974,3945.641026,4044.102564
56,4385.128205,4522.564102,4535.384615,4261.025641,4731.282051,4211.794871,4445.641025,4202.564102,4218.461538,4486.153846,4186.666666,4651.282051,3942.051283,4042.051282
57,4390.769230,4520.000000,4538.974358,4265.128205,4724.615384,4205.641025,4442.564102,4201.025641,4217.435897,4489.230769,4186.666666,4652.820512,3952.820513,4046.666666
58,4397.948717,4523.076923,4543.076923,4273.846153,4726.666666,4209.743589,4449.743589,4208.717948,4224.615384,4496.410256,4199.487179,4657.435897,3962.051283,4051.282051
59,4393.846153,4525.641025,4535.897435,4271.282051,4732.307692,4218.461538,4454.871794,4209.743589,4226.666666,4497.435897,4203.589743,4653.333333,3955.384616,4050.256410
60,4386.666666,4525.128205,4529.230769,4264.102564,4727.692307,4218.461538,4450.769230,4201.025641,4218.974358,4492.820512,4194.358974,4649.743589,3948.717949,4045.641025
61,4389.230769,4524.102564,4535.897435,4265.128205,4722.564102,4214.358974,4451.282051,4204.615384,4220.000000,4491.794871,4192.307692,4654.871794,3953.333334,4046.153846
62,4391.282051,4521.538461,4541.025641,4268.717948,4724.615384,4215.897435,4453.846153,4210.769230,4226.666666,4490.769230,4192.307692,4653.846153,3954.871795,4045.641025
63,4388.717948,4516.410256,4536.410256,4265.641025,4723.076923,4210.769230,4449.743589,4205.128205,4221.538461,4488.205128,4191.794871,4650.769230,3949.230770,4043.076923
64,4387.692307,4518.974358,4532.820512,4261.538461,4716.410256,4198.974358,4445.128205,4197.435897,4209.743589,4485.128205,4195.897435,4653.333333,3947.179488,4041.538461
65,4388.717948,4525.128205,4533.333333,4262.051282,4713.846153,4196.923076,4443.076923,4196.410256,4206.666666,4482.564102,4191.794871,4652.307692,3945.641026,4040.512820
66,4392.307692,4525.641025,4537.948717,4265.641025,4716.923076,4203.076923,4442.051282,4200.000000,4213.846153,4484.615384,4188.205128,4651.794871,3947.692308,4041.538461
67,4392.820512,4520.000000,4536.410256,4260.512820,4717.435897,4197.435897,4444.102564,4203.076923,4220.000000,4490.256410,4189.743589,4654.358974,3950.769231,4041.538461
68,4387.179487,4514.871794,4528.205128,4251.794871,4713.333333,4188.717948,4443.589743,4205.128205,4217.435897,4491.282051,4191.282051,4651.794871,3947.179488,4037.435897
69,4390.256410,4518.461538,4528.717948,4257.948717,4711.282051,4189.743589,4442.564102,4210.769230,4214.358974,4487.179487,4193.333333,4649.230769,3945.128206,4038.461538
70,4394.871794,4525.128205,4533.846153,4263.076923,4714.871794,4192.307692,4444.102564,4209.230769,4211.282051,4482.051282,4194.871794,4653.846153,3948.717949,4041.538461
71,4389.743589,4523.589743,4528.717948,4255.897435,4715.897435,4191.282051,4438.461538,4198.974358,4207.692307,4478.974358,4191.282051,4652.307692,3944.102565,4038.461538
72,4384.615384,4514.358974,4525.128205,4255.384615,4707.692307,4187.179487,4431.794871,4193.333333,4207.179487,4484.102564,4186.666666,4647.692307,3941.025642,4037.435897
73,4393.333333,4512.307692,4534.358974,4265.128205,4706.153846,4191.794871,4437.435897,4198.974358,4212.307692,4493.333333,4192.307692,4653.333333,3954.358975,4044.102564
74,4400.000000,4521.538461,4538.974358,4267.692307,4712.307692,4206.153846,4446.153846,4207.179487,4221.025641,4494.358974,4198.461538,4658.974358,3961.538462,4047.692307
75,4392.820512,4522.564102,4534.871794,4261.538461,4708.717948,4210.769230,4440.000000,4207.179487,4219.487179,4488.205128,4194.871794,4655.384615,3949.743590,4042.564102
76,4384.102564,4514.358974,4532.307692,4254.871794,4703.589743,4202.051282,4429.230769,4198.974358,4206.666666,4483.076923,4188.205128,4647.692307,3939.487180,4034.358974
77,4383.076923,4514.358974,4535.897435,4256.410256,4708.717948,4199.487179,4428.205128,4193.333333,4206.153846,4484.615384,4190.256410,4645.128205,3947.692308,4032.820512
78,4390.256410,4523.076923,4537.435897,4264.615384,4713.846153,4210.769230,4431.282051,4195.897435,4217.948717,4488.717948,4195.384615,4647.692307,3963.589744,4039.487179
79,4396.410256,4528.205128,4535.384615,4266.153846,4714.871794,4215.897435,4431.282051,4198.974358,4219.487179,4490.769230,4195.384615,4650.256410,3963.076924,4043.076923
80,4393.846153,4528.717948,4534.871794,4264.102564,4718.461538,4214.358974,4430.769230,4201.025641,4209.743589,4487.179487,4195.384615,4649.230769,3944.615385,4038.461538
81,4390.256410,4525.641025,4533.846153,4265.641025,4720.000000,4214.358974,4435.897435,4203.589743,4208.205128,4482.051282,4198.461538,4646.666666,3935.384616,4035.384615
82,4393.846153,4522.564102,4535.897435,4265.128205,4714.871794,4214.871794,4443.589743,4204.102564,4213.846153,4486.153846,4198.461538,4647.692307,3949.743590,4041.538461
83,4396.923076,4525.641025,4540.000000,4262.051282,4710.256410,4210.769230,4442.564102,4204.615384,4214.871794,4492.820512,4190.256410,4649.743589,3965.641026,4045.128205
84,4394.358974,4525.128205,4537.435897,4263.076923,4707.179487,4208.205128,4432.307692,4202.051282,4209.230769,4488.717948,4186.153846,4649.743589,3960.512821,4040.000000
85,4391.794871,4516.923076,4531.794871,4260.512820,4705.641025,4215.384615,4427.179487,4187.692307,4208.205128,4483.589743,4192.307692,4646.666666,3947.692308,4037.435897
86,4390.256410,4515.384615,4531.282051,4257.948717,4702.051282,4225.128205,4428.717948,4171.282051,4211.794871,4486.153846,4189.743589,4645.641025,3949.230770,4038.974358
87,4388.717948,4516.923076,4532.307692,4256.410256,4699.487179,4230.256410,4429.230769,4169.230769,4211.794871,4489.743589,4180.000000,4649.230769,3954.871795,4040.000000
88,4389.230769,4510.256410,4529.230769,4251.282051,4699.487179,4232.820512,4427.179487,4172.307692,4213.333333,4491.794871,4184.615384,4648.205128,3950.769231,4038.974358
89,4386.153846,4510.769230,4529.743589,4253.333333,4698.974358,4233.846153,4427.692307,4173.846153,4215.897435,4491.282051,4196.923076,4647.179487,3946.666667,4035.384615
90,4382.051282,4515.897435,4533.333333,4258.461538,4698.974358,4231.794871,4432.307692,4176.923076,4214.358974,4487.692307,4197.435897,4648.205128,3948.717949,4032.820512
91,4381.538461,4512.820512,4529.743589,4254.358974,4700.512820,4227.179487,4432.820512,4174.871794,4211.794871,4484.615384,4191.282051,4646.153846,3945.641026,4032.307692
92,4383.589743,4513.846153,4529.230769,4253.846153,4696.923076,4224.102564,4428.717948,4165.641025,4208.717948,4485.641025,4192.307692,4645.128205,3943.076924,4031.794871
93,4389.743589,4522.564102,4537.948717,4263.589743,4695.384615,4229.230769,4433.846153,4169.743589,4211.794871,4488.205128,4199.487179,4650.769230,3953.333334,4034.871794
94,4396.923076,4528.717948,4547.179487,4267.179487,4698.461538,4238.974358,4444.102564,4183.589743,4223.589743,4495.384615,4204.102564,4656.410256,3965.128206,4041.025641
95,4398.974358,4530.256410,4546.153846,4266.666666,4702.051282,4241.538461,4444.615384,4186.666666,4227.692307,4501.538461,4204.102564,4660.000000,3966.153847,4044.102564
96,4398.461538,4527.692307,4542.564102,4269.230769,4702.051282,4237.435897,4442.564102,4182.564102,4223.076923,4502.051282,4204.615384,4661.538461,3965.641026,4043.076923
97,4397.948717,4521.538461,4544.615384,4265.641025,4702.051282,4241.538461,4444.615384,4182.564102,4224.102564,4502.051282,4208.205128,4661.025641,3964.102565,4042.051282
98,4397.948717,4522.564102,4545.128205,4263.076923,4703.076923,4247.692307,4444.615384,4186.666666,4225.641025,4502.564102,4208.717948,4663.076923,3960.000000,4041.538461
99,4397.435897,4526.153846,4541.025641,4264.102564,4701.025641,4245.128205,4445.128205,4186.153846,4223.076923,4501.538461,4202.564102,4664.102564,3956.410257,4038.974358
100,4394.358974,4521.538461,4537.435897,4263.589743,4695.384615,4236.923076,4440.512820,4178.974358,4222.051282,4497.948717,4197.948717,4658.974358,3954.358975,4035.897435
101,4392.307692,4514.358974,4531.794871,4262.051282,4690.769230,4229.743589,4429.230769,4175.384615,4222.564102,4496.923076,4201.538461,4652.820512,3957.435898,4037.435897
102,4393.333333,4513.846153,4530.256410,4260.000000,4688.205128,4227.692307,4429.743589,4178.974358,4223.589743,4500.512820,4206.153846,4653.846153,3965.641026,4040.000000
103,4397.435897,4515.384615,4540.512820,4262.051282,4689.230769,4235.384615,4442.564102,4187.692307,4232.820512,4507.692307,4207.179487,4662.564102,3970.256411,4041.025641
104,4402.051282,4518.461538,4546.153846,4264.615384,4690.769230,4238.461538,4446.666666,4191.282051,4236.410256,4509.230769,4208.717948,4664.615384,3968.205129,4040.000000
105,4401.025641,4521.025641,4538.974358,4263.589743,4689.230769,4231.282051,4442.051282,4188.717948,4230.769230,4504.102564,4210.769230,4658.461538,3965.128206,4035.384615
106,4398.461538,4519.487179,4539.487179,4262.564102,4689.743589,4231.794871,4443.589743,4187.179487,4233.846153,4506.666666,4209.230769,4656.923076,3962.051283,4030.769230
107,4397.435897,4515.897435,4542.564102,4262.051282,4691.282051,4236.923076,4446.666666,4184.615384,4232.820512,4507.692307,4200.000000,4657.435897,3955.897436,4028.717948
108,4396.923076,4517.948717,4536.923076,4261.025641,4688.205128,4232.820512,4443.076923,4182.564102,4220.512820,4497.948717,4193.846153,4656.410256,3952.820513,4028.205128
109,4402.564102,4527.179487,4540.000000,4262.051282,4684.615384,4231.282051,4441.538461,4183.076923,4221.025641,4497.435897,4203.076923,4661.025641,3961.025642,4034.358974
110,4411.794871,4529.743589,4548.717948,4265.128205,4688.205128,4237.948717,4445.128205,4184.102564,4230.769230,4504.615384,4215.384615,4665.641025,3968.205129,4042.051282
111,4413.846153,4526.153846,4544.102564,4265.641025,4690.256410,4238.974358,4444.615384,4182.051282,4225.128205,4498.974358,4211.282051,4657.948717,3961.538462,4035.897435
112,4405.641025,4520.512820,4540.512820,4266.153846,4689.743589,4238.974358,4441.538461,4181.025641,4217.435897,4492.820512,4199.487179,4652.820512,3952.820513,4026.666666
113,4398.461538,4519.487179,4545.128205,4267.179487,4694.871794,4241.025641,4444.102564,4183.589743,4224.102564,4498.461538,4196.410256,4650.769230,3952.307693,4025.128205
114,4400.512820,4522.051282,4542.564102,4263.076923,4693.333333,4237.948717,4444.102564,4187.179487,4227.692307,4499.487179,4201.538461,4647.179487,3954.871795,4027.179487
115,4407.692307,4524.102564,4539.487179,4262.051282,4685.128205,4234.358974,4442.564102,4191.282051,4228.717948,4498.974358,4207.692307,4654.871794,3961.538462,4032.820512
116,4415.897435,4532.820512,4551.282051,4272.307692,4686.153846,4237.948717,4452.820512,4198.461538,4236.923076,4511.282051,4217.435897,4669.743589,3973.333334,4043.076923
117,4423.076923,4540.000000,4560.000000,4282.051282,4691.282051,4243.589743,4460.512820,4205.641025,4238.974358,4515.897435,4227.179487,4674.358974,3981.025642,4052.820512
118,4424.102564,4540.000000,4552.820512,4280.512820,4691.282051,4244.102564,4455.384615,4202.051282,4231.794871,4507.692307,4224.615384,4668.717948,3986.153847,4055.384615
119,4420.000000,4540.512820,4545.641025,4274.358974,4689.230769,4243.589743,4448.717948,4194.358974,4227.179487,4504.615384,4215.384615,4663.076923,3986.153847,4049.743589
120,4420.512820,4543.589743,4547.179487,4274.358974,4689.743589,4244.615384,4449.743589,4196.410256,4230.256410,4506.153846,4213.333333,4656.410256,3977.435898,4045.641025
121,4421.538461,4544.615384,4550.256410,4278.461538,4691.282051,4246.666666,4455.897435,4198.974358,4230.769230,4505.641025,4219.487179,4657.948717,3971.794872,4047.692307
122,4415.384615,4541.538461,4549.230769,4279.487179,4693.333333,4247.692307,4456.410256,4195.384615,4226.666666,4505.128205,4221.025641,4664.615384,3973.846154,4046.666666
123,4410.256410,4535.384615,4546.666666,4275.897435,4688.205128,4240.512820,4449.230769,4194.871794,4220.512820,4499.487179,4212.820512,4663.589743,3969.743590,4041.025641
124,4408.717948,4531.282051,4543.589743,4273.333333,4682.051282,4236.410256,4444.102564,4200.512820,4221.025641,4494.358974,4210.256410,4660.512820,3962.051283,4041.538461
125,4408.205128,4533.846153,4545.128205,4276.410256,4684.102564,4238.974358,4447.179487,4203.076923,4229.230769,4500.000000,4214.871794,4659.487179,3963.076924,4044.102564
126,4410.256410,4536.923076,4545.641025,4276.923076,4683.076923,4237.948717,4445.641025,4197.948717,4230.769230,4503.076923,4213.333333,4657.435897,3968.205129,4041.025641
127,4412.307692,4536.410256,4543.076923,4273.846153,4678.461538,4235.384615,4440.512820,4191.282051,4224.102564,4497.435897,4208.717948,4660.000000,3973.846154,4042.051282
128,4416.410256,4536.923076,4545.641025,4275.384615,4680.000000,4240.000000,4447.692307,4193.846153,4227.179487,4501.538461,4211.282051,4665.641025,3977.948718,4049.743589
129,4423.589743,4542.051282,4549.230769,4282.051282,4684.102564,4245.128205,4457.435897,4203.589743,4237.435897,4510.769230,4220.512820,4668.717948,3981.025642,4054.358974
130,4423.076923,4543.076923,4548.205128,4283.076923,4683.076923,4242.051282,4452.820512,4201.538461,4235.897435,4507.179487,4229.230769,4670.256410,3984.615385,4053.333333
131,4418.461538,4535.897435,4545.641025,4276.923076,4680.000000,4237.948717,4442.564102,4188.205128,4228.717948,4502.051282,4227.179487,4667.692307,3983.076924,4049.743589
132,4423.076923,4537.435897,4548.717948,4276.923076,4678.461538,4239.487179,4447.179487,4187.692307,4233.333333,4508.717948,4224.615384,4666.153846,3982.564103,4050.769230
133,4432.307692,4549.743589,4556.923076,4286.666666,4682.564102,4245.641025,4460.512820,4200.000000,4242.051282,4514.358974,4228.717948,4676.410256,3993.333334,4059.487179
134,4429.743589,4550.256410,4555.384615,4290.256410,4686.666666,4249.230769,4458.974358,4199.487179,4241.538461,4511.282051,4226.666666,4677.435897,3997.435898,4059.487179
135,4421.025641,4538.461538,4545.641025,4280.512820,4681.538461,4245.641025,4449.743589,4191.794871,4231.794871,4502.564102,4223.076923,4662.051282,3978.974359,4046.153846
136,4417.435897,4536.410256,4542.564102,4271.794871,4674.871794,4241.025641,4448.205128,4196.923076,4227.692307,4502.564102,4223.076923,4657.948717,3966.153847,4040.000000
137,4418.461538,4541.538461,4544.102564,4272.307692,4678.974358,4240.512820,4447.692307,4202.564102,4237.435897,4509.230769,4219.487179,4662.051282,3975.384616,4044.102564
138,4423.076923,4548.205128,4547.692307,4276.410256,4680.512820,4241.538461,4444.615384,4197.948717,4245.128205,4508.205128,4218.974358,4663.076923,3987.179488,4047.179487
139,4428.205128,4552.820512,4554.358974,4281.538461,4674.871794,4239.487179,4447.179487,4198.461538,4241.025641,4506.153846,4234.358974,4668.717948,3989.743590,4052.307692
140,4430.256410,4548.205128,4555.384615,4282.564102,4669.230769,4235.384615,4448.205128,4202.051282,4233.846153,4510.769230,4240.000000,4674.871794,3990.769231,4057.948717
141,4428.717948,4540.000000,4547.692307,4279.487179,4667.692307,4233.333333,4447.692307,4200.512820,4231.794871,4506.153846,4221.538461,4669.743589,3985.641026,4053.333333
142,4423.076923,4538.974358,4544.102564,4278.461538,4666.153846,4233.333333,4454.871794,4200.512820,4233.333333,4497.435897,4211.282051,4661.538461,3976.410257,4044.102564
143,4414.871794,4536.410256,4545.641025,4277.948717,4662.564102,4235.897435,4459.487179,4202.564102,4233.333333,4502.051282,4222.564102,4661.538461,3976.923077,4040.512820
144,4412.307692,4532.307692,4544.615384,4277.948717,4663.076923,4238.461538,4451.794871,4195.384615,4233.333333,4503.589743,4231.282051,4664.102564,3983.589744,4043.076923
145,4416.410256,4538.974358,4544.102564,4280.000000,4669.230769,4241.538461,4444.615384,4191.282051,4238.461538,4499.487179,4228.717948,4666.153846,3983.589744,4047.179487
146,4419.487179,4547.692307,4546.666666,4281.025641,4670.256410,4244.615384,4445.128205,4195.897435,4242.564102,4505.128205,4225.128205,4667.692307,3980.512821,4048.205128
147,4416.410256,4543.589743,4545.128205,4278.461538,4666.666666,4242.051282,4448.205128,4196.410256,4238.461538,4505.641025,4218.974358,4663.589743,3978.461539,4043.589743
148,4408.205128,4536.410256,4538.461538,4277.435897,4662.051282,4232.307692,4447.179487,4190.769230,4228.717948,4491.282051,4205.641025,4653.846153,3970.769231,4035.384615
149,4404.102564,4534.358974,4533.846153,4276.410256,4654.358974,4229.230769,4449.230769,4188.205128,4218.974358,4482.051282,4201.025641,4651.794871,3966.666667,4033.333333
150,4406.153846,4531.282051,4535.897435,4269.743589,4648.205128,4231.282051,4453.333333,4187.692307,4215.897435,4490.256410,4208.205128,4656.923076,3969.743590,4036.410256
151,4401.025641,4524.615384,4538.974358,4265.641025,4647.692307,4229.743589,4452.307692,4185.641025,4220.512820,4497.435897,4213.333333,4657.435897,3968.717949,4033.846153
152,4396.410256,4524.615384,4540.000000,4273.333333,4649.743589,4230.769230,4451.794871,4191.794871,4229.230769,4498.461538,4215.897435,4655.384615,3971.794872,4032.820512
153,4405.128205,4532.820512,4541.538461,4278.461538,4653.333333,4233.333333,4457.948717,4203.076923,4237.435897,4504.102564,4220.000000,4655.897435,3976.923077,4036.923076
154,4413.333333,4535.897435,4543.076923,4276.923076,4653.846153,4235.384615,4458.974358,4203.076923,4235.897435,4504.102564,4221.538461,4658.974358,3973.333334,4037.948717
155,4412.307692,4537.435897,4544.615384,4279.487179,4652.820512,4232.820512,4450.256410,4198.461538,4228.205128,4498.974358,4221.538461,4661.025641,3972.307693,4043.589743
156,4410.769230,4544.102564,4547.179487,4281.025641,4653.846153,4229.743589,4448.205128,4197.948717,4228.717948,4499.487179,4225.128205,4665.128205,3978.974359,4050.256410
157,4414.358974,4546.666666,4550.256410,4281.025641,4653.333333,4233.846153,4457.435897,4196.923076,4232.307692,4503.076923,4225.128205,4668.205128,3981.025642,4046.153846
158,4412.820512,4541.025641,4549.743589,4283.076923,4651.282051,4237.435897,4456.410256,4187.179487,4227.692307,4500.512820,4217.435897,4661.538461,3982.051283,4039.487179
159,4406.153846,4534.871794,4545.128205,4277.435897,4651.282051,4232.307692,4445.128205,4179.487179,4222.051282,4495.897435,4213.333333,4651.794871,3983.076924,4040.512820
160,4403.589743,4531.282051,4544.615384,4270.769230,4647.692307,4229.743589,4446.153846,4187.692307,4225.641025,4498.974358,4215.384615,4652.820512,3978.974359,4046.666666
161,4410.769230,4530.769230,4550.256410,4275.897435,4645.128205,4236.923076,4459.487179,4199.487179,4231.282051,4503.589743,4222.564102,4662.051282,3976.923077,4053.333333
162,4414.358974,4539.487179,4553.333333,4281.538461,4647.692307,4241.025641,4461.538461,4196.923076,4234.358974,4505.641025,4228.717948,4668.205128,3980.512821,4058.461538
163,4406.666666,4542.564102,4549.743589,4277.435897,4646.153846,4234.358974,4450.769230,4187.179487,4232.820512,4503.589743,4225.128205,4667.179487,3978.461539,4058.461538
164,4397.948717,4535.897435,4544.615384,4270.769230,4641.538461,4228.205128,4443.076923,4183.076923,4220.000000,4494.358974,4212.307692,4658.974358,3968.717949,4053.333333
165,4395.897435,4535.897435,4542.051282,4268.717948,4640.512820,4230.769230,4443.076923,4184.102564,4211.794871,4489.743589,4198.461538,4651.794871,3964.102565,4046.666666
166,4398.461538,4544.102564,4545.641025,4276.410256,4643.076923,4236.410256,4447.179487,4187.179487,4219.487179,4497.435897,4201.025641,4653.846153,3970.256411,4050.256410
167,4401.025641,4543.589743,4548.717948,4279.487179,4643.076923,4235.384615,4448.717948,4188.205128,4226.666666,4504.102564,4218.974358,4657.948717,3974.871795,4057.948717
168,4396.923076,4532.307692,4543.589743,4270.769230,4635.897435,4232.307692,4446.153846,4189.743589,4221.025641,4500.000000,4224.102564,4656.923076,3970.769231,4055.384615
169,4391.282051,4530.256410,4543.589743,4267.179487,4630.256410,4228.717948,4443.589743,4193.846153,4224.102564,4500.512820,4215.384615,4656.410256,3972.820513,4054.871794
170,4389.230769,4537.948717,4546.666666,4272.820512,4634.358974,4226.666666,4443.076923,4196.410256,4236.410256,4512.307692,4217.948717,4662.564102,3980.000000,4062.564102
171,4388.717948,4538.974358,4547.179487,4275.384615,4635.897435,4226.153846,4443.076923,4197.948717,4234.871794,4516.410256,4224.615384,4665.128205,3974.871795,4064.102564
172,4387.692307,4533.846153,4549.230769,4277.435897,4632.307692,4229.230769,4442.564102,4198.461538,4228.205128,4511.282051,4218.461538,4662.051282,3968.717949,4060.000000
173,4383.589743,4530.769230,4547.179487,4273.846153,4634.358974,4230.769230,4442.564102,4194.358974,4227.692307,4506.666666,4206.153846,4658.974358,3973.333334,4056.410256
174,4374.871794,4527.692307,4534.871794,4263.589743,4631.282051,4224.615384,4442.564102,4186.666666,4222.051282,4502.051282,4198.461538,4655.384615,3969.230770,4049.743589
175,4373.846153,4525.641025,4528.205128,4261.025641,4621.538461,4217.435897,4442.051282,4187.179487,4215.897435,4504.615384,4203.589743,4649.230769,3960.512821,4044.102564
176,4379.487179,4530.769230,4534.871794,4265.128205,4621.025641,4216.923076,4442.051282,4193.333333,4223.076923,4512.820512,4211.794871,4651.282051,3965.128206,4048.717948
177,4375.384615,4535.384615,4537.435897,4265.128205,4623.076923,4217.435897,4440.512820,4193.333333,4226.153846,4509.743589,4207.179487,4654.358974,3968.205129,4052.820512
178,4369.230769,4527.179487,4535.897435,4264.615384,4621.025641,4217.435897,4440.000000,4186.153846,4216.410256,4501.025641,4198.974358,4650.256410,3960.000000,4048.205128
179,4372.307692,4518.974358,4538.461538,4264.102564,4623.076923,4221.538461,4442.051282,4182.051282,4211.794871,4500.000000,4205.128205,4650.256410,3958.974359,4047.179487
180,4371.282051,4522.051282,4537.435897,4263.589743,4624.615384,4222.051282,4442.051282,4183.076923,4209.743589,4497.435897,4212.307692,4651.794871,3963.589744,4046.153846
181,4364.102564,4525.128205,4532.820512,4265.641025,4620.512820,4215.897435,4440.000000,4182.051282,4206.666666,4492.820512,4204.615384,4649.230769,3958.974359,4041.538461
182,4365.641025,4521.025641,4535.384615,4264.615384,4619.487179,4214.871794,4440.512820,4182.564102,4210.256410,4498.974358,4197.948717,4652.820512,3956.410257,4045.128205
183,4371.794871,4525.641025,4541.025641,4264.615384,4619.487179,4218.974358,4442.564102,4185.641025,4218.974358,4509.230769,4207.692307,4657.948717,3969.743590,4053.846153
184,4371.794871,4531.794871,4540.000000,4269.743589,4613.846153,4219.487179,4442.051282,4192.307692,4223.589743,4511.794871,4216.410256,4656.410256,3980.000000,4055.897435
185,4371.794871,4530.769230,4540.512820,4273.333333,4616.410256,4217.948717,4443.076923,4199.487179,4224.615384,4511.794871,4215.897435,4654.871794,3973.846154,4056.923076
186,4373.333333,4526.153846,4542.564102,4269.230769,4622.051282,4223.076923,4448.205128,4202.564102,4225.641025,4515.897435,4216.410256,4656.410256,3972.307693,4059.487179
187,4369.230769,4523.076923,4536.410256,4263.076923,4614.871794,4225.641025,4450.256410,4197.948717,4225.641025,4517.435897,4215.897435,4655.384615,3974.358975,4054.358974
188,4360.512820,4522.564102,4530.256410,4262.564102,4611.282051,4219.487179,4446.666666,4193.846153,4220.512820,4510.769230,4206.153846,4651.282051,3969.230770,4047.692307
189,4354.358974,4520.512820,4531.282051,4260.512820,4616.410256,4216.410256,4444.102564,4194.358974,4216.410256,4505.128205,4199.487179,4645.641025,3968.205129,4042.564102
190,4353.846153,4518.974358,4529.743589,4253.333333,4610.769230,4213.846153,4442.564102,4193.333333,4220.512820,4503.076923,4198.974358,4641.025641,3968.717949,4040.000000
191,4353.846153,4521.538461,4528.205128,4253.333333,4601.025641,4210.256410,4442.051282,4191.794871,4222.051282,4500.512820,4202.051282,4643.589743,3963.076924,4041.025641
192,4352.307692,4518.461538,4531.794871,4260.000000,4604.615384,4207.692307,4442.564102,4187.179487,4212.307692,4497.435897,4210.256410,4648.205128,3960.000000,4042.051282
193,4350.256410,4512.820512,4532.307692,4262.051282,4605.128205,4207.692307,4442.051282,4187.692307,4210.256410,4496.923076,4211.282051,4648.205128,3963.076924,4042.564102
194,4351.282051,4516.923076,4529.743589,4262.051282,4599.487179,4210.256410,4443.076923,4193.333333,4217.435897,4498.974358,4204.615384,4649.743589,3964.102565,4043.076923
195,4351.282051,4521.538461,4529.230769,4263.589743,4602.564102,4209.743589,4444.102564,4192.307692,4217.435897,4498.461538,4201.538461,4650.256410,3963.076924,4041.025641
196,4348.717948,4517.948717,4528.205128,4263.076923,4604.102564,4208.717948,4442.051282,4190.769230,4211.282051,4496.923076,4203.076923,4647.179487,3963.589744,4036.923076
197,4350.256410,4519.487179,4528.205128,4262.564102,4598.974358,4210.769230,4440.512820,4196.923076,4213.333333,4496.410256,4207.179487,4647.692307,3964.615385,4037.948717
198,4357.948717,4526.153846,4533.333333,4264.615384,4600.512820,4209.743589,4441.538461,4201.538461,4219.487179,4497.435897,4214.358974,4651.794871,3967.692308,4045.128205
199,4360.512820,4524.102564,4537.948717,4264.615384,4604.615384,4209.743589,4445.128205,4201.025641,4217.948717,4501.025641,4216.923076,4653.846153,3969.743590,4048.205128
200,4356.410256,4518.461538,4535.384615,4263.076923,4603.076923,4214.871794,4446.153846,4198.461538,4213.333333,4501.538461,4212.307692,4649.743589,3966.666667,4044.102564
201,4357.435897,4527.692307,4533.846153,4263.076923,4601.538461,4213.333333,4444.615384,4194.871794,4215.384615,4496.410256,4215.897435,4644.615384,3963.589744,4043.076923
202,4362.564102,4533.333333,4537.948717,4262.564102,4604.102564,4210.256410,4443.589743,4194.358974,4216.410256,4493.333333,4214.871794,4641.538461,3961.025642,4045.641025
203,4360.512820,4520.512820,4536.923076,4261.538461,4605.128205,4216.923076,4443.076923,4192.307692,4210.256410,4490.769230,4202.051282,4641.025641,3957.948718,4043.076923
204,4354.358974,4510.769230,4531.794871,4262.051282,4601.538461,4217.948717,4441.538461,4189.230769,4209.230769,4489.743589,4200.000000,4643.076923,3962.051283,4038.974358
205,4357.948717,4519.487179,4535.384615,4265.128205,4597.948717,4215.897435,4447.179487,4196.923076,4216.923076,4494.871794,4212.820512,4647.179487,3969.743590,4042.051282
206,4366.153846,4527.179487,4543.076923,4266.666666,4600.000000,4221.538461,4458.461538,4205.128205,4223.076923,4501.025641,4217.435897,4650.256410,3968.717949,4046.666666
207,4367.692307,4523.589743,4545.641025,4266.153846,4602.051282,4222.051282,4458.461538,4202.564102,4225.128205,4501.538461,4212.820512,4651.282051,3962.564103,4046.153846
208,4365.641025,4523.589743,4544.615384,4263.589743,4595.384615,4212.820512,4449.743589,4202.564102,4221.538461,4500.000000,4210.769230,4652.820512,3965.641026,4042.051282
209,4364.102564,4524.615384,4540.000000,4264.102564,4586.666666,4208.205128,4446.153846,4201.538461,4222.051282,4500.000000,4212.307692,4649.230769,3970.256411,4038.974358
210,4362.051282,4511.794871,4539.487179,4262.051282,4585.641025,4209.230769,4445.128205,4198.461538,4224.102564,4501.025641,4215.897435,4645.641025,3968.205129,4037.948717
211,4357.948717,4503.589743,4540.000000,4253.846153,4586.666666,4209.230769,4441.538461,4201.025641,4222.564102,4496.923076,4212.307692,4646.666666,3962.051283,4037.435897
212,4354.871794,4510.769230,4534.871794,4252.820512,4582.564102,4210.256410,4437.435897,4199.487179,4217.948717,4488.205128,4197.435897,4642.564102,3955.897436,4033.846153
213,4358.974358,4515.897435,4537.435897,4259.487179,4579.487179,4215.384615,4442.051282,4197.948717,4222.051282,4493.846153,4200.512820,4643.076923,3960.512821,4034.871794
214,4368.717948,4514.358974,4546.666666,4263.589743,4584.102564,4216.410256,4452.307692,4207.692307,4230.769230,4507.179487,4224.615384,4651.794871,3969.230770,4041.538461
215,4369.743589,4514.871794,4548.717948,4261.025641,4587.692307,4213.846153,4451.282051,4214.871794,4232.307692,4507.692307,4229.743589,4652.820512,3971.282052,4043.589743
216,4366.666666,4518.461538,4546.666666,4260.512820,4585.641025,4215.897435,4448.717948,4209.230769,4233.333333,4506.153846,4216.923076,4650.256410,3971.794872,4043.076923
217,4372.307692,4521.538461,4550.769230,4263.589743,4585.128205,4216.923076,4454.871794,4201.538461,4232.820512,4507.179487,4213.846153,4655.384615,3975.384616,4045.128205
218,4371.282051,4524.102564,4548.717948,4264.102564,4587.179487,4217.435897,4455.384615,4200.000000,4227.179487,4503.589743,4218.974358,4653.846153,3976.410257,4041.025641
219,4364.102564,4522.051282,4542.564102,4262.051282,4586.666666,4220.000000,4449.743589,4202.564102,4226.153846,4501.025641,4218.974358,4646.666666,3974.358975,4036.923076
220,4369.230769,4519.487179,4542.564102,4260.000000,4584.615384,4218.461538,4446.666666,4202.051282,4229.743589,4502.051282,4215.897435,4649.230769,3973.333334,4040.000000
221,4375.897435,4524.102564,4543.589743,4261.538461,4584.615384,4214.871794,4444.102564,4198.461538,4224.102564,4497.435897,4215.384615,4650.769230,3971.282052,4042.051282
222,4375.897435,4532.307692,4544.615384,4268.205128,4587.179487,4214.358974,4449.230769,4203.076923,4222.051282,4497.435897,4220.000000,4649.230769,3970.256411,4041.025641
223,4380.512820,4536.410256,4548.205128,4271.794871,4588.717948,4217.435897,4461.025641,4212.820512,4231.282051,4502.564102,4226.153846,4653.333333,3975.897436,4045.641025
224,4380.512820,4532.820512,4547.179487,4267.179487,4587.692307,4219.487179,4460.512820,4210.769230,4230.769230,4498.974358,4224.102564,4652.820512,3977.948718,4048.205128
225,4371.794871,4525.128205,4541.538461,4261.025641,4588.205128,4217.948717,4454.871794,4198.461538,4221.538461,4494.358974,4215.384615,4647.179487,3970.256411,4040.512820
226,4373.333333,4525.641025,4544.615384,4266.153846,4589.743589,4216.923076,4456.923076,4196.923076,4225.128205,4502.051282,4213.333333,4649.743589,3967.179488,4037.948717
227,4384.102564,4536.410256,4553.333333,4277.948717,4586.666666,4223.589743,4460.000000,4207.179487,4238.461538,4508.717948,4223.076923,4658.974358,3976.410257,4049.743589
228,4386.666666,4543.589743,4555.384615,4280.000000,4582.051282,4226.153846,4458.974358,4214.358974,4240.000000,4504.615384,4225.641025,4661.538461,3982.051283,4055.384615
229,4381.538461,4540.512820,4552.307692,4271.282051,4582.051282,4217.948717,4459.487179,4214.871794,4232.820512,4503.076923,4225.128205,4657.948717,3984.615385,4048.717948
230,4382.051282,4536.923076,4552.307692,4266.153846,4584.615384,4215.384615,4461.025641,4216.410256,4235.384615,4507.692307,4235.384615,4657.948717,3987.179488,4045.128205
231,4383.076923,4529.230769,4555.897435,4269.230769,4582.051282,4214.358974,4461.538461,4216.923076,4241.538461,4512.307692,4242.051282,4661.025641,3982.051283,4047.179487
232,4377.435897,4522.051282,4552.307692,4268.205128,4578.974358,4210.256410,4459.487179,4211.794871,4235.897435,4509.743589,4232.307692,4657.435897,3972.820513,4044.102564
233,4370.769230,4526.153846,4545.128205,4262.051282,4578.974358,4207.692307,4453.333333,4210.769230,4229.743589,4502.564102,4225.641025,4651.282051,3971.794872,4038.974358
234,4374.358974,4531.282051,4544.102564,4262.564102,4577.948717,4210.256410,4450.256410,4214.871794,4232.820512,4502.564102,4233.846153,4653.846153,3978.461539,4038.974358
235,4378.974358,4526.153846,4545.641025,4268.717948,4576.410256,4212.820512,4456.923076,4212.820512,4233.846153,4503.589743,4234.358974,4657.435897,3984.102565,4039.487179
236,4374.871794,4522.564102,4543.589743,4271.282051,4573.846153,4211.282051,4456.923076,4204.102564,4228.717948,4499.487179,4222.051282,4652.307692,3977.948718,4037.435897
237,4373.333333,4528.205128,4542.564102,4267.179487,4571.794871,4212.820512,4447.692307,4198.461538,4224.102564,4491.794871,4220.512820,4648.205128,3968.205129,4036.923076
238,4374.871794,4530.769230,4544.102564,4264.102564,4576.410256,4220.512820,4449.230769,4198.974358,4223.076923,4489.230769,4227.692307,4652.820512,3974.358975,4040.512820
239,4373.333333,4524.615384,4542.564102,4265.641025,4577.435897,4225.641025,4458.974358,4200.000000,4221.025641,4492.307692,4225.641025,4656.923076,3985.641026,4041.538461
240,4375.384615,4526.666666,4542.564102,4265.641025,4568.205128,4228.717948,4458.461538,4200.000000,4222.051282,4497.435897,4221.025641,4655.384615,3979.487180,4038.461538
241,4380.512820,4532.820512,4544.615384,4264.615384,4567.692307,4229.230769,4455.897435,4200.000000,4229.230769,4500.512820,4228.205128,4657.948717,3969.230770,4038.461538
242,4380.512820,4531.282051,4545.641025,4264.102564,4572.820512,4224.102564,4454.871794,4206.666666,4231.794871,4500.000000,4231.794871,4661.538461,3975.384616,4040.000000
243,4382.051282,4526.153846,4548.205128,4266.666666,4568.205128,4221.025641,4451.282051,4213.333333,4229.230769,4498.974358,4227.692307,4663.589743,3989.743590,4043.076923
244,4388.717948,4527.179487,4554.358974,4267.179487,4567.692307,4222.051282,4447.692307,4209.230769,4230.769230,4498.461538,4230.256410,4664.615384,3992.820513,4048.205128
245,4389.743589,4531.282051,4553.333333,4267.692307,4571.282051,4218.974358,4449.743589,4206.666666,4233.846153,4501.025641,4239.487179,4659.487179,3984.102565,4048.717948
246,4387.692307,4531.794871,4549.743589,4270.769230,4569.230769,4217.948717,4455.384615,4214.358974,4229.743589,4504.615384,4244.615384,4654.871794,3983.076924,4046.666666
247,4392.820512,4532.820512,4557.435897,4278.461538,4572.307692,4227.692307,4461.025641,4218.974358,4235.384615,4508.717948,4249.230769,4661.025641,3992.820513,4051.282051
248,4396.923076,4533.846153,4566.666666,4281.538461,4579.487179,4231.794871,4462.564102,4216.410256,4244.615384,4511.282051,4251.282051,4665.641025,3994.871795,4057.435897
249,4391.794871,4530.256410,4561.538461,4273.846153,4576.923076,4226.153846,4462.564102,4216.410256,4240.512820,4510.769230,4241.538461,4656.923076,3989.743590,4055.897435
250,4387.179487,4530.256410,4553.333333,4270.256410,4573.846153,4225.641025,4462.564102,4220.000000,4237.948717,4509.743589,4232.820512,4653.333333,3988.717949,4051.794871
251,4386.153846,4533.846153,4550.769230,4270.769230,4576.923076,4229.743589,4460.512820,4216.923076,4238.974358,4509.743589,4239.487179,4654.358974,3986.153847,4048.205128
252,4381.538461,4527.179487,4547.179487,4264.102564,4571.794871,4224.102564,4458.974358,4209.743589,4230.256410,4509.230769,4240.512820,4646.153846,3977.948718,4041.538461
253,4378.974358,4518.974358,4547.692307,4261.025641,4564.615384,4212.820512,4460.000000,4208.717948,4224.615384,4505.641025,4228.717948,4641.025641,3974.871795,4037.435897
254,4383.589743,4525.641025,4553.846153,4267.692307,4567.179487,4215.897435,4461.025641,4216.410256,4234.871794,4506.666666,4228.205128,4648.717948,3981.025642,4043.076923
255,4385.128205,4532.307692,4555.384615,4269.230769,4571.282051,4220.512820,4460.000000,4220.512820,4243.076923,4512.307692,4242.564102,4651.282051,3986.153847,4048.717948
256,4383.076923,4528.205128,4552.820512,4264.102564,4565.128205,4216.923076,4459.487179,4214.871794,4238.461538,4513.846153,4246.666666,4644.615384,3983.076924,4044.615384
257,4383.076923,4527.692307,4548.205128,4265.641025,4562.564102,4216.923076,4458.974358,4210.769230,4232.307692,4508.717948,4237.948717,4642.051282,3981.538462,4041.025641
258,4378.461538,4531.282051,4549.743589,4267.179487,4566.666666,4220.512820,4457.948717,4213.846153,4233.846153,4505.641025,4233.846153,4643.076923,3985.128206,4042.051282
259,4375.384615,4531.794871,4554.871794,4265.128205,4562.564102,4218.461538,4460.000000,4217.435897,4235.384615,4505.128205,4237.948717,4640.512820,3983.076924,4038.974358
