,AF3,F7,F3,FC5,T7,P7,O1,O2,P8,T8,FC6,F4,F8,AF4
0,4438.974358,4529.743589,4533.846153,4266.153846,4493.333333,4204.102564,4439.487179,4220.000000,4239.487179,4499.487179,4212.820512,4637.948717,4042.051282,4045.128205
1,4435.897435,4528.717948,4525.641025,4262.564102,4491.282051,4199.487179,4433.333333,4213.333333,4227.692307,4500.000000,4210.256410,4630.256410,4040.000000,4044.102564
2,4440.000000,4529.743589,4525.128205,4263.076923,4490.256410,4200.512820,4429.743589,4213.846153,4228.717948,4500.512820,4215.897435,4633.333333,4037.948717,4046.153846
3,4444.615384,4534.358974,4525.641025,4266.666666,4490.256410,4201.025641,4435.897435,4216.923076,4234.871794,4501.538461,4217.435897,4646.153846,4045.641025,4050.769230
4,4443.076923,4536.923076,4529.230769,4269.230769,4489.230769,4198.974358,4443.076923,4214.871794,4231.794871,4504.615384,4215.897435,4649.743589,4054.358974,4056.410256
5,4443.076923,4536.923076,4532.820512,4269.230769,4490.256410,4205.641025,4442.051282,4213.333333,4231.282051,4507.692307,4217.435897,4644.102564,4049.743589,4056.923076
6,4445.128205,4544.102564,4529.743589,4272.307692,4498.461538,4213.846153,4442.051282,4212.820512,4237.948717,4509.230769,4216.410256,4644.615384,4048.205128,4054.871794
7,4446.153846,4550.256410,4530.256410,4278.461538,4503.589743,4215.384615,4444.615384,4215.897435,4240.000000,4507.692307,4216.923076,4648.205128,4055.384615,4055.897435
8,4444.102564,4541.538461,4533.333333,4278.461538,4496.410256,4215.897435,4442.564102,4217.435897,4238.461538,4504.615384,4220.000000,4646.153846,4054.871794,4056.410256
9,4443.076923,4537.435897,4533.333333,4274.871794,4489.743589,4214.358974,4441.538461,4215.897435,4240.512820,4502.564102,4220.512820,4644.615384,4053.846153,4057.948717
10,4444.615384,4542.564102,4532.820512,4271.282051,4493.333333,4207.692307,4442.051282,4216.410256,4240.000000,4500.000000,4221.538461,4646.666666,4054.871794,4058.974358
11,4442.051282,4536.923076,4530.769230,4265.128205,4494.871794,4207.692307,4440.000000,4215.897435,4233.846153,4497.948717,4226.153846,4643.589743,4046.666666,4051.794871
12,4440.000000,4535.384615,4528.205128,4266.666666,4488.717948,4208.717948,4441.538461,4213.846153,4232.307692,4505.128205,4221.025641,4641.025641,4047.179487,4048.717948
13,4442.051282,4541.025641,4533.846153,4269.743589,4486.153846,4204.615384,4443.589743,4215.384615,4239.487179,4512.307692,4215.384615,4644.102564,4057.435897,4055.384615
14,4442.564102,4538.974358,4537.435897,4263.589743,4488.717948,4205.128205,4443.589743,4221.025641,4242.564102,4506.666666,4223.076923,4646.666666,4057.948717,4056.923076
15,4442.051282,4536.410256,4534.358974,4263.589743,4489.743589,4207.692307,4442.051282,4221.538461,4239.487179,4500.512820,4227.692307,4646.666666,4055.384615,4054.871794
16,4443.589743,4538.974358,4534.358974,4267.692307,4489.743589,4206.153846,4441.538461,4218.461538,4233.846153,4500.000000,4217.948717,4642.051282,4053.333333,4056.923076
17,4435.384615,4532.307692,4526.666666,4261.538461,4490.769230,4201.538461,4440.512820,4215.384615,4229.230769,4492.820512,4206.153846,4635.897435,4043.589743,4052.307692
18,4427.179487,4524.102564,4518.461538,4257.435897,4492.307692,4205.641025,4440.512820,4213.333333,4232.820512,4488.205128,4203.589743,4636.410256,4038.461538,4046.153846
19,4434.871794,4531.282051,4526.153846,4262.051282,4498.461538,4211.794871,4442.564102,4214.358974,4239.487179,4497.435897,4206.153846,4642.051282,4048.205128,4053.846153
20,4441.025641,4538.974358,4535.897435,4264.102564,4505.641025,4205.641025,4444.102564,4214.871794,4238.461538,4497.435897,4213.846153,4643.076923,4055.384615,4058.461538
21,4437.435897,4540.512820,4537.435897,4265.128205,4507.692307,4202.564102,4444.102564,4218.461538,4236.410256,4489.743589,4220.000000,4646.153846,4054.358974,4054.871794
22,4436.923076,4544.615384,4538.974358,4266.666666,4506.666666,4211.794871,4445.128205,4222.564102,4238.974358,4498.461538,4221.025641,4650.256410,4056.923076,4060.000000
23,4434.358974,4545.128205,4540.000000,4259.487179,4504.102564,4212.307692,4446.666666,4224.102564,4244.615384,4506.666666,4221.025641,4647.179487,4060.512820,4063.589743
24,4426.153846,4537.948717,4531.282051,4254.358974,4500.512820,4203.589743,4445.641025,4223.589743,4246.153846,4496.923076,4211.282051,4640.000000,4051.794871,4055.897435
25,4424.102564,4533.333333,4525.128205,4260.000000,4503.589743,4205.128205,4443.589743,4220.512820,4239.487179,4488.717948,4200.000000,4637.948717,4045.641025,4050.769230
26,4429.230769,4540.512820,4531.794871,4264.102564,4509.230769,4204.102564,4443.076923,4220.512820,4236.410256,4493.846153,4207.179487,4644.615384,4053.333333,4055.897435
27,4427.692307,4544.102564,4536.410256,4261.025641,4507.179487,4196.923076,4442.051282,4221.025641,4237.948717,4497.435897,4217.948717,4648.717948,4059.487179,4059.487179
28,4427.692307,4544.615384,4535.384615,4265.128205,4507.179487,4202.051282,4441.538461,4221.025641,4241.025641,4496.410256,4217.435897,4647.692307,4062.051282,4060.000000
29,4437.435897,4550.769230,4537.948717,4274.871794,4518.461538,4212.307692,4445.641025,4224.615384,4245.641025,4502.051282,4223.076923,4647.692307,4062.564102,4062.564102
30,4442.051282,4551.282051,4539.487179,4271.282051,4522.564102,4209.743589,4446.153846,4227.179487,4245.128205,4504.615384,4225.641025,4648.205128,4056.923076,4061.025641
31,4435.384615,4548.717948,4536.410256,4265.641025,4514.358974,4205.128205,4443.589743,4220.000000,4240.512820,4497.948717,4210.769230,4646.666666,4056.410256,4060.000000
32,4432.307692,4550.769230,4537.435897,4271.282051,4510.769230,4210.256410,4445.641025,4215.384615,4243.589743,4496.410256,4207.179487,4646.153846,4065.641025,4064.102564
33,4433.846153,4548.717948,4538.461538,4272.307692,4511.282051,4209.743589,4446.666666,4219.487179,4245.641025,4501.538461,4221.025641,4646.666666,4067.692307,4066.153846
34,4431.794871,4543.076923,4536.410256,4261.538461,4505.128205,4198.461538,4443.076923,4217.435897,4240.000000,4494.871794,4223.589743,4646.153846,4060.000000,4062.564102
35,4433.846153,4546.666666,4535.897435,4261.025641,4505.641025,4200.000000,4441.538461,4213.846153,4236.410256,4489.743589,4214.871794,4647.692307,4056.923076,4062.051282
36,4434.358974,4547.692307,4537.948717,4268.717948,4511.794871,4205.641025,4444.615384,4216.410256,4238.461538,4493.333333,4212.820512,4648.717948,4056.410256,4060.512820
37,4428.205128,4538.974358,4538.461538,4264.615384,4507.692307,4202.564102,4445.641025,4215.384615,4240.000000,4491.794871,4213.846153,4644.102564,4050.769230,4055.897435
38,4427.179487,4536.410256,4535.897435,4259.487179,4506.153846,4201.025641,4444.102564,4213.846153,4237.435897,4488.205128,4206.666666,4642.051282,4040.512820,4056.410256
39,4428.717948,4541.538461,4535.897435,4269.230769,4513.333333,4205.128205,4444.102564,4216.410256,4234.358974,4491.282051,4204.102564,4649.230769,4040.000000,4060.512820
40,4431.794871,4547.179487,4542.564102,4277.948717,4511.282051,4208.205128,4445.641025,4219.487179,4241.025641,4495.384615,4216.410256,4651.794871,4052.307692,4066.153846
41,4435.384615,4552.820512,4546.666666,4270.256410,4509.743589,4207.692307,4446.153846,4222.051282,4248.205128,4500.000000,4223.076923,4647.692307,4058.974358,4067.179487
42,4429.743589,4550.769230,4540.000000,4261.025641,4513.333333,4201.025641,4443.076923,4225.641025,4244.615384,4501.025641,4216.410256,4647.179487,4050.769230,4058.974358
43,4425.128205,4543.589743,4535.384615,4264.615384,4509.743589,4197.948717,4440.512820,4223.076923,4245.641025,4495.384615,4213.846153,4647.692307,4043.076923,4057.435897
44,4428.717948,4541.025641,4540.000000,4267.179487,4508.717948,4209.743589,4445.641025,4224.102564,4251.794871,4496.923076,4216.923076,4645.641025,4049.230769,4061.538461
45,4429.743589,4542.051282,4540.000000,4264.102564,4515.384615,4212.820512,4450.256410,4227.692307,4250.769230,4503.589743,4212.820512,4647.179487,4054.358974,4057.435897
46,4425.128205,4538.974358,4534.871794,4261.025641,4515.384615,4206.153846,4444.102564,4224.102564,4249.230769,4501.538461,4209.743589,4646.666666,4051.282051,4053.333333
47,4427.179487,4535.384615,4536.410256,4261.025641,4510.769230,4207.692307,4443.589743,4221.538461,4251.794871,4500.000000,4220.512820,4646.666666,4050.769230,4057.435897
48,4431.282051,4539.487179,4541.538461,4262.051282,4509.230769,4209.743589,4455.897435,4231.282051,4252.307692,4507.179487,4232.820512,4653.333333,4055.897435,4063.076923
49,4430.769230,4543.589743,4543.076923,4266.153846,4511.794871,4209.230769,4459.487179,4237.948717,4255.384615,4514.871794,4225.128205,4655.384615,4058.461538,4063.589743
50,4427.179487,4540.000000,4541.538461,4266.666666,4513.846153,4209.743589,4453.333333,4230.769230,4261.538461,4515.384615,4212.307692,4650.769230,4055.384615,4060.512820
51,4425.128205,4541.025641,4539.487179,4265.128205,4511.282051,4208.717948,4454.871794,4227.179487,4256.410256,4512.307692,4220.000000,4650.256410,4056.410256,4060.000000
52,4427.179487,4546.666666,4541.025641,4268.717948,4507.692307,4207.692307,4458.974358,4229.743589,4248.717948,4505.128205,4233.846153,4655.384615,4061.025641,4062.564102
53,4429.743589,4546.153846,4546.666666,4268.205128,4509.230769,4209.743589,4457.435897,4230.769230,4249.230769,4504.615384,4232.307692,4657.948717,4060.512820,4062.564102
54,4426.666666,4538.461538,4547.179487,4267.179487,4508.205128,4204.102564,4457.948717,4227.179487,4245.641025,4508.205128,4227.179487,4655.897435,4055.384615,4060.512820
55,4424.102564,4536.410256,4540.512820,4270.769230,4506.153846,4197.948717,4457.435897,4228.205128,4241.538461,4505.641025,4227.179487,4652.307692,4051.282051,4059.487179
56,4426.666666,4541.025641,4537.435897,4271.282051,4510.769230,4203.076923,4452.820512,4233.846153,4248.717948,4505.641025,4225.128205,4648.205128,4048.205128,4058.461538
57,4426.666666,4542.564102,4538.974358,4263.076923,4510.256410,4204.615384,4453.846153,4231.794871,4251.794871,4507.179487,4217.435897,4645.641025,4045.128205,4053.846153
58,4423.589743,4532.307692,4537.435897,4257.435897,4503.076923,4200.000000,4456.923076,4222.051282,4242.051282,4494.358974,4210.769230,4643.076923,4043.076923,4049.230769
59,4426.666666,4531.794871,4537.435897,4265.128205,4505.128205,4205.641025,4459.487179,4225.128205,4245.641025,4493.846153,4218.461538,4646.153846,4050.256410,4055.384615
60,4431.794871,4545.641025,4542.051282,4273.333333,4512.820512,4216.410256,4463.589743,4238.974358,4262.051282,4513.846153,4229.230769,4651.282051,4057.948717,4064.615384
61,4427.179487,4549.230769,4541.025641,4270.256410,4510.256410,4214.871794,4463.076923,4237.435897,4260.000000,4512.820512,4224.102564,4647.179487,4049.230769,4058.461538
62,4425.128205,4537.948717,4537.435897,4264.102564,4505.128205,4209.743589,4457.435897,4226.666666,4246.153846,4496.410256,4213.333333,4642.051282,4041.025641,4050.769230
63,4434.871794,4534.871794,4540.000000,4265.641025,4506.666666,4209.743589,4457.435897,4228.205128,4247.179487,4503.589743,4215.897435,4651.282051,4051.794871,4060.512820
64,4441.538461,4544.102564,4544.615384,4274.358974,4511.282051,4212.820512,4460.512820,4234.358974,4254.358974,4516.410256,4222.564102,4658.461538,4061.025641,4067.692307
65,4437.948717,4548.717948,4542.051282,4276.923076,4512.820512,4213.333333,4457.948717,4231.794871,4249.743589,4508.717948,4225.641025,4652.307692,4053.846153,4061.025641
66,4437.435897,4543.076923,4537.435897,4270.769230,4510.256410,4208.205128,4456.410256,4226.153846,4247.179487,4502.564102,4229.743589,4648.717948,4048.205128,4057.435897
67,4444.615384,4542.564102,4537.948717,4270.256410,4512.820512,4207.692307,4456.923076,4227.692307,4250.769230,4509.743589,4228.205128,4652.307692,4049.230769,4063.076923
68,4447.179487,4546.153846,4541.025641,4273.846153,4513.333333,4213.846153,4460.512820,4228.717948,4251.794871,4513.846153,4222.051282,4655.384615,4049.230769,4065.128205
69,4437.948717,4537.948717,4540.512820,4268.205128,4511.282051,4216.410256,4462.051282,4229.230769,4252.307692,4513.333333,4218.974358,4654.871794,4045.128205,4057.948717
70,4432.307692,4530.769230,4537.435897,4262.564102,4512.307692,4210.256410,4453.333333,4227.179487,4249.743589,4507.179487,4215.384615,4651.282051,4040.000000,4053.846153
71,4435.384615,4538.974358,4537.948717,4266.666666,4507.692307,4205.128205,4443.076923,4218.974358,4240.000000,4496.923076,4212.820512,4648.205128,4038.461538,4054.358974
72,4432.820512,4541.538461,4534.358974,4265.128205,4499.487179,4202.051282,4442.051282,4208.717948,4237.435897,4492.307692,4211.794871,4646.153846,4035.384615,4051.794871
73,4427.179487,4537.435897,4528.205128,4258.461538,4502.051282,4201.025641,4444.102564,4209.743589,4238.461538,4494.871794,4209.743589,4642.051282,4027.692307,4047.692307
74,4429.743589,4541.025641,4531.282051,4264.615384,4509.743589,4203.076923,4442.051282,4217.948717,4238.461538,4495.384615,4209.230769,4639.487179,4028.205128,4046.666666
75,4431.794871,4540.512820,4536.410256,4271.794871,4505.641025,4206.666666,4446.153846,4216.410256,4241.538461,4495.384615,4212.820512,4643.589743,4035.384615,4050.256410
76,4430.256410,4536.410256,4534.871794,4270.769230,4505.128205,4214.358974,4456.410256,4214.871794,4241.538461,4497.435897,4212.307692,4647.692307,4036.923076,4053.846153
77,4436.923076,4543.076923,4535.897435,4270.769230,4518.974358,4216.923076,4461.025641,4222.564102,4241.538461,4496.923076,4208.717948,4648.717948,4037.948717,4053.846153
78,4441.538461,4547.179487,4538.461538,4274.871794,4521.025641,4214.871794,4458.974358,4229.230769,4249.230769,4501.538461,4210.769230,4648.205128,4038.461538,4053.846153
79,4441.538461,4544.102564,4537.948717,4277.948717,4510.769230,4215.384615,4458.974358,4232.307692,4256.410256,4511.794871,4223.589743,4651.794871,4041.025641,4060.000000
80,4444.102564,4550.769230,4540.000000,4280.000000,4513.333333,4217.435897,4462.051282,4233.333333,4255.897435,4512.820512,4232.820512,4658.461538,4050.256410,4062.564102
81,4444.615384,4554.358974,4541.538461,4275.384615,4521.025641,4216.923076,4455.897435,4227.692307,4251.282051,4505.641025,4227.692307,4657.948717,4052.820512,4055.897435
82,4435.897435,4542.564102,4538.461538,4267.692307,4514.358974,4216.410256,4450.256410,4222.564102,4246.666666,4503.589743,4216.923076,4651.794871,4044.102564,4053.846153
83,4428.205128,4538.461538,4534.358974,4267.692307,4504.102564,4214.358974,4451.794871,4223.076923,4243.076923,4505.128205,4211.282051,4647.179487,4037.435897,4054.871794
84,4428.717948,4544.102564,4533.846153,4271.794871,4501.538461,4208.205128,4449.230769,4220.512820,4242.051282,4503.076923,4213.846153,4647.692307,4031.794871,4051.282051
85,4428.205128,4540.000000,4535.384615,4269.230769,4500.000000,4210.256410,4443.076923,4214.871794,4238.461538,4494.358974,4220.000000,4647.692307,4026.153846,4046.666666
86,4424.615384,4536.410256,4537.435897,4263.589743,4500.512820,4213.846153,4443.589743,4211.282051,4235.897435,4490.256410,4216.923076,4648.205128,4028.205128,4047.179487
87,4425.641025,4540.000000,4537.435897,4261.538461,4504.615384,4206.666666,4443.076923,4208.205128,4234.871794,4492.307692,4206.666666,4647.692307,4030.256410,4051.282051
88,4426.666666,4535.384615,4532.820512,4261.025641,4505.641025,4204.102564,4439.487179,4202.564102,4228.717948,4488.205128,4204.615384,4644.102564,4026.666666,4048.205128
89,4424.615384,4533.333333,4532.820512,4263.076923,4503.589743,4213.333333,4442.051282,4201.025641,4229.230769,4487.179487,4205.128205,4640.000000,4027.692307,4044.102564
90,4427.179487,4544.615384,4539.487179,4271.282051,4505.128205,4221.025641,4446.153846,4210.769230,4240.512820,4502.051282,4206.153846,4644.615384,4034.358974,4051.282051
91,4432.307692,4547.179487,4544.102564,4274.871794,4506.153846,4213.846153,4444.615384,4217.435897,4246.666666,4508.717948,4215.897435,4649.743589,4036.410256,4057.948717
92,4429.743589,4534.358974,4535.384615,4265.128205,4499.487179,4205.128205,4441.538461,4207.692307,4240.000000,4497.435897,4213.333333,4641.025641,4032.820512,4050.256410
93,4426.666666,4529.743589,4528.205128,4261.025641,4496.410256,4206.666666,4440.512820,4202.051282,4231.794871,4492.820512,4204.615384,4631.794871,4024.615384,4042.564102
94,4430.769230,4541.538461,4535.897435,4273.333333,4505.128205,4209.230769,4445.128205,4212.307692,4237.435897,4495.897435,4213.333333,4637.948717,4025.641025,4046.666666
95,4430.769230,4542.564102,4537.948717,4270.769230,4507.179487,4209.230769,4447.179487,4216.410256,4244.615384,4493.333333,4219.487179,4643.076923,4037.948717,4048.205128
96,4428.205128,4534.358974,4531.282051,4261.025641,4497.435897,4210.256410,4444.102564,4209.230769,4240.512820,4493.846153,4208.205128,4638.461538,4037.435897,4046.153846
97,4432.307692,4537.948717,4531.282051,4263.076923,4497.948717,4211.794871,4443.589743,4205.641025,4234.358974,4495.384615,4209.743589,4638.974358,4026.666666,4048.205128
98,4427.692307,4539.487179,4533.846153,4263.589743,4504.102564,4206.153846,4443.076923,4202.051282,4232.820512,4489.743589,4217.435897,4641.025641,4028.205128,4044.615384
99,4411.282051,4533.846153,4536.410256,4262.051282,4500.000000,4200.512820,4441.538461,4203.589743,4233.333333,4495.384615,4209.743589,4642.051282,4038.974358,4043.589743
100,4408.205128,4537.948717,4544.102564,4265.641025,4492.307692,4207.179487,4444.102564,4216.410256,4243.589743,4512.820512,4209.743589,4650.256410,4044.102564,4055.897435
101,4412.307692,4541.538461,4544.102564,4267.179487,4490.769230,4214.358974,4446.153846,4217.435897,4249.743589,4509.743589,4216.410256,4655.384615,4038.461538,4058.974358
102,4402.564102,4528.205128,4535.384615,4262.051282,4491.794871,4209.230769,4442.564102,4209.743589,4240.000000,4494.358974,4211.794871,4647.179487,4029.230769,4044.102564
103,4399.487179,4523.076923,4536.410256,4263.589743,4498.974358,4205.128205,4441.538461,4210.769230,4238.461538,4495.897435,4214.358974,4645.128205,4028.717948,4042.564102
104,4412.307692,4534.871794,4542.051282,4269.230769,4504.102564,4214.871794,4445.128205,4218.974358,4251.794871,4503.589743,4227.179487,4654.358974,4042.564102,4053.333333
105,4415.384615,4538.974358,4539.487179,4268.205128,4497.435897,4220.000000,4445.128205,4218.974358,4251.794871,4502.051282,4224.615384,4654.871794,4046.153846,4053.846153
106,4408.205128,4532.820512,4533.846153,4263.076923,4495.897435,4211.282051,4443.076923,4210.256410,4237.435897,4496.923076,4208.717948,4646.666666,4030.769230,4046.153846
107,4410.256410,4528.717948,4533.846153,4262.051282,4501.025641,4205.641025,4440.512820,4204.615384,4232.820512,4492.820512,4207.692307,4643.589743,4025.641025,4042.564102
108,4413.846153,4527.692307,4532.820512,4265.128205,4494.358974,4203.589743,4435.384615,4201.538461,4231.282051,4488.717948,4216.923076,4647.692307,4033.333333,4041.025641
109,4406.153846,4522.564102,4530.256410,4260.512820,4486.153846,4201.025641,4431.282051,4201.538461,4229.743589,4489.743589,4210.256410,4649.230769,4031.282051,4039.487179
110,4403.076923,4524.102564,4530.769230,4256.410256,4491.282051,4203.589743,4430.769230,4203.076923,4232.307692,4500.000000,4201.538461,4647.179487,4025.128205,4040.000000
111,4412.307692,4532.307692,4535.897435,4263.076923,4497.435897,4209.230769,4437.948717,4206.153846,4234.871794,4505.641025,4213.846153,4649.230769,4032.820512,4043.076923
112,4414.358974,4528.717948,4537.435897,4268.205128,4495.897435,4207.692307,4441.538461,4207.179487,4234.358974,4498.461538,4218.974358,4650.769230,4041.025641,4046.666666
113,4402.051282,4517.948717,4529.230769,4262.051282,4492.307692,4198.974358,4433.846153,4201.538461,4231.282051,4490.256410,4206.666666,4645.128205,4034.871794,4042.564102
114,4395.897435,4514.358974,4523.076923,4249.743589,4486.153846,4198.974358,4427.179487,4199.487179,4232.820512,4494.358974,4206.153846,4643.076923,4027.179487,4036.410256
115,4398.974358,4517.435897,4522.564102,4248.205128,4483.076923,4203.076923,4431.794871,4201.025641,4234.358974,4497.435897,4209.743589,4646.666666,4028.717948,4040.000000
116,4402.051282,4519.487179,4523.076923,4257.948717,4486.153846,4198.974358,4432.820512,4196.410256,4228.205128,4489.743589,4200.512820,4645.128205,4035.897435,4043.589743
117,4403.589743,4524.615384,4528.205128,4263.589743,4489.230769,4197.435897,4427.179487,4192.820512,4225.128205,4489.743589,4201.025641,4647.179487,4039.487179,4043.589743
118,4404.102564,4524.615384,4530.769230,4258.461538,4492.307692,4202.051282,4431.794871,4202.564102,4233.846153,4493.846153,4213.846153,4652.820512,4040.000000,4045.641025
119,4399.487179,4518.461538,4527.692307,4251.282051,4495.897435,4202.051282,4441.025641,4208.717948,4239.487179,4491.282051,4213.846153,4651.794871,4042.051282,4047.179487
120,4395.384615,4518.974358,4529.743589,4253.846153,4495.384615,4201.025641,4445.128205,4203.076923,4235.897435,4489.230769,4203.589743,4649.230769,4041.025641,4043.589743
121,4403.076923,4523.589743,4539.487179,4262.564102,4494.871794,4207.692307,4449.230769,4207.179487,4240.512820,4496.410256,4204.615384,4656.923076,4043.076923,4045.128205
122,4412.307692,4529.743589,4538.461538,4264.615384,4501.025641,4212.307692,4449.230769,4215.384615,4250.256410,4503.076923,4215.384615,4666.666666,4055.897435,4056.410256
123,4413.846153,4538.974358,4537.435897,4263.589743,4512.307692,4210.256410,4444.102564,4218.461538,4251.282051,4502.564102,4223.076923,4670.769230,4069.743589,4064.615384
124,4412.820512,4542.564102,4546.666666,4270.769230,4515.384615,4212.307692,4448.717948,4222.564102,4249.230769,4503.589743,4223.076923,4674.358974,4072.307692,4067.179487
125,4413.333333,4535.897435,4547.692307,4274.358974,4511.794871,4216.410256,4460.000000,4224.102564,4251.282051,4507.692307,4222.564102,4674.358974,4064.615384,4063.589743
126,4407.692307,4528.205128,4540.000000,4265.128205,4514.358974,4215.897435,4461.025641,4224.615384,4254.358974,4509.230769,4216.410256,4670.256410,4053.333333,4056.410256
127,4400.000000,4525.641025,4536.410256,4258.461538,4517.435897,4215.897435,4459.487179,4227.179487,4252.307692,4503.589743,4204.102564,4666.666666,4052.307692,4049.743589
128,4398.461538,4528.717948,4539.487179,4261.538461,4516.410256,4218.461538,4460.512820,4225.641025,4244.615384,4495.897435,4198.461538,4664.615384,4059.487179,4049.230769
129,4397.435897,4533.846153,4537.435897,4261.538461,4516.410256,4213.846153,4451.282051,4212.307692,4230.769230,4490.256410,4205.128205,4664.102564,4057.948717,4050.769230
130,4397.948717,4535.384615,4534.358974,4258.974358,4517.948717,4205.128205,4441.025641,4200.512820,4221.538461,4489.743589,4214.871794,4666.153846,4051.794871,4054.358974
131,4402.564102,4538.461538,4537.948717,4263.589743,4514.871794,4201.025641,4441.538461,4199.487179,4228.717948,4496.410256,4220.000000,4671.282051,4057.435897,4057.435897
132,4401.538461,4537.435897,4543.076923,4265.641025,4514.358974,4197.948717,4442.051282,4198.974358,4238.461538,4499.487179,4217.435897,4673.333333,4060.512820,4057.948717
133,4396.923076,4528.717948,4537.948717,4257.435897,4513.846153,4193.846153,4437.948717,4201.025641,4235.897435,4492.820512,4205.128205,4668.717948,4048.205128,4053.333333
134,4395.897435,4524.102564,4527.692307,4253.846153,4505.641025,4196.410256,4439.487179,4206.153846,4229.230769,4488.717948,4193.333333,4661.538461,4037.948717,4045.128205
135,4396.923076,4525.641025,4528.717948,4255.384615,4504.102564,4201.538461,4444.615384,4207.179487,4227.179487,4492.307692,4195.897435,4659.487179,4038.974358,4042.564102
136,4395.897435,4527.692307,4532.307692,4256.923076,4511.282051,4204.102564,4445.128205,4206.666666,4226.153846,4492.307692,4204.615384,4662.051282,4041.538461,4044.102564
137,4398.461538,4533.846153,4532.820512,4259.487179,4515.384615,4205.641025,4448.205128,4213.846153,4228.205128,4489.743589,4205.641025,4663.076923,4048.205128,4048.717948
138,4401.538461,4537.948717,4534.871794,4257.948717,4517.435897,4207.179487,4452.307692,4220.000000,4235.897435,4496.410256,4204.102564,4662.564102,4058.974358,4053.333333
139,4398.461538,4536.923076,4534.358974,4256.410256,4518.974358,4210.769230,4448.205128,4214.358974,4236.923076,4505.128205,4203.589743,4663.076923,4058.461538,4053.333333
140,4397.435897,4539.487179,4535.897435,4259.487179,4524.615384,4212.307692,4443.076923,4214.358974,4237.948717,4508.205128,4205.128205,4663.589743,4055.897435,4051.794871
141,4400.000000,4542.051282,4539.487179,4260.512820,4525.641025,4207.179487,4444.102564,4219.487179,4245.641025,4510.256410,4213.846153,4665.128205,4058.974358,4055.384615
142,4394.358974,4537.435897,4535.897435,4250.256410,4516.923076,4199.487179,4443.589743,4215.897435,4241.538461,4505.641025,4212.307692,4663.589743,4052.307692,4050.256410
143,4389.230769,4535.897435,4530.769230,4249.743589,4512.820512,4202.564102,4443.076923,4212.820512,4232.820512,4500.000000,4206.153846,4662.051282,4046.153846,4039.487179
144,4395.384615,4536.923076,4535.384615,4255.384615,4520.512820,4209.230769,4446.153846,4217.948717,4232.820512,4503.589743,4210.769230,4664.102564,4047.179487,4046.666666
145,4398.974358,4536.410256,4537.435897,4251.794871,4519.487179,4204.615384,4444.615384,4217.435897,4229.743589,4499.487179,4209.743589,4667.692307,4042.564102,4055.897435
146,4395.384615,4535.897435,4537.435897,4253.333333,4511.794871,4199.487179,4444.102564,4216.410256,4224.615384,4493.333333,4201.538461,4669.230769,4037.948717,4050.256410
147,4400.000000,4538.974358,4542.564102,4262.051282,4513.333333,4204.102564,4448.717948,4222.051282,4228.717948,4498.974358,4208.717948,4672.307692,4049.230769,4051.794871
148,4404.615384,4542.051282,4544.615384,4260.000000,4514.871794,4207.692307,4450.256410,4224.102564,4237.435897,4504.615384,4220.000000,4675.384615,4061.025641,4062.564102
149,4397.435897,4536.923076,4540.512820,4252.307692,4512.307692,4202.564102,4447.179487,4223.589743,4239.487179,4502.051282,4217.435897,4671.794871,4057.948717,4060.512820
150,4391.794871,4531.794871,4536.410256,4254.871794,4515.897435,4198.974358,4443.076923,4225.641025,4237.948717,4502.564102,4210.769230,4667.692307,4051.794871,4051.794871
151,4395.384615,4542.564102,4539.487179,4261.025641,4522.564102,4205.641025,4447.179487,4229.743589,4242.051282,4513.846153,4205.641025,4670.256410,4052.307692,4054.358974
152,4399.487179,4551.794871,4542.564102,4261.025641,4516.923076,4211.794871,4455.384615,4231.794871,4246.153846,4514.358974,4204.615384,4672.307692,4052.820512,4057.435897
153,4399.487179,4543.589743,4540.512820,4256.923076,4510.769230,4208.717948,4453.846153,4228.205128,4240.000000,4501.538461,4211.794871,4671.794871,4049.230769,4054.871794
154,4397.435897,4537.435897,4538.974358,4255.384615,4516.923076,4202.564102,4444.615384,4221.025641,4231.282051,4497.948717,4208.717948,4669.743589,4044.102564,4051.794871
155,4395.384615,4539.487179,4540.512820,4258.461538,4518.974358,4199.487179,4441.025641,4216.923076,4229.743589,4498.461538,4198.974358,4665.128205,4039.487179,4048.717948
156,4395.384615,4541.025641,4537.948717,4254.871794,4515.384615,4204.102564,4444.102564,4223.589743,4235.897435,4500.000000,4201.538461,4662.564102,4037.435897,4047.179487
157,4403.589743,4545.641025,4540.000000,4251.282051,4512.820512,4209.743589,4447.692307,4231.282051,4243.076923,4509.743589,4211.282051,4664.102564,4041.025641,4053.333333
158,4409.230769,4547.179487,4551.282051,4260.000000,4509.230769,4208.205128,4450.256410,4230.769230,4243.076923,4514.871794,4217.948717,4668.717948,4044.615384,4058.461538
159,4407.692307,4541.025641,4553.333333,4267.692307,4507.692307,4207.692307,4450.256410,4228.717948,4240.000000,4503.076923,4217.435897,4671.794871,4044.102564,4055.897435
160,4402.564102,4537.948717,4542.564102,4258.974358,4515.384615,4207.692307,4447.692307,4226.153846,4240.512820,4501.538461,4214.358974,4667.692307,4043.589743,4053.846153
161,4397.948717,4538.974358,4538.461538,4248.717948,4515.897435,4205.641025,4444.615384,4221.025641,4237.435897,4511.282051,4214.871794,4661.025641,4046.153846,4053.333333
162,4400.000000,4541.025641,4542.564102,4254.358974,4505.128205,4208.717948,4448.717948,4221.538461,4237.948717,4510.256410,4216.923076,4665.128205,4049.743589,4054.358974
163,4401.025641,4542.051282,4541.025641,4260.512820,4504.102564,4213.333333,4450.256410,4224.615384,4241.538461,4502.564102,4207.692307,4667.179487,4045.641025,4052.820512
164,4394.358974,4538.461538,4534.871794,4254.871794,4512.307692,4207.692307,4442.564102,4222.051282,4236.410256,4498.974358,4197.435897,4658.461538,4036.923076,4045.128205
165,4398.461538,4535.897435,4541.538461,4255.897435,4514.871794,4206.153846,4448.205128,4226.153846,4238.461538,4509.230769,4207.692307,4665.641025,4041.025641,4048.717948
166,4413.846153,4540.512820,4551.282051,4266.666666,4514.358974,4216.410256,4460.512820,4239.487179,4254.358974,4523.076923,4223.076923,4681.538461,4054.871794,4062.051282
167,4412.820512,4545.128205,4548.205128,4268.717948,4513.333333,4217.948717,4453.333333,4237.435897,4253.846153,4521.538461,4219.487179,4676.923076,4055.897435,4063.076923
168,4398.974358,4543.076923,4539.487179,4260.512820,4510.256410,4206.666666,4440.512820,4221.025641,4235.897435,4505.128205,4206.666666,4662.564102,4044.615384,4052.820512
169,4394.871794,4536.923076,4538.461538,4255.897435,4506.153846,4203.589743,4443.076923,4218.974358,4233.846153,4497.435897,4206.153846,4662.051282,4043.589743,4046.666666
170,4397.948717,4535.384615,4541.538461,4258.461538,4505.641025,4212.307692,4448.717948,4229.230769,4244.615384,4508.205128,4213.333333,4670.769230,4049.230769,4048.717948
171,4397.948717,4540.512820,4541.025641,4265.641025,4507.692307,4218.974358,4449.743589,4234.871794,4245.641025,4516.410256,4217.435897,4672.820512,4046.666666,4053.846153
172,4399.487179,4541.538461,4539.487179,4262.564102,4509.230769,4217.948717,4453.846153,4235.384615,4241.538461,4509.743589,4220.512820,4668.717948,4045.641025,4052.307692
173,4402.564102,4536.923076,4538.461538,4256.923076,4511.794871,4214.871794,4455.384615,4237.435897,4247.692307,4502.564102,4222.051282,4669.230769,4049.743589,4047.692307
174,4404.102564,4540.000000,4538.461538,4261.538461,4511.282051,4215.897435,4450.256410,4236.410256,4253.846153,4508.205128,4220.000000,4669.230769,4050.769230,4052.820512
175,4403.076923,4545.128205,4538.974358,4262.564102,4507.179487,4215.897435,4446.153846,4230.769230,4246.666666,4512.307692,4215.384615,4666.153846,4051.282051,4058.461538
176,4403.076923,4542.051282,4538.461538,4261.538461,4508.717948,4209.743589,4446.153846,4224.102564,4237.948717,4508.717948,4208.205128,4666.666666,4056.410256,4054.358974
177,4406.153846,4538.461538,4538.974358,4265.128205,4507.692307,4207.692307,4444.615384,4218.461538,4235.384615,4507.179487,4207.692307,4670.256410,4055.384615,4055.384615
178,4404.615384,4539.487179,4538.461538,4267.179487,4507.692307,4211.794871,4442.564102,4214.871794,4230.769230,4501.538461,4216.410256,4665.641025,4046.666666,4056.410256
179,4398.974358,4540.000000,4538.461538,4265.128205,4511.282051,4210.769230,4442.051282,4214.358974,4225.641025,4493.846153,4212.820512,4661.025641,4039.487179,4049.230769
180,4397.948717,4540.000000,4538.974358,4262.564102,4509.230769,4210.769230,4443.076923,4220.000000,4231.282051,4496.410256,4203.589743,4662.564102,4036.923076,4046.666666
181,4405.128205,4541.538461,4538.974358,4264.615384,4505.128205,4217.435897,4445.128205,4224.102564,4238.974358,4502.564102,4210.256410,4663.589743,4043.589743,4053.333333
182,4410.769230,4545.641025,4538.974358,4266.153846,4507.179487,4219.487179,4446.666666,4222.051282,4238.974358,4502.051282,4223.076923,4664.102564,4051.794871,4060.000000
183,4405.128205,4541.538461,4539.487179,4260.512820,4502.564102,4213.846153,4442.051282,4215.897435,4230.769230,4497.435897,4214.871794,4661.025641,4048.205128,4054.871794
184,4394.871794,4531.794871,4531.794871,4251.282051,4492.307692,4209.743589,4433.333333,4207.692307,4220.000000,4492.820512,4201.025641,4653.846153,4035.384615,4043.589743
185,4394.871794,4531.282051,4524.615384,4253.333333,4496.410256,4210.256410,4435.897435,4207.179487,4220.512820,4495.897435,4204.102564,4653.846153,4032.820512,4045.128205
186,4406.153846,4541.538461,4533.846153,4263.076923,4504.102564,4217.948717,4444.102564,4213.333333,4229.230769,4503.589743,4210.769230,4658.974358,4042.051282,4054.358974
187,4405.128205,4544.615384,4537.435897,4264.102564,4500.512820,4221.025641,4438.461538,4212.820512,4228.717948,4497.948717,4211.794871,4660.512820,4045.128205,4052.307692
188,4392.307692,4535.897435,4526.666666,4254.871794,4500.000000,4213.333333,4430.256410,4208.717948,4220.512820,4486.153846,4212.307692,4655.384615,4037.435897,4044.102564
189,4399.487179,4538.461538,4529.743589,4256.923076,4505.641025,4213.846153,4438.974358,4216.410256,4226.153846,4492.307692,4217.435897,4654.871794,4038.461538,4049.230769
190,4417.435897,4552.307692,4542.564102,4273.846153,4508.205128,4221.025641,4448.205128,4221.025641,4237.948717,4505.641025,4221.025641,4661.538461,4051.794871,4057.435897
191,4417.948717,4551.794871,4539.487179,4275.384615,4501.025641,4212.820512,4438.974358,4211.282051,4233.333333,4503.076923,4221.025641,4662.564102,4051.794871,4057.435897
192,4409.743589,4544.102564,4534.358974,4263.589743,4493.333333,4201.025641,4427.692307,4206.153846,4221.025641,4493.333333,4218.974358,4658.461538,4043.589743,4054.358974
193,4410.769230,4546.153846,4537.435897,4262.564102,4493.846153,4207.179487,4429.230769,4212.307692,4224.615384,4498.461538,4214.871794,4661.025641,4044.102564,4054.358974
194,4412.820512,4548.717948,4537.435897,4267.179487,4500.512820,4217.435897,4434.358974,4217.435897,4235.897435,4510.769230,4215.384615,4663.076923,4050.256410,4055.897435
195,4412.307692,4548.717948,4536.923076,4269.230769,4504.102564,4218.461538,4434.358974,4215.384615,4236.410256,4509.743589,4219.487179,4660.000000,4055.384615,4056.410256
196,4415.897435,4550.769230,4538.974358,4274.358974,4506.153846,4218.974358,4433.333333,4212.820512,4233.846153,4502.564102,4221.538461,4661.025641,4060.512820,4060.512820
197,4419.487179,4550.769230,4538.974358,4273.846153,4507.179487,4219.487179,4431.794871,4212.820512,4234.871794,4504.615384,4217.435897,4665.641025,4063.076923,4065.128205
198,4416.410256,4548.205128,4539.487179,4266.153846,4504.615384,4215.897435,4429.230769,4211.794871,4230.769230,4504.615384,4216.410256,4664.102564,4055.897435,4058.974358
199,4408.717948,4542.051282,4533.846153,4262.051282,4505.641025,4215.384615,4428.205128,4205.641025,4223.076923,4494.871794,4221.538461,4658.974358,4042.564102,4046.666666
200,4405.641025,4538.974358,4526.153846,4265.128205,4506.666666,4214.871794,4429.743589,4204.615384,4222.051282,4494.358974,4221.538461,4655.897435,4041.025641,4045.128205
201,4410.769230,4549.230769,4530.256410,4270.256410,4500.000000,4216.410256,4429.743589,4211.794871,4227.692307,4504.102564,4214.358974,4658.974358,4050.256410,4055.897435
202,4415.897435,4558.461538,4537.948717,4271.794871,4496.923076,4219.487179,4430.256410,4216.923076,4230.769230,4500.512820,4212.307692,4663.076923,4050.769230,4058.974358
203,4414.358974,4553.846153,4537.435897,4269.743589,4501.025641,4217.435897,4433.846153,4216.410256,4228.717948,4493.846153,4213.333333,4661.025641,4045.128205,4055.384615
204,4411.282051,4547.179487,4535.897435,4264.615384,4505.128205,4216.923076,4434.358974,4211.282051,4223.589743,4498.461538,4213.846153,4656.923076,4044.615384,4051.282051
205,4412.820512,4546.666666,4534.871794,4264.615384,4507.692307,4218.974358,4430.769230,4209.743589,4223.589743,4505.641025,4222.051282,4657.948717,4043.076923,4049.743589
206,4413.333333,4547.179487,4536.923076,4271.794871,4503.589743,4215.897435,4428.205128,4211.794871,4228.717948,4501.538461,4226.666666,4663.589743,4042.564102,4052.307692
207,4411.794871,4550.256410,4536.923076,4275.384615,4495.384615,4212.820512,4427.179487,4209.743589,4226.666666,4496.923076,4218.461538,4662.564102,4050.256410,4055.384615
208,4413.846153,4552.820512,4529.743589,4270.256410,4496.410256,4214.358974,4425.128205,4201.025641,4216.923076,4494.871794,4215.897435,4654.358974,4049.230769,4053.846153
209,4415.897435,4547.692307,4529.743589,4269.743589,4501.025641,4212.307692,4425.641025,4198.974358,4214.871794,4493.846153,4221.025641,4652.820512,4041.025641,4052.307692
210,4414.358974,4541.538461,4532.820512,4268.717948,4494.871794,4210.256410,4428.717948,4204.102564,4225.128205,4498.461538,4216.410256,4654.871794,4041.538461,4051.282051
211,4412.820512,4543.076923,4531.282051,4261.538461,4486.153846,4214.358974,4428.205128,4209.230769,4229.230769,4498.461538,4209.230769,4651.794871,4042.051282,4046.666666
212,4415.384615,4544.102564,4530.769230,4262.564102,4488.717948,4218.974358,4429.743589,4216.410256,4222.564102,4495.897435,4216.410256,4652.820512,4036.410256,4046.666666
213,4415.384615,4537.948717,4530.256410,4266.153846,4492.307692,4219.487179,4434.358974,4218.974358,4220.512820,4500.000000,4220.000000,4659.487179,4035.897435,4050.256410
214,4407.692307,4534.358974,4525.128205,4260.000000,4486.153846,4214.358974,4432.820512,4210.256410,4219.487179,4494.871794,4209.230769,4656.923076,4032.307692,4043.589743
215,4406.666666,4537.948717,4528.717948,4259.487179,4483.076923,4209.230769,4427.179487,4204.102564,4212.820512,4483.076923,4204.102564,4652.307692,4024.102564,4037.948717
216,4415.384615,4543.589743,4536.923076,4268.717948,4490.256410,4210.769230,4426.153846,4203.589743,4206.153846,4486.153846,4210.769230,4660.000000,4029.230769,4047.179487
217,4420.000000,4545.641025,4537.948717,4272.820512,4494.871794,4215.897435,4428.717948,4204.102564,4214.871794,4499.487179,4216.410256,4664.615384,4043.076923,4056.923076
218,4414.358974,4540.512820,4536.410256,4266.153846,4491.794871,4217.948717,4428.717948,4206.153846,4226.153846,4502.051282,4216.410256,4657.948717,4042.051282,4051.282051
219,4409.743589,4535.384615,4526.666666,4260.512820,4489.230769,4214.871794,4426.153846,4205.641025,4223.076923,4497.948717,4214.871794,4650.769230,4035.384615,4041.538461
220,4412.307692,4540.512820,4518.461538,4261.538461,4489.230769,4217.435897,4426.666666,4206.153846,4222.051282,4498.974358,4214.358974,4652.307692,4043.076923,4044.615384
221,4413.333333,4545.641025,4528.717948,4264.615384,4490.256410,4224.615384,4434.871794,4214.358974,4227.179487,4501.538461,4217.948717,4659.487179,4052.820512,4053.846153
222,4412.820512,4541.025641,4538.974358,4266.153846,4489.743589,4223.076923,4439.487179,4220.000000,4226.153846,4501.538461,4222.051282,4664.615384,4050.256410,4056.923076
223,4420.512820,4543.076923,4537.948717,4271.282051,4495.384615,4222.564102,4437.948717,4217.948717,4224.102564,4502.051282,4221.025641,4664.615384,4044.615384,4054.871794
224,4426.153846,4553.846153,4538.974358,4273.846153,4503.589743,4227.692307,4441.025641,4217.948717,4228.717948,4506.153846,4216.410256,4664.615384,4046.153846,4053.333333
225,4416.410256,4549.230769,4536.410256,4266.153846,4500.512820,4228.205128,4441.025641,4212.307692,4223.589743,4501.538461,4211.794871,4660.512820,4046.153846,4049.743589
226,4407.179487,4533.333333,4525.128205,4256.410256,4496.410256,4224.102564,4436.923076,4198.461538,4209.743589,4489.743589,4212.820512,4651.794871,4042.564102,4045.641025
227,4410.769230,4535.384615,4525.128205,4260.512820,4506.666666,4224.615384,4439.487179,4198.461538,4211.794871,4487.179487,4211.282051,4650.256410,4042.564102,4047.692307
228,4411.794871,4543.076923,4532.820512,4264.615384,4511.794871,4226.666666,4443.589743,4207.179487,4222.564102,4485.128205,4209.743589,4655.384615,4043.589743,4048.717948
229,4407.692307,4538.974358,4533.846153,4261.025641,4506.666666,4224.615384,4442.564102,4212.820512,4228.717948,4485.128205,4211.282051,4661.025641,4047.692307,4046.666666
230,4410.256410,4537.948717,4536.410256,4264.102564,4507.692307,4221.025641,4443.589743,4221.538461,4232.820512,4496.410256,4210.256410,4667.692307,4055.384615,4050.256410
231,4412.820512,4546.153846,4540.000000,4265.641025,4509.743589,4216.410256,4444.102564,4227.692307,4234.358974,4506.666666,4210.769230,4669.230769,4056.410256,4056.410256
232,4411.794871,4550.769230,4537.435897,4261.025641,4506.666666,4215.384615,4441.538461,4215.897435,4231.282051,4503.076923,4218.974358,4666.666666,4052.307692,4056.923076
233,4410.769230,4549.743589,4536.923076,4258.974358,4509.230769,4216.410256,4441.025641,4206.153846,4227.692307,4500.000000,4226.666666,4668.717948,4057.948717,4058.974358
234,4411.794871,4547.692307,4540.000000,4264.102564,4516.410256,4217.435897,4443.076923,4213.333333,4227.179487,4504.615384,4225.641025,4671.794871,4067.179487,4063.589743
235,4414.358974,4548.205128,4542.051282,4264.102564,4515.897435,4223.589743,4448.205128,4214.358974,4225.641025,4502.051282,4225.128205,4672.307692,4066.153846,4065.641025
236,4409.230769,4545.641025,4535.384615,4258.461538,4507.692307,4218.974358,4445.128205,4207.692307,4223.589743,4493.333333,4215.897435,4668.717948,4058.461538,4061.025641
237,4397.435897,4538.461538,4524.615384,4254.871794,4502.051282,4206.153846,4435.384615,4206.666666,4220.512820,4490.769230,4200.512820,4660.512820,4056.410256,4053.333333
238,4398.461538,4540.512820,4528.717948,4258.974358,4506.666666,4205.128205,4436.410256,4212.820512,4222.564102,4493.846153,4204.615384,4660.000000,4056.410256,4054.871794
239,4404.615384,4548.717948,4541.538461,4264.102564,4517.948717,4214.358974,4445.128205,4216.410256,4228.205128,4495.384615,4215.897435,4667.692307,4050.769230,4056.410256
240,4398.461538,4547.179487,4537.948717,4259.487179,4521.025641,4217.435897,4445.128205,4212.307692,4224.102564,4495.384615,4209.230769,4664.102564,4042.051282,4048.717948
241,4397.435897,4537.435897,4524.615384,4252.307692,4514.358974,4214.358974,4440.512820,4207.692307,4219.487179,4490.769230,4195.384615,4653.333333,4040.512820,4042.051282
242,4410.769230,4536.410256,4527.179487,4248.205128,4509.230769,4211.282051,4441.025641,4212.307692,4222.564102,4486.153846,4195.384615,4656.923076,4046.153846,4044.102564
243,4420.512820,4539.487179,4537.435897,4250.769230,4510.256410,4212.307692,4442.564102,4219.487179,4227.692307,4492.820512,4205.128205,4666.666666,4046.666666,4047.692307
244,4423.589743,4536.410256,4538.461538,4257.435897,4513.846153,4214.358974,4443.076923,4218.974358,4231.282051,4501.538461,4214.871794,4666.153846,4044.615384,4050.769230
245,4427.692307,4539.487179,4536.923076,4256.410256,4517.435897,4210.256410,4443.589743,4220.000000,4239.487179,4506.666666,4223.589743,4666.666666,4054.358974,4057.948717
246,4427.179487,4542.564102,4537.435897,4251.794871,4518.461538,4207.692307,4441.538461,4220.000000,4241.538461,4505.128205,4223.076923,4669.230769,4059.487179,4060.000000
247,4424.615384,4537.435897,4537.435897,4255.897435,4521.538461,4214.358974,4442.051282,4214.358974,4235.384615,4501.025641,4210.256410,4665.128205,4048.717948,4056.410256
248,4427.179487,4542.564102,4536.923076,4264.102564,4524.615384,4220.512820,4446.153846,4218.461538,4234.871794,4505.641025,4207.179487,4665.641025,4048.717948,4058.974358
249,4429.743589,4552.820512,4539.487179,4262.564102,4523.076923,4216.923076,4444.615384,4225.641025,4241.538461,4516.410256,4218.974358,4673.333333,4066.666666,4068.205128
250,4430.256410,4549.743589,4544.615384,4262.051282,4522.051282,4216.410256,4443.589743,4225.128205,4249.743589,4523.589743,4226.666666,4674.871794,4075.384615,4071.282051
251,4430.769230,4548.717948,4547.179487,4267.179487,4524.102564,4222.564102,4448.205128,4225.641025,4250.769230,4525.128205,4229.743589,4675.897435,4071.794871,4071.282051
252,4429.230769,4555.384615,4545.128205,4269.230769,4525.128205,4222.564102,4450.256410,4230.256410,4245.128205,4520.512820,4231.794871,4680.512820,4069.230769,4072.307692
253,4421.025641,4547.179487,4536.923076,4267.179487,4520.000000,4216.410256,4445.128205,4226.666666,4238.461538,4509.743589,4224.615384,4674.358974,4065.128205,4064.615384
254,4408.205128,4533.846153,4525.128205,4258.461538,4508.717948,4211.282051,4443.076923,4215.897435,4227.692307,4500.512820,4212.820512,4660.000000,4049.743589,4049.230769
255,4402.564102,4532.307692,4523.589743,4249.743589,4504.102564,4208.205128,4445.128205,4213.846153,4225.128205,4497.435897,4206.666666,4655.384615,4035.897435,4041.538461
256,4406.666666,4533.333333,4531.282051,4252.820512,4512.820512,4210.769230,4446.153846,4224.615384,4235.897435,4498.974358,4205.128205,4660.512820,4041.025641,4047.179487
257,4411.794871,4534.871794,4534.358974,4263.076923,4521.025641,4213.333333,4445.128205,4228.717948,4242.051282,4504.102564,4210.769230,4667.692307,4050.256410,4052.307692
258,4412.820512,4538.974358,4533.846153,4265.641025,4515.384615,4207.179487,4443.076923,4222.564102,4237.435897,4510.256410,4218.974358,4667.692307,4046.666666,4054.358974
259,4415.897435,4538.974358,4537.435897,4262.051282,4505.641025,4205.128205,4441.025641,4221.025641,4235.897435,4506.153846,4217.435897,4663.589743,4041.538461,4054.871794
