,AF3,F7,F3,FC5,T7,P7,O1,O2,P8,T8,FC6,F4,F8,AF4
0,4387.692307,4542.051282,4553.333333,4277.948717,4493.333333,4216.923076,4443.076923,4067.179487,4226.153846,4515.384615,4156.923076,4607.692307,3849.230770,4001.025641
1,4382.564102,4533.846153,4551.794871,4269.743589,4493.846153,4216.410256,4441.025641,4064.615384,4227.692307,4514.871794,4161.025641,4606.153846,3842.564103,3993.846154
2,4378.461538,4523.589743,4552.307692,4265.128205,4491.794871,4215.384615,4436.923076,4063.589743,4226.153846,4516.410256,4157.948717,4604.102564,3832.820513,3988.717949
3,4378.461538,4531.794871,4550.769230,4272.820512,4493.846153,4213.333333,4428.205128,4055.384615,4218.974358,4511.282051,4153.333333,4603.076923,3833.333334,3987.692308
4,4377.948717,4543.589743,4546.666666,4280.512820,4496.923076,4213.333333,4426.153846,4048.717948,4210.769230,4503.589743,4149.230769,4601.538461,3833.846154,3986.666667
5,4376.923076,4541.025641,4549.743589,4280.512820,4496.923076,4216.923076,4430.256410,4055.384615,4210.256410,4499.487179,4146.666666,4602.051282,3830.769231,3990.256411
6,4380.512820,4537.435897,4555.897435,4278.974358,4501.025641,4220.000000,4431.282051,4062.564102,4214.358974,4500.512820,4148.717948,4606.153846,3831.794872,3992.307693
7,4380.512820,4540.512820,4554.358974,4278.974358,4501.538461,4217.948717,4431.282051,4058.461538,4218.974358,4508.205128,4151.794871,4607.179487,3833.333334,3990.256411
8,4379.487179,4541.025641,4551.794871,4279.487179,4497.948717,4216.923076,4430.769230,4059.487179,4220.512820,4513.846153,4156.410256,4608.205128,3835.897436,3991.282052
9,4383.589743,4542.051282,4555.384615,4282.564102,4499.487179,4218.461538,4430.769230,4068.717948,4219.487179,4514.358974,4162.564102,4610.256410,3841.025642,3996.923077
10,4376.410256,4536.923076,4551.282051,4276.923076,4497.435897,4213.846153,4429.230769,4064.102564,4215.897435,4506.153846,4154.358974,4604.615384,3837.435898,3990.256411
11,4367.179487,4531.282051,4540.512820,4267.692307,4488.717948,4210.769230,4424.102564,4052.307692,4208.205128,4491.282051,4142.051282,4598.461538,3829.230770,3981.025642
12,4368.205128,4529.743589,4538.461538,4268.205128,4486.666666,4212.307692,4423.076923,4055.897435,4207.179487,4487.179487,4148.205128,4596.923076,3826.666667,3979.487180
13,4368.205128,4528.717948,4538.974358,4269.743589,4490.769230,4213.846153,4429.230769,4070.256410,4213.846153,4500.512820,4156.410256,4597.435897,3827.692308,3982.564103
14,4368.205128,4531.794871,4543.076923,4270.256410,4488.205128,4213.333333,4429.230769,4075.897435,4217.948717,4511.794871,4151.282051,4601.025641,3829.743590,3983.589744
15,4369.230769,4532.307692,4548.205128,4269.230769,4488.717948,4214.358974,4424.102564,4068.717948,4214.358974,4502.051282,4142.051282,4603.589743,3830.256411,3980.000000
16,4368.205128,4526.153846,4543.589743,4266.153846,4490.769230,4216.410256,4426.153846,4065.641025,4209.230769,4490.769230,4140.000000,4602.051282,3828.717949,3980.512821
17,4367.179487,4521.025641,4539.487179,4262.564102,4485.128205,4212.820512,4431.282051,4072.820512,4213.846153,4500.512820,4143.076923,4601.025641,3825.641026,3980.512821
18,4368.717948,4522.564102,4545.128205,4263.589743,4478.974358,4210.769230,4430.256410,4078.974358,4222.051282,4509.743589,4145.128205,4602.564102,3824.615385,3977.435898
19,4369.743589,4527.179487,4549.230769,4267.179487,4484.102564,4213.846153,4429.743589,4075.384615,4218.974358,4503.076923,4145.641025,4603.076923,3826.666667,3980.512821
20,4372.307692,4534.871794,4549.230769,4272.307692,4492.820512,4218.461538,4430.769230,4072.820512,4211.794871,4502.051282,4145.641025,4604.102564,3831.282052,3990.256411
21,4378.461538,4541.025641,4552.820512,4277.948717,4494.871794,4218.461538,4430.769230,4076.410256,4221.538461,4508.717948,4146.153846,4608.205128,3840.512821,3995.897436
22,4382.564102,4538.974358,4556.923076,4278.461538,4495.897435,4216.410256,4430.256410,4077.948717,4229.230769,4507.179487,4151.282051,4613.846153,3847.179488,3995.897436
23,4383.076923,4538.461538,4556.410256,4279.487179,4495.897435,4216.923076,4427.179487,4076.410256,4223.589743,4509.230769,4156.923076,4614.358974,3849.743590,4000.000000
24,4386.666666,4545.641025,4558.461538,4286.666666,4492.820512,4217.948717,4426.666666,4077.435897,4223.589743,4521.538461,4156.923076,4615.384615,3854.871795,4005.128205
25,4389.230769,4550.769230,4563.076923,4290.769230,4492.307692,4218.461538,4437.435897,4078.974358,4227.179487,4526.153846,4161.025641,4622.051282,3861.025642,4008.717948
26,4385.128205,4544.615384,4561.025641,4283.076923,4493.846153,4216.410256,4436.410256,4075.897435,4220.000000,4514.358974,4159.487179,4617.948717,3852.820513,4003.076923
27,4382.051282,4538.974358,4555.897435,4279.487179,4490.256410,4213.333333,4424.615384,4070.256410,4211.794871,4502.564102,4148.205128,4609.230769,3841.025642,3998.461539
28,4389.230769,4548.717948,4562.051282,4289.743589,4493.333333,4218.461538,4431.282051,4076.410256,4217.948717,4506.666666,4153.333333,4616.410256,3851.282052,4003.589743
29,4394.871794,4558.461538,4570.769230,4297.948717,4504.102564,4226.153846,4446.666666,4090.256410,4230.256410,4518.974358,4169.230769,4626.666666,3866.153847,4008.205128
30,4390.769230,4555.897435,4564.102564,4291.794871,4500.512820,4222.564102,4443.076923,4087.179487,4227.179487,4518.461538,4166.666666,4620.000000,3858.974359,4003.589743
31,4388.717948,4552.820512,4555.384615,4287.179487,4495.384615,4215.384615,4436.410256,4076.923076,4218.461538,4509.743589,4154.358974,4616.410256,3849.743590,3999.487180
32,4391.794871,4551.794871,4561.538461,4290.769230,4502.564102,4217.435897,4443.589743,4084.102564,4225.641025,4511.794871,4157.435897,4628.717948,3857.948718,4004.102564
33,4390.256410,4547.692307,4567.692307,4288.205128,4499.487179,4220.000000,4445.641025,4092.820512,4230.769230,4514.871794,4163.589743,4628.717948,3858.974359,4009.230769
34,4383.589743,4546.153846,4560.512820,4280.000000,4492.820512,4218.461538,4440.000000,4083.589743,4218.461538,4507.692307,4155.897435,4615.384615,3846.153847,4004.615384
35,4381.025641,4544.615384,4551.282051,4279.487179,4495.897435,4217.435897,4439.487179,4078.974358,4212.307692,4499.487179,4151.282051,4613.333333,3845.641026,3994.358975
36,4385.641025,4541.025641,4554.358974,4282.564102,4501.025641,4219.487179,4441.025641,4086.153846,4219.487179,4500.512820,4154.871794,4616.923076,3847.179488,3995.384616
37,4392.307692,4541.538461,4557.948717,4280.512820,4499.487179,4222.564102,4443.589743,4089.230769,4223.589743,4503.589743,4153.846153,4611.282051,3835.897436,4000.512820
38,4392.820512,4543.589743,4554.871794,4278.974358,4497.948717,4222.051282,4443.589743,4089.230769,4225.128205,4507.692307,4152.820512,4610.256410,3830.769231,3994.871795
39,4387.692307,4540.512820,4552.820512,4280.000000,4497.435897,4217.948717,4440.000000,4089.743589,4228.205128,4516.923076,4156.410256,4613.846153,3832.820513,3994.358975
40,4387.179487,4539.487179,4551.794871,4276.410256,4497.435897,4217.435897,4437.435897,4088.717948,4224.102564,4512.820512,4152.307692,4608.205128,3824.102565,4001.025641
41,4389.743589,4540.000000,4549.230769,4271.282051,4493.333333,4218.461538,4435.897435,4089.230769,4216.923076,4500.000000,4143.076923,4605.641025,3813.846154,3996.923077
42,4389.230769,4537.948717,4543.076923,4269.230769,4487.692307,4218.461538,4435.897435,4092.307692,4217.435897,4502.564102,4139.487179,4609.743589,3815.897436,3989.230770
43,4387.179487,4535.897435,4538.461538,4268.205128,4492.307692,4218.974358,4435.897435,4094.871794,4223.076923,4508.717948,4141.025641,4605.128205,3813.333334,3990.769231
44,4385.641025,4534.871794,4538.974358,4265.641025,4494.358974,4215.897435,4430.256410,4091.282051,4220.000000,4500.000000,4138.461538,4597.948717,3808.205129,3989.743590
45,4387.179487,4535.897435,4541.538461,4264.102564,4489.230769,4213.333333,4430.256410,4089.230769,4208.205128,4492.820512,4136.923076,4602.564102,3810.256411,3988.205129
46,4389.230769,4538.461538,4540.512820,4265.128205,4491.282051,4216.410256,4435.384615,4091.794871,4208.205128,4497.435897,4141.025641,4608.205128,3809.230770,3992.820513
47,4388.205128,4538.461538,4540.000000,4264.615384,4491.794871,4215.897435,4436.923076,4091.794871,4213.846153,4499.487179,4143.076923,4608.205128,3807.179488,3992.820513
48,4388.717948,4536.923076,4544.102564,4264.102564,4489.230769,4214.871794,4437.948717,4090.769230,4209.743589,4495.384615,4139.487179,4611.282051,3814.871795,3991.794872
49,4388.717948,4540.512820,4542.051282,4266.666666,4495.384615,4217.435897,4438.974358,4093.846153,4204.102564,4496.410256,4138.461538,4609.230769,3819.487180,3992.307693
50,4386.666666,4546.666666,4538.974358,4264.615384,4499.487179,4216.410256,4435.384615,4094.358974,4207.692307,4500.000000,4138.461538,4604.102564,3813.846154,3988.717949
51,4389.743589,4551.794871,4540.512820,4263.589743,4496.410256,4216.410256,4437.948717,4092.307692,4208.205128,4498.974358,4138.974358,4607.179487,3815.384616,3988.717949
52,4396.410256,4555.384615,4543.076923,4269.743589,4499.487179,4220.000000,4444.102564,4094.358974,4202.564102,4494.871794,4142.564102,4610.256410,3821.538462,3994.358975
53,4395.384615,4550.256410,4547.179487,4271.794871,4500.512820,4217.948717,4440.000000,4093.846153,4198.974358,4494.358974,4140.000000,4605.641025,3821.025642,3995.384616
54,4391.282051,4543.589743,4547.692307,4266.153846,4493.846153,4214.358974,4439.487179,4094.871794,4204.615384,4498.974358,4134.871794,4604.102564,3816.923077,3990.769231
55,4390.256410,4544.102564,4545.128205,4265.641025,4493.846153,4217.435897,4443.589743,4102.564102,4211.794871,4501.025641,4136.410256,4606.153846,3813.846154,3989.230770
56,4390.256410,4546.153846,4548.205128,4269.230769,4496.923076,4218.974358,4441.538461,4108.717948,4211.794871,4498.974358,4140.000000,4605.128205,3816.410257,3991.794872
57,4390.256410,4543.076923,4545.641025,4266.153846,4492.307692,4216.410256,4441.025641,4114.871794,4210.769230,4493.846153,4138.974358,4602.051282,3818.461539,3991.794872
58,4385.641025,4535.384615,4538.461538,4260.512820,4490.256410,4214.871794,4440.512820,4116.410256,4209.743589,4491.282051,4136.410256,4596.923076,3815.384616,3985.128206
59,4382.051282,4531.282051,4542.051282,4260.512820,4492.820512,4214.871794,4440.000000,4112.307692,4203.076923,4491.794871,4135.384615,4595.897435,3812.307693,3984.102565
60,4385.128205,4536.410256,4548.717948,4263.076923,4492.307692,4216.923076,4441.538461,4113.333333,4204.102564,4491.794871,4138.461538,4603.076923,3814.871795,3988.717949
61,4384.615384,4537.948717,4544.102564,4261.538461,4490.769230,4214.358974,4442.564102,4118.461538,4215.897435,4494.358974,4140.512820,4606.153846,3815.897436,3985.128206
62,4378.461538,4529.230769,4538.974358,4256.410256,4488.205128,4210.769230,4440.512820,4117.435897,4216.923076,4499.487179,4139.487179,4603.076923,3812.307693,3980.000000
63,4378.974358,4529.230769,4545.128205,4259.487179,4487.692307,4212.820512,4442.051282,4118.974358,4212.820512,4507.179487,4142.051282,4608.205128,3814.358975,3985.641026
64,4383.076923,4537.948717,4549.743589,4264.102564,4490.769230,4216.410256,4449.743589,4125.128205,4217.435897,4509.230769,4144.102564,4613.846153,3818.461539,3990.256411
65,4382.051282,4536.923076,4547.692307,4263.589743,4492.820512,4216.410256,4451.282051,4125.641025,4220.000000,4506.153846,4141.538461,4610.256410,3815.897436,3987.179488
66,4381.538461,4535.384615,4544.615384,4264.102564,4492.820512,4216.410256,4446.153846,4121.538461,4216.410256,4507.692307,4138.461538,4604.102564,3815.897436,3984.615385
67,4384.102564,4538.974358,4544.102564,4265.128205,4492.307692,4215.897435,4443.589743,4116.923076,4206.666666,4507.179487,4141.538461,4602.051282,3818.974359,3987.179488
68,4381.538461,4540.000000,4544.615384,4264.102564,4493.846153,4215.897435,4444.615384,4111.282051,4201.025641,4501.538461,4146.153846,4601.538461,3818.461539,3987.692308
69,4375.384615,4539.487179,4542.564102,4264.102564,4493.333333,4215.897435,4440.512820,4109.230769,4203.076923,4494.871794,4144.102564,4601.538461,3814.871795,3981.025642
70,4374.871794,4537.435897,4540.512820,4262.051282,4488.717948,4212.820512,4434.871794,4109.743589,4200.512820,4488.717948,4137.948717,4602.564102,3814.871795,3977.435898
71,4380.512820,4536.410256,4537.948717,4260.512820,4489.230769,4212.820512,4438.461538,4113.846153,4195.897435,4487.692307,4134.871794,4603.589743,3814.871795,3985.128206
72,4381.538461,4536.923076,4539.487179,4265.128205,4494.358974,4217.435897,4437.948717,4117.948717,4202.051282,4492.820512,4141.538461,4603.076923,3816.410257,3988.717949
73,4376.923076,4535.384615,4541.025641,4263.589743,4489.743589,4212.820512,4433.846153,4121.025641,4213.333333,4501.025641,4148.205128,4603.589743,3825.128206,3984.615385
74,4379.487179,4534.358974,4538.461538,4251.794871,4482.564102,4204.615384,4434.871794,4122.564102,4218.974358,4508.205128,4147.692307,4606.153846,3832.820513,3986.666667
75,4380.512820,4536.923076,4538.974358,4251.282051,4487.692307,4210.256410,4431.794871,4121.025641,4216.410256,4509.230769,4141.025641,4605.128205,3833.333334,3988.205129
76,4374.358974,4536.410256,4538.974358,4261.025641,4488.717948,4214.871794,4427.692307,4121.025641,4206.153846,4500.000000,4131.282051,4601.025641,3827.692308,3984.615385
77,4373.846153,4531.794871,4540.000000,4263.076923,4481.538461,4209.230769,4433.846153,4124.102564,4204.615384,4494.358974,4132.820512,4603.076923,3825.641026,3985.641026
78,4381.025641,4534.358974,4545.641025,4259.487179,4484.615384,4210.769230,4442.051282,4123.589743,4212.307692,4501.538461,4146.666666,4609.743589,3832.307693,3986.666667
79,4383.589743,4538.974358,4550.769230,4260.512820,4491.282051,4218.461538,4442.051282,4123.589743,4212.307692,4509.743589,4156.923076,4614.358974,3837.435898,3989.743590
80,4379.487179,4538.974358,4546.666666,4264.615384,4491.794871,4218.974358,4437.948717,4123.589743,4208.205128,4503.589743,4151.282051,4613.333333,3834.871795,3991.282052
81,4374.871794,4532.307692,4540.000000,4261.538461,4486.666666,4212.820512,4436.923076,4121.538461,4202.051282,4490.769230,4138.974358,4607.179487,3829.230770,3981.025642
82,4371.282051,4527.179487,4539.487179,4254.871794,4482.564102,4209.743589,4434.358974,4119.487179,4202.051282,4490.769230,4135.897435,4602.564102,3827.179488,3976.410257
83,4371.794871,4528.205128,4541.538461,4254.358974,4483.076923,4210.769230,4431.794871,4120.512820,4210.256410,4498.974358,4140.512820,4605.641025,3827.692308,3980.512821
84,4373.846153,4530.256410,4542.051282,4255.384615,4486.153846,4213.333333,4435.384615,4121.025641,4209.743589,4495.897435,4142.051282,4611.282051,3831.794872,3979.487180
85,4373.333333,4529.743589,4541.538461,4253.846153,4488.717948,4213.846153,4436.923076,4120.000000,4202.051282,4492.307692,4143.076923,4607.692307,3835.384616,3981.025642
86,4372.307692,4524.615384,4540.000000,4251.794871,4486.153846,4209.230769,4433.333333,4121.025641,4203.076923,4497.948717,4144.615384,4605.128205,3831.794872,3988.205129
87,4370.769230,4522.564102,4537.948717,4250.769230,4480.512820,4205.128205,4433.333333,4121.538461,4206.666666,4500.000000,4142.051282,4608.717948,3830.769231,3987.692308
88,4374.358974,4529.230769,4538.974358,4255.384615,4481.025641,4208.717948,4440.000000,4127.179487,4207.692307,4497.948717,4145.641025,4608.717948,3837.435898,3983.589744
89,4379.487179,4535.384615,4545.641025,4263.076923,4487.179487,4213.846153,4441.025641,4136.923076,4216.410256,4505.641025,4154.358974,4608.205128,3844.102565,3987.179488
90,4381.538461,4536.410256,4551.282051,4266.153846,4489.230769,4211.282051,4435.384615,4138.974358,4215.897435,4509.230769,4160.000000,4612.307692,3846.153847,3992.307693
91,4381.025641,4536.410256,4550.769230,4262.051282,4487.692307,4211.794871,4434.358974,4135.384615,4210.769230,4502.051282,4161.538461,4616.410256,3846.666667,3995.384616
92,4383.076923,4541.025641,4552.820512,4264.615384,4491.794871,4218.974358,4438.974358,4137.435897,4225.128205,4504.102564,4162.564102,4616.410256,3850.769231,3999.487180
93,4388.717948,4544.102564,4557.435897,4273.333333,4495.897435,4219.487179,4444.102564,4142.051282,4239.487179,4518.974358,4165.128205,4619.487179,3859.487180,4000.512820
94,4390.256410,4540.512820,4556.410256,4271.794871,4494.871794,4215.897435,4442.051282,4139.487179,4230.256410,4526.153846,4166.666666,4620.000000,3860.000000,3995.897436
95,4384.615384,4537.948717,4550.769230,4264.615384,4492.307692,4217.435897,4438.461538,4136.923076,4215.384615,4517.435897,4160.000000,4613.333333,3850.769231,3989.743590
96,4373.333333,4533.846153,4543.589743,4258.461538,4490.769230,4215.384615,4434.358974,4136.923076,4212.820512,4504.615384,4149.230769,4607.179487,3842.564103,3984.102565
97,4366.153846,4526.666666,4537.435897,4255.384615,4488.205128,4206.666666,4427.179487,4132.307692,4209.230769,4496.923076,4146.153846,4602.564102,3839.487180,3977.948718
98,4372.307692,4528.717948,4538.974358,4256.923076,4484.615384,4205.128205,4426.153846,4128.717948,4203.589743,4497.948717,4149.743589,4601.025641,3840.512821,3981.025642
99,4380.000000,4535.897435,4545.641025,4262.564102,4487.692307,4213.333333,4430.769230,4131.794871,4207.179487,4501.025641,4153.333333,4605.128205,3845.128206,3990.769231
100,4379.487179,4530.769230,4550.256410,4262.051282,4491.282051,4216.923076,4438.461538,4137.435897,4219.487179,4506.153846,4155.384615,4614.358974,3848.717949,3991.794872
101,4380.512820,4530.256410,4553.333333,4263.076923,4489.743589,4214.871794,4444.615384,4140.512820,4230.256410,4515.384615,4158.974358,4620.512820,3852.820513,3992.820513
102,4385.128205,4543.589743,4554.358974,4273.333333,4491.794871,4217.435897,4441.025641,4141.025641,4229.230769,4516.410256,4161.538461,4617.948717,3856.410257,3998.974359
103,4383.589743,4542.051282,4553.333333,4277.435897,4492.307692,4217.948717,4431.282051,4137.435897,4218.974358,4512.820512,4156.923076,4612.307692,3851.282052,3994.871795
104,4381.025641,4535.384615,4555.897435,4272.307692,4489.743589,4209.230769,4428.717948,4135.897435,4214.871794,4513.846153,4156.410256,4614.358974,3845.641026,3989.230770
105,4382.051282,4542.564102,4552.307692,4267.692307,4491.282051,4205.128205,4430.256410,4135.897435,4222.564102,4518.461538,4159.487179,4615.384615,3850.769231,3990.256411
106,4378.461538,4537.435897,4545.128205,4264.102564,4490.769230,4206.666666,4429.743589,4133.846153,4225.641025,4514.871794,4156.923076,4607.692307,3854.358975,3988.205129
107,4373.846153,4526.153846,4545.641025,4265.128205,4486.153846,4205.128205,4429.743589,4134.358974,4218.974358,4507.179487,4155.384615,4602.564102,3851.282052,3987.179488
108,4372.307692,4533.846153,4547.179487,4265.641025,4488.717948,4206.153846,4431.794871,4136.410256,4220.000000,4511.282051,4156.410256,4603.076923,3854.358975,3989.230770
109,4373.846153,4544.102564,4546.666666,4265.128205,4490.256410,4210.256410,4434.871794,4137.948717,4229.743589,4519.487179,4155.384615,4603.076923,3856.410257,3986.666667
110,4373.846153,4530.769230,4545.128205,4263.589743,4480.512820,4206.153846,4434.871794,4138.461538,4226.666666,4518.974358,4154.871794,4604.102564,3851.282052,3982.051283
111,4371.794871,4521.538461,4541.025641,4262.051282,4478.974358,4199.487179,4430.769230,4137.435897,4218.461538,4512.820512,4154.871794,4603.589743,3848.717949,3985.641026
112,4373.333333,4534.871794,4543.589743,4268.205128,4488.205128,4201.025641,4429.743589,4138.461538,4221.025641,4510.769230,4155.384615,4604.615384,3852.307693,3989.743590
113,4381.025641,4545.128205,4550.256410,4274.871794,4490.769230,4204.615384,4431.282051,4138.974358,4226.666666,4514.871794,4160.512820,4609.230769,3859.487180,3989.743590
114,4385.641025,4540.512820,4550.769230,4271.794871,4488.717948,4205.641025,4430.256410,4136.410256,4226.153846,4517.948717,4166.666666,4609.743589,3863.589744,3989.230770
115,4379.487179,4536.410256,4546.666666,4266.153846,4490.769230,4205.641025,4428.717948,4135.384615,4224.102564,4515.897435,4167.179487,4607.692307,3858.974359,3990.769231
116,4373.333333,4539.487179,4547.179487,4266.153846,4491.282051,4201.538461,4429.743589,4138.974358,4222.564102,4511.794871,4163.076923,4609.230769,3852.820513,3991.282052
117,4369.743589,4534.871794,4541.025641,4264.615384,4481.538461,4199.487179,4429.230769,4138.461538,4217.948717,4510.256410,4155.897435,4605.128205,3850.769231,3985.128206
118,4367.179487,4526.666666,4535.897435,4261.025641,4477.948717,4200.000000,4427.179487,4137.435897,4220.512820,4509.743589,4153.333333,4598.974358,3850.256411,3979.487180
119,4369.230769,4531.282051,4542.564102,4262.564102,4483.589743,4200.512820,4429.743589,4142.051282,4227.692307,4514.871794,4160.512820,4602.564102,3853.333334,3984.615385
120,4369.743589,4535.384615,4548.717948,4265.128205,4483.589743,4201.538461,4434.358974,4144.102564,4226.153846,4517.948717,4161.025641,4606.153846,3855.384616,3988.717949
121,4369.743589,4529.230769,4545.641025,4265.641025,4479.487179,4203.076923,4432.820512,4140.000000,4222.564102,4512.307692,4152.307692,4604.102564,3852.820513,3985.128206
122,4372.307692,4529.230769,4544.102564,4264.615384,4481.538461,4202.051282,4431.282051,4136.923076,4226.666666,4510.256410,4150.256410,4602.564102,3855.384616,3985.641026
123,4374.358974,4538.974358,4551.282051,4265.641025,4485.128205,4204.615384,4435.897435,4141.538461,4228.717948,4510.256410,4157.948717,4606.666666,3860.512821,3990.769231
124,4380.000000,4544.615384,4556.410256,4273.846153,4487.692307,4211.794871,4440.000000,4150.256410,4228.205128,4514.358974,4167.179487,4615.384615,3861.025642,3996.923077
125,4382.564102,4542.051282,4554.358974,4280.000000,4492.307692,4211.794871,4441.025641,4155.384615,4236.410256,4524.615384,4165.128205,4617.948717,3863.076924,3998.461539
126,4377.435897,4536.410256,4553.333333,4276.923076,4492.307692,4207.179487,4441.538461,4153.846153,4234.871794,4523.589743,4161.538461,4614.871794,3862.051283,3992.307693
127,4376.410256,4535.897435,4555.384615,4275.384615,4488.205128,4212.307692,4445.641025,4150.769230,4226.666666,4518.461538,4163.589743,4613.846153,3856.923077,3987.692308
128,4382.564102,4543.589743,4559.487179,4281.538461,4493.846153,4221.538461,4452.307692,4153.333333,4232.307692,4524.102564,4161.025641,4616.410256,3861.538462,3992.820513
129,4383.076923,4542.564102,4557.948717,4284.102564,4499.487179,4221.538461,4454.358974,4155.384615,4235.384615,4522.564102,4159.487179,4616.923076,3863.076924,3994.871795
130,4377.435897,4536.410256,4553.333333,4277.435897,4494.871794,4217.948717,4449.230769,4153.333333,4225.128205,4512.307692,4164.102564,4613.846153,3852.820513,3989.230770
131,4372.307692,4537.435897,4548.717948,4275.384615,4490.769230,4216.410256,4445.128205,4150.769230,4223.589743,4513.333333,4165.128205,4607.179487,3851.282052,3988.717949
132,4370.769230,4536.923076,4548.717948,4276.410256,4487.692307,4214.358974,4444.102564,4151.282051,4230.256410,4521.538461,4160.512820,4604.102564,3860.000000,3987.179488
133,4372.307692,4533.333333,4550.256410,4271.282051,4480.512820,4213.846153,4442.564102,4153.846153,4226.666666,4519.487179,4162.564102,4608.717948,3864.102565,3980.512821
134,4370.256410,4534.358974,4545.641025,4270.256410,4483.076923,4213.333333,4441.538461,4151.794871,4218.974358,4506.666666,4164.615384,4607.692307,3856.410257,3980.000000
135,4371.282051,4537.435897,4544.615384,4276.923076,4487.179487,4212.307692,4441.025641,4149.743589,4218.461538,4502.564102,4161.538461,4603.076923,3849.743590,3988.717949
136,4377.435897,4538.461538,4551.794871,4280.000000,4484.102564,4215.384615,4444.102564,4151.794871,4225.641025,4516.410256,4165.128205,4607.692307,3857.435898,3992.307693
137,4377.948717,4536.410256,4554.358974,4278.974358,4483.076923,4215.384615,4446.666666,4153.333333,4229.230769,4521.538461,4166.666666,4611.794871,3864.102565,3988.717949
138,4372.307692,4532.307692,4548.205128,4279.487179,4486.666666,4209.230769,4443.589743,4151.282051,4224.102564,4512.820512,4162.564102,4607.692307,3861.025642,3988.205129
139,4371.794871,4532.820512,4549.230769,4277.948717,4485.641025,4210.256410,4441.538461,4151.282051,4223.076923,4514.871794,4162.051282,4602.564102,3858.461539,3989.230770
140,4372.820512,4537.435897,4553.846153,4276.923076,4487.179487,4213.846153,4443.076923,4155.384615,4232.820512,4522.051282,4166.666666,4604.615384,3862.051283,3989.230770
141,4372.307692,4539.487179,4554.358974,4280.512820,4490.769230,4210.769230,4443.589743,4155.384615,4237.435897,4518.461538,4169.230769,4608.205128,3857.435898,3989.230770
142,4375.897435,4538.974358,4552.820512,4281.538461,4488.205128,4210.769230,4444.615384,4153.333333,4228.205128,4515.897435,4165.641025,4606.153846,3855.384616,3988.205129
143,4378.461538,4540.512820,4553.846153,4281.538461,4489.230769,4216.410256,4445.641025,4154.871794,4229.230769,4520.512820,4162.051282,4602.564102,3864.102565,3989.230770
144,4374.871794,4543.589743,4556.410256,4283.589743,4492.307692,4216.923076,4445.641025,4157.948717,4239.487179,4523.076923,4165.641025,4605.128205,3867.179488,3989.743590
145,4372.307692,4541.025641,4556.923076,4283.589743,4491.282051,4214.871794,4452.307692,4157.948717,4240.000000,4525.128205,4170.769230,4607.179487,3864.615385,3987.692308
146,4373.846153,4531.282051,4550.256410,4279.487179,4489.743589,4216.923076,4453.846153,4157.435897,4232.307692,4524.102564,4164.615384,4602.564102,3862.564103,3987.179488
147,4372.820512,4532.307692,4545.641025,4274.871794,4488.205128,4216.410256,4448.717948,4159.487179,4228.205128,4518.461538,4160.512820,4600.000000,3860.000000,3988.205129
148,4370.256410,4538.461538,4549.230769,4270.769230,4484.102564,4210.769230,4453.846153,4160.000000,4227.692307,4518.974358,4166.153846,4602.564102,3855.897436,3987.692308
149,4367.692307,4528.717948,4547.692307,4266.153846,4484.102564,4209.743589,4454.358974,4156.923076,4221.538461,4518.974358,4160.512820,4597.435897,3850.769231,3982.051283
150,4362.564102,4518.461538,4537.435897,4263.076923,4484.102564,4210.769230,4446.666666,4155.384615,4214.871794,4510.256410,4150.256410,4592.307692,3842.564103,3973.333334
151,4366.666666,4523.589743,4536.410256,4265.128205,4484.102564,4211.282051,4449.743589,4156.410256,4216.410256,4502.564102,4153.333333,4595.384615,3836.923077,3974.358975
152,4377.435897,4528.205128,4542.564102,4270.256410,4489.743589,4213.846153,4455.384615,4155.897435,4224.615384,4502.564102,4156.410256,4595.897435,3837.435898,3982.564103
153,4375.384615,4521.538461,4540.512820,4268.717948,4486.666666,4213.333333,4447.692307,4154.871794,4225.641025,4503.076923,4152.307692,4592.820512,3833.333334,3980.512821
154,4368.717948,4518.974358,4537.948717,4263.589743,4479.487179,4205.128205,4442.564102,4151.794871,4217.948717,4502.564102,4151.282051,4589.743589,3824.615385,3971.794872
155,4374.358974,4523.589743,4538.974358,4263.076923,4480.512820,4199.487179,4443.589743,4148.717948,4209.743589,4500.512820,4150.769230,4589.230769,3825.641026,3972.307693
156,4382.564102,4529.743589,4539.487179,4267.179487,4482.051282,4202.564102,4441.538461,4150.256410,4208.717948,4498.974358,4147.179487,4593.846153,3831.282052,3982.051283
157,4382.564102,4535.384615,4542.051282,4271.794871,4482.051282,4205.128205,4442.564102,4152.820512,4213.846153,4501.025641,4147.692307,4595.384615,3830.256411,3984.102565
158,4380.512820,4534.871794,4542.051282,4268.205128,4484.102564,4203.589743,4442.564102,4152.307692,4214.358974,4501.538461,4150.256410,4594.358974,3823.076924,3975.384616
159,4378.461538,4531.282051,4537.948717,4269.743589,4482.051282,4202.564102,4441.538461,4151.794871,4210.256410,4501.025641,4148.717948,4595.384615,3818.461539,3971.794872
160,4377.948717,4534.871794,4542.051282,4276.410256,4477.435897,4201.538461,4444.102564,4155.897435,4211.282051,4502.564102,4149.230769,4595.384615,3821.538462,3974.871795
161,4386.153846,4538.974358,4548.717948,4270.769230,4478.974358,4203.076923,4446.153846,4165.128205,4217.435897,4501.538461,4153.846153,4593.846153,3827.179488,3977.435898
162,4397.435897,4537.435897,4546.666666,4268.717948,4485.641025,4210.256410,4447.179487,4172.307692,4223.589743,4501.538461,4156.410256,4600.000000,3830.256411,3986.153847
163,4396.923076,4537.948717,4547.179487,4277.948717,4488.717948,4216.410256,4449.743589,4168.717948,4223.589743,4507.179487,4154.358974,4605.641025,3832.307693,3990.769231
164,4389.230769,4543.589743,4550.256410,4275.384615,4490.256410,4217.435897,4449.743589,4167.692307,4217.948717,4511.794871,4153.846153,4598.974358,3834.358975,3979.487180
165,4390.769230,4538.974358,4544.102564,4263.589743,4490.256410,4214.358974,4444.615384,4169.230769,4213.333333,4505.128205,4153.846153,4593.333333,3832.307693,3971.794872
166,4391.282051,4527.179487,4535.384615,4263.076923,4484.102564,4208.205128,4441.538461,4160.000000,4209.743589,4500.000000,4151.282051,4594.358974,3822.564103,3973.333334
167,4383.076923,4528.717948,4536.410256,4263.589743,4476.410256,4202.051282,4443.076923,4156.410256,4208.205128,4501.538461,4150.256410,4594.871794,3820.512821,3971.794872
168,4377.948717,4534.871794,4537.435897,4261.538461,4478.461538,4202.051282,4442.564102,4166.153846,4214.358974,4504.615384,4149.230769,4593.846153,3829.230770,3969.743590
169,4381.538461,4533.333333,4535.897435,4263.589743,4482.051282,4203.589743,4440.512820,4171.282051,4218.461538,4506.666666,4145.128205,4595.384615,3832.307693,3970.256411
170,4387.179487,4532.307692,4539.487179,4263.076923,4475.897435,4200.512820,4441.025641,4167.179487,4215.384615,4505.128205,4148.205128,4600.000000,3830.256411,3970.256411
171,4384.615384,4529.230769,4540.512820,4263.589743,4473.846153,4200.000000,4440.000000,4161.025641,4212.307692,4498.974358,4156.923076,4600.000000,3832.307693,3972.307693
172,4378.974358,4528.717948,4537.948717,4265.128205,4482.051282,4204.615384,4438.974358,4158.461538,4209.230769,4494.358974,4157.435897,4596.923076,3831.794872,3973.333334
173,4377.948717,4532.307692,4542.051282,4263.589743,4485.128205,4205.641025,4442.051282,4164.102564,4209.230769,4501.025641,4152.820512,4598.461538,3829.743590,3971.794872
174,4382.051282,4531.794871,4549.230769,4264.615384,4483.589743,4205.641025,4445.641025,4171.282051,4214.871794,4507.692307,4154.871794,4601.538461,3833.333334,3973.333334
175,4386.666666,4531.282051,4549.230769,4272.820512,4484.615384,4209.230769,4446.153846,4170.256410,4218.974358,4507.179487,4161.025641,4604.615384,3839.487180,3978.461539
176,4388.205128,4535.384615,4551.282051,4276.923076,4486.153846,4211.282051,4446.666666,4170.256410,4215.897435,4509.743589,4165.128205,4607.179487,3842.051283,3979.487180
177,4387.179487,4534.871794,4551.794871,4268.717948,4483.076923,4204.102564,4444.102564,4170.769230,4213.333333,4509.743589,4161.025641,4603.076923,3835.384616,3975.384616
178,4380.512820,4529.743589,4542.051282,4262.564102,4479.487179,4196.923076,4440.000000,4168.205128,4210.769230,4503.589743,4151.794871,4596.410256,3827.692308,3971.282052
179,4376.410256,4526.153846,4536.410256,4266.153846,4477.435897,4200.000000,4439.487179,4168.717948,4207.179487,4503.589743,4154.871794,4598.974358,3831.794872,3972.307693
180,4378.974358,4521.025641,4540.000000,4267.179487,4474.871794,4202.564102,4438.461538,4169.743589,4208.205128,4506.666666,4153.846153,4604.615384,3834.871795,3973.846154
181,4376.410256,4516.923076,4538.974358,4261.538461,4474.871794,4200.512820,4437.435897,4169.230769,4210.769230,4501.025641,4140.512820,4600.000000,3829.743590,3967.692308
182,4372.820512,4523.589743,4534.871794,4263.076923,4478.461538,4200.000000,4441.025641,4168.205128,4210.769230,4498.461538,4143.076923,4595.897435,3828.717949,3964.615385
183,4376.410256,4530.256410,4538.974358,4265.128205,4483.076923,4200.512820,4443.589743,4167.692307,4210.769230,4504.615384,4154.871794,4601.538461,3835.384616,3970.256411
184,4382.564102,4529.743589,4544.615384,4265.128205,4484.102564,4202.051282,4441.538461,4169.230769,4215.897435,4509.743589,4155.384615,4605.641025,3845.128206,3973.333334
185,4388.205128,4531.282051,4546.666666,4273.846153,4483.076923,4206.153846,4442.564102,4172.307692,4219.487179,4516.923076,4158.461538,4604.615384,3849.743590,3976.410257
186,4388.205128,4535.384615,4546.666666,4275.384615,4485.128205,4207.179487,4445.128205,4172.307692,4217.948717,4518.461538,4162.051282,4605.128205,3844.615385,3980.000000
187,4382.564102,4533.333333,4542.051282,4264.102564,4484.615384,4201.538461,4440.512820,4170.256410,4215.897435,4509.743589,4155.384615,4606.153846,3838.974359,3974.871795
188,4381.538461,4530.769230,4542.051282,4264.102564,4483.589743,4200.000000,4437.435897,4172.307692,4216.410256,4511.794871,4156.410256,4606.153846,3844.102565,3970.769231
189,4387.179487,4537.435897,4547.179487,4272.820512,4487.692307,4203.589743,4437.948717,4174.358974,4219.487179,4522.564102,4167.179487,4603.076923,3851.282052,3973.846154
190,4387.692307,4541.538461,4545.641025,4269.230769,4490.769230,4204.615384,4433.846153,4173.846153,4221.025641,4524.615384,4167.692307,4600.512820,3856.923077,3975.897436
191,4383.076923,4533.846153,4538.974358,4262.051282,4485.641025,4202.051282,4428.717948,4171.282051,4216.410256,4516.410256,4161.025641,4603.076923,3855.384616,3970.769231
192,4381.538461,4525.641025,4537.435897,4264.102564,4485.128205,4200.000000,4428.205128,4164.615384,4210.256410,4507.179487,4155.897435,4600.000000,3849.230770,3962.051283
193,4383.076923,4531.282051,4540.000000,4265.128205,4487.179487,4200.512820,4428.717948,4163.076923,4208.717948,4503.076923,4156.923076,4591.282051,3850.769231,3964.615385
194,4385.128205,4538.974358,4539.487179,4264.102564,4482.564102,4196.923076,4428.205128,4163.076923,4208.717948,4506.666666,4160.000000,4590.256410,3854.358975,3972.820513
195,4384.102564,4527.692307,4536.410256,4265.128205,4475.897435,4193.333333,4425.128205,4158.974358,4204.102564,4508.205128,4155.384615,4590.769230,3849.743590,3965.641026
196,4377.435897,4517.948717,4532.307692,4263.589743,4477.948717,4195.897435,4422.051282,4154.358974,4201.025641,4503.589743,4146.153846,4585.128205,3842.051283,3953.333334
197,4371.282051,4523.589743,4527.179487,4255.384615,4480.000000,4194.358974,4424.615384,4155.384615,4200.512820,4498.974358,4140.000000,4582.564102,3837.435898,3954.358975
198,4370.769230,4523.076923,4524.102564,4253.333333,4477.435897,4191.282051,4428.205128,4162.051282,4203.076923,4499.487179,4143.076923,4584.615384,3836.923077,3958.974359
199,4373.333333,4520.512820,4529.743589,4261.538461,4476.410256,4196.923076,4431.282051,4167.692307,4212.307692,4505.128205,4152.820512,4587.179487,3838.974359,3961.025642
200,4378.461538,4522.564102,4538.974358,4266.153846,4481.025641,4202.564102,4435.897435,4171.794871,4219.487179,4509.230769,4154.871794,4593.333333,3841.025642,3966.666667
201,4381.025641,4521.025641,4538.974358,4262.564102,4485.128205,4199.487179,4438.461538,4176.410256,4212.820512,4506.153846,4153.846153,4597.435897,3843.589744,3968.205129
202,4382.051282,4523.076923,4540.512820,4263.589743,4486.153846,4200.000000,4438.974358,4183.589743,4211.282051,4507.179487,4157.435897,4597.948717,3849.743590,3968.717949
203,4382.051282,4529.743589,4546.153846,4270.256410,4488.717948,4203.589743,4443.076923,4188.205128,4223.589743,4512.820512,4154.871794,4602.051282,3849.743590,3973.846154
204,4376.923076,4521.538461,4543.076923,4267.692307,4487.179487,4202.051282,4443.589743,4187.179487,4227.692307,4512.307692,4149.230769,4603.076923,3843.589744,3970.256411
205,4371.282051,4508.717948,4537.948717,4261.025641,4481.025641,4199.487179,4437.435897,4184.615384,4217.948717,4511.794871,4155.897435,4599.487179,3848.205129,3964.615385
206,4381.538461,4522.051282,4544.102564,4265.128205,4481.538461,4198.974358,4438.974358,4182.051282,4214.358974,4518.974358,4168.717948,4602.051282,3861.025642,3974.358975
207,4397.948717,4542.051282,4555.897435,4279.487179,4489.743589,4203.076923,4442.564102,4186.666666,4223.589743,4522.564102,4174.358974,4613.333333,3869.230770,3987.179488
208,4398.974358,4543.076923,4559.487179,4284.102564,4489.743589,4203.076923,4440.512820,4193.846153,4232.820512,4523.589743,4170.769230,4616.410256,3867.692308,3988.717949
209,4393.333333,4536.923076,4556.410256,4280.512820,4488.205128,4200.512820,4438.974358,4191.282051,4228.717948,4523.589743,4169.743589,4608.717948,3865.641026,3986.153847
210,4392.307692,4534.871794,4554.871794,4280.000000,4491.282051,4201.025641,4436.923076,4184.615384,4217.948717,4512.820512,4171.282051,4602.051282,3864.615385,3983.076924
211,4391.282051,4533.846153,4554.871794,4281.538461,4488.717948,4200.000000,4430.256410,4181.025641,4214.871794,4504.615384,4168.205128,4603.589743,3862.051283,3981.538462
212,4393.846153,4539.487179,4558.974358,4288.205128,4489.230769,4200.000000,4429.230769,4181.025641,4221.538461,4516.410256,4166.666666,4607.179487,3866.153847,3987.692308
213,4398.974358,4547.692307,4563.076923,4295.897435,4493.846153,4206.153846,4435.384615,4184.102564,4222.564102,4527.692307,4172.820512,4607.692307,3868.717949,3992.307693
214,4395.897435,4546.153846,4557.948717,4289.230769,4493.333333,4207.692307,4432.820512,4184.102564,4215.384615,4521.538461,4171.282051,4604.615384,3866.153847,3987.692308
215,4385.128205,4537.435897,4550.256410,4278.974358,4489.743589,4200.000000,4425.641025,4173.846153,4210.769230,4508.717948,4159.487179,4596.923076,3863.589744,3978.461539
216,4383.589743,4533.333333,4550.769230,4282.051282,4489.743589,4198.461538,4425.641025,4167.692307,4211.282051,4504.102564,4157.948717,4594.871794,3859.487180,3970.769231
217,4391.794871,4540.000000,4555.384615,4288.205128,4492.820512,4204.615384,4431.282051,4180.000000,4218.461538,4510.769230,4169.230769,4601.538461,3861.538462,3974.871795
218,4392.307692,4542.564102,4556.410256,4283.076923,4496.410256,4205.641025,4432.307692,4186.666666,4224.102564,4514.358974,4171.282051,4603.076923,3874.358975,3981.025642
219,4383.076923,4536.923076,4554.358974,4278.461538,4496.923076,4201.538461,4429.230769,4180.000000,4217.948717,4506.153846,4165.128205,4597.435897,3874.358975,3977.948718
220,4383.076923,4536.923076,4555.384615,4281.025641,4495.897435,4202.051282,4431.794871,4181.025641,4215.384615,4506.153846,4167.692307,4597.435897,3865.128206,3980.512821
221,4389.230769,4540.512820,4557.948717,4281.025641,4494.871794,4204.102564,4434.358974,4187.179487,4224.102564,4516.410256,4170.256410,4604.102564,3865.128206,3986.153847
222,4387.692307,4539.487179,4555.897435,4278.461538,4492.307692,4203.076923,4434.871794,4188.205128,4231.282051,4521.025641,4168.717948,4602.564102,3866.666667,3980.000000
223,4383.076923,4536.923076,4554.358974,4278.461538,4490.256410,4201.538461,4435.897435,4189.230769,4235.384615,4523.076923,4172.820512,4598.974358,3871.282052,3978.974359
224,4382.051282,4535.897435,4556.410256,4278.461538,4492.307692,4200.512820,4437.435897,4189.743589,4233.846153,4521.538461,4168.205128,4601.025641,3876.410257,3987.692308
225,4383.589743,4537.435897,4555.384615,4277.948717,4493.846153,4201.025641,4435.897435,4187.179487,4226.666666,4515.384615,4161.025641,4600.512820,3868.717949,3983.076924
226,4384.102564,4537.948717,4553.846153,4278.461538,4493.333333,4202.051282,4432.307692,4185.128205,4225.641025,4514.871794,4166.153846,4598.461538,3860.000000,3974.358975
227,4382.051282,4538.461538,4560.512820,4279.487179,4489.743589,4200.512820,4433.333333,4184.615384,4224.102564,4515.384615,4163.589743,4600.512820,3863.076924,3978.461539
228,4380.512820,4541.025641,4563.076923,4280.000000,4490.769230,4198.974358,4432.307692,4185.128205,4222.051282,4511.794871,4155.384615,4602.051282,3868.717949,3983.076924
229,4384.615384,4540.512820,4559.487179,4280.512820,4495.897435,4200.000000,4432.307692,4181.538461,4224.615384,4510.769230,4164.102564,4601.025641,3874.871795,3982.564103
230,4387.692307,4535.897435,4559.487179,4281.538461,4494.358974,4196.923076,4434.871794,4176.923076,4223.076923,4511.282051,4173.846153,4602.564102,3873.333334,3984.102565
231,4387.179487,4535.897435,4559.487179,4281.025641,4488.205128,4194.358974,4435.897435,4177.435897,4220.512820,4511.794871,4169.743589,4603.076923,3866.666667,3984.102565
232,4387.179487,4538.974358,4555.897435,4279.487179,4487.179487,4196.923076,4435.897435,4183.589743,4222.564102,4511.794871,4167.179487,4601.538461,3872.307693,3980.000000
233,4385.641025,4541.025641,4553.333333,4280.000000,4491.282051,4200.000000,4436.410256,4185.641025,4226.666666,4509.743589,4166.153846,4603.589743,3879.487180,3978.461539
234,4386.153846,4542.564102,4558.974358,4284.102564,4492.820512,4201.025641,4436.410256,4185.128205,4226.666666,4509.230769,4163.076923,4605.641025,3876.923077,3985.128206
235,4389.230769,4543.589743,4562.564102,4286.153846,4492.820512,4201.538461,4437.435897,4188.205128,4227.179487,4515.897435,4167.692307,4606.153846,3878.461539,3992.307693
236,4385.641025,4541.025641,4557.435897,4282.564102,4496.923076,4206.666666,4442.051282,4189.230769,4228.717948,4514.871794,4168.717948,4603.589743,3881.025642,3988.205129
237,4379.487179,4538.461538,4553.333333,4279.487179,4497.435897,4209.743589,4443.589743,4186.666666,4228.205128,4507.179487,4165.128205,4600.512820,3871.794872,3984.102565
238,4384.615384,4539.487179,4559.487179,4281.025641,4496.923076,4207.179487,4438.461538,4184.102564,4229.743589,4512.820512,4167.179487,4603.589743,3868.205129,3988.205129
239,4389.743589,4542.564102,4561.025641,4282.051282,4500.000000,4205.641025,4437.948717,4185.128205,4230.769230,4520.512820,4169.743589,4606.153846,3874.871795,3991.282052
240,4384.615384,4542.051282,4555.384615,4279.487179,4495.897435,4205.128205,4437.948717,4186.666666,4225.641025,4514.358974,4167.179487,4602.051282,3874.871795,3985.128206
241,4380.512820,4538.974358,4555.384615,4278.461538,4486.666666,4200.000000,4433.846153,4184.615384,4222.051282,4508.717948,4166.153846,4597.948717,3865.128206,3978.974359
242,4378.974358,4538.461538,4556.410256,4280.000000,4487.179487,4196.410256,4433.333333,4182.051282,4223.076923,4512.820512,4165.128205,4599.487179,3860.512821,3978.974359
243,4380.000000,4537.948717,4554.871794,4281.025641,4490.256410,4198.974358,4440.512820,4182.564102,4221.538461,4512.820512,4160.512820,4601.538461,3863.589744,3980.512821
244,4384.615384,4536.410256,4556.410256,4279.487179,4488.205128,4199.487179,4444.615384,4185.128205,4221.538461,4509.230769,4161.538461,4603.076923,3866.666667,3983.589744
245,4384.102564,4535.897435,4556.410256,4278.461538,4490.256410,4199.487179,4442.051282,4186.666666,4224.102564,4510.769230,4164.102564,4602.564102,3866.153847,3982.051283
246,4378.974358,4540.000000,4555.897435,4280.000000,4493.333333,4200.512820,4443.589743,4187.179487,4224.615384,4508.205128,4167.179487,4602.564102,3864.615385,3977.948718
247,4378.461538,4540.000000,4556.410256,4281.025641,4491.794871,4200.000000,4445.641025,4185.641025,4223.076923,4504.615384,4167.179487,4602.564102,3862.051283,3978.461539
248,4377.435897,4529.743589,4554.358974,4275.384615,4492.820512,4199.487179,4442.564102,4181.538461,4220.000000,4507.179487,4163.589743,4600.000000,3857.948718,3981.025642
249,4372.307692,4528.717948,4552.307692,4272.307692,4491.282051,4200.000000,4441.025641,4183.589743,4217.948717,4507.179487,4162.051282,4595.384615,3854.871795,3978.461539
250,4370.769230,4532.820512,4552.820512,4275.897435,4488.717948,4197.435897,4442.051282,4182.051282,4218.974358,4501.538461,4158.461538,4592.820512,3851.282052,3974.358975
251,4372.820512,4529.743589,4553.333333,4278.461538,4490.256410,4193.846153,4437.948717,4171.794871,4213.846153,4499.487179,4154.871794,4591.794871,3854.358975,3976.410257
252,4371.794871,4530.256410,4554.871794,4277.948717,4489.743589,4194.358974,4434.358974,4171.794871,4207.692307,4497.435897,4159.487179,4590.769230,3857.948718,3978.974359
253,4373.846153,4538.974358,4556.410256,4277.948717,4486.666666,4198.461538,4437.435897,4181.538461,4215.384615,4493.846153,4170.256410,4595.897435,3853.333334,3978.461539
254,4376.410256,4540.000000,4554.871794,4278.461538,4491.282051,4201.025641,4439.487179,4184.102564,4222.564102,4499.487179,4167.692307,4597.435897,3852.820513,3976.923077
255,4375.384615,4531.282051,4555.384615,4276.923076,4488.717948,4196.410256,4438.461538,4182.051282,4222.564102,4502.564102,4154.358974,4590.769230,3856.923077,3978.461539
256,4373.333333,4524.615384,4553.333333,4270.769230,4480.000000,4194.358974,4435.897435,4180.512820,4219.487179,4494.871794,4154.358974,4587.692307,3853.846154,3975.384616
257,4371.282051,4519.487179,4544.615384,4262.051282,4484.102564,4195.384615,4432.307692,4171.794871,4212.307692,4492.820512,4162.564102,4589.743589,3845.128206,3968.717949
258,4370.769230,4520.000000,4543.076923,4262.051282,4483.076923,4187.692307,4428.205128,4165.641025,4204.615384,4495.384615,4160.000000,4588.205128,3838.461539,3969.743590
259,4375.384615,4521.025641,4550.256410,4265.641025,4474.871794,4186.153846,4428.205128,4169.230769,4204.615384,4497.948717,4157.948717,4586.666666,3836.410257,3977.435898
