,AF3,F7,F3,FC5,T7,P7,O1,O2,P8,T8,FC6,F4,F8,AF4
0,4377.948717,4538.461538,4542.564102,4266.666666,4510.256410,4199.487179,4433.333333,4226.153846,4231.794871,4507.692307,4269.230769,4657.948717,4006.666666,4061.538461
1,4383.076923,4545.128205,4545.641025,4272.307692,4512.307692,4204.102564,4433.846153,4225.641025,4232.820512,4511.282051,4266.666666,4664.102564,4011.794871,4065.128205
2,4380.000000,4540.000000,4543.589743,4267.179487,4511.282051,4198.974358,4434.358974,4223.076923,4223.076923,4502.051282,4248.717948,4660.000000,4008.205128,4059.487179
3,4367.692307,4528.717948,4531.794871,4255.384615,4504.615384,4189.743589,4425.641025,4218.461538,4222.051282,4497.435897,4255.384615,4652.820512,4005.128205,4050.769230
4,4363.076923,4525.641025,4527.179487,4244.102564,4503.076923,4191.282051,4423.589743,4215.384615,4229.743589,4509.230769,4273.846153,4655.384615,4015.897435,4054.871794
5,4370.256410,4531.282051,4537.948717,4245.641025,4507.692307,4197.435897,4429.743589,4218.974358,4231.794871,4514.358974,4280.512820,4661.025641,4029.230769,4067.692307
6,4377.948717,4537.948717,4545.641025,4255.384615,4507.179487,4197.948717,4429.230769,4221.538461,4235.897435,4512.307692,4280.512820,4665.128205,4025.128205,4073.846153
7,4382.051282,4542.051282,4545.641025,4265.128205,4505.641025,4196.923076,4431.794871,4222.564102,4246.666666,4515.897435,4274.358974,4667.179487,4021.538461,4076.923076
8,4380.000000,4543.589743,4545.128205,4268.205128,4510.769230,4201.025641,4438.461538,4222.051282,4240.000000,4514.358974,4267.179487,4658.461538,4025.641025,4076.410256
9,4371.282051,4535.384615,4541.538461,4260.000000,4509.743589,4200.000000,4434.871794,4216.923076,4227.179487,4504.615384,4264.615384,4645.641025,4020.512820,4063.589743
10,4362.051282,4524.615384,4534.358974,4249.230769,4501.025641,4190.769230,4430.256410,4217.948717,4230.256410,4498.461538,4261.025641,4645.641025,4006.153846,4052.307692
11,4356.410256,4519.487179,4532.820512,4245.641025,4500.000000,4187.179487,4428.205128,4215.384615,4230.256410,4496.923076,4265.641025,4650.256410,3997.435898,4055.897435
12,4364.102564,4522.051282,4541.025641,4247.692307,4500.512820,4189.230769,4426.666666,4213.846153,4227.179487,4504.102564,4276.923076,4657.435897,4009.743589,4068.205128
13,4376.923076,4528.205128,4546.153846,4250.769230,4498.461538,4192.820512,4429.743589,4218.461538,4236.410256,4510.769230,4272.820512,4665.641025,4028.205128,4072.820512
14,4369.230769,4524.102564,4535.897435,4247.179487,4502.051282,4192.307692,4426.666666,4209.230769,4231.282051,4495.384615,4258.461538,4653.846153,4014.358974,4061.538461
15,4357.435897,4520.512820,4526.153846,4247.179487,4500.512820,4187.179487,4418.974358,4198.974358,4211.794871,4482.051282,4255.384615,4634.871794,3984.615385,4049.230769
16,4366.666666,4525.641025,4532.307692,4249.230769,4497.435897,4188.717948,4424.615384,4210.769230,4223.076923,4496.923076,4270.256410,4640.512820,3985.641026,4054.871794
17,4375.384615,4526.666666,4543.589743,4248.205128,4499.487179,4194.871794,4433.333333,4224.102564,4245.641025,4513.846153,4276.410256,4653.333333,4001.025641,4066.153846
18,4368.717948,4521.538461,4544.102564,4247.692307,4500.000000,4192.307692,4426.666666,4219.487179,4241.025641,4506.153846,4256.410256,4649.743589,3998.974359,4064.102564
19,4366.153846,4524.615384,4537.435897,4249.743589,4498.974358,4183.589743,4420.512820,4214.358974,4227.692307,4490.769230,4247.179487,4644.102564,3991.282052,4057.435897
20,4366.666666,4527.692307,4533.846153,4248.717948,4500.000000,4182.051282,4425.128205,4211.282051,4223.076923,4485.128205,4261.025641,4642.564102,3984.615385,4056.923076
21,4363.076923,4525.641025,4532.820512,4249.230769,4501.025641,4191.794871,4430.256410,4209.743589,4222.564102,4488.205128,4260.512820,4639.487179,3980.512821,4055.897435
22,4363.589743,4528.205128,4531.794871,4248.717948,4502.564102,4196.923076,4431.794871,4214.358974,4225.128205,4489.743589,4247.179487,4638.974358,3987.179488,4053.846153
23,4361.538461,4527.692307,4529.230769,4241.538461,4508.205128,4193.333333,4429.230769,4217.435897,4232.307692,4491.282051,4249.743589,4644.102564,3993.333334,4052.820512
24,4355.384615,4521.025641,4528.205128,4241.538461,4508.205128,4193.333333,4430.769230,4220.512820,4242.051282,4502.051282,4256.410256,4647.179487,3990.256411,4052.307692
25,4360.512820,4522.051282,4531.282051,4248.717948,4501.025641,4196.410256,4435.897435,4223.589743,4244.615384,4510.256410,4261.025641,4650.256410,3991.282052,4055.384615
26,4373.333333,4529.743589,4534.871794,4254.871794,4501.025641,4191.282051,4433.333333,4221.025641,4234.871794,4507.179487,4272.820512,4654.358974,4000.512820,4064.102564
27,4378.461538,4535.897435,4540.000000,4260.512820,4503.076923,4187.692307,4426.153846,4214.871794,4227.692307,4498.461538,4275.384615,4657.948717,4007.692307,4066.666666
28,4378.461538,4538.461538,4544.615384,4260.512820,4497.948717,4191.282051,4427.692307,4216.410256,4228.717948,4492.820512,4269.230769,4660.512820,4010.769230,4064.615384
29,4376.410256,4531.794871,4542.564102,4253.333333,4496.923076,4187.692307,4436.410256,4223.589743,4228.717948,4494.871794,4270.256410,4658.461538,4007.692307,4063.076923
30,4364.615384,4515.384615,4537.435897,4246.153846,4501.538461,4183.589743,4438.974358,4221.538461,4230.769230,4502.051282,4270.256410,4650.256410,4001.025641,4056.923076
31,4362.564102,4511.794871,4540.000000,4249.230769,4501.538461,4188.717948,4438.974358,4221.025641,4242.051282,4512.820512,4273.846153,4650.256410,4001.538461,4053.333333
32,4377.948717,4525.128205,4552.820512,4257.435897,4497.948717,4191.794871,4441.538461,4228.717948,4247.692307,4517.435897,4286.666666,4666.666666,4009.743589,4063.076923
33,4384.615384,4530.769230,4557.435897,4264.102564,4496.410256,4190.769230,4443.589743,4227.692307,4243.589743,4512.307692,4289.743589,4677.948717,4014.871794,4073.846153
34,4375.384615,4524.102564,4546.666666,4261.025641,4496.923076,4186.666666,4436.923076,4218.974358,4235.384615,4500.512820,4275.897435,4669.230769,4007.179487,4070.256410
35,4369.230769,4522.564102,4535.897435,4252.820512,4498.461538,4186.666666,4429.743589,4214.871794,4226.666666,4488.205128,4254.871794,4653.333333,3994.358975,4057.435897
36,4360.000000,4519.487179,4526.666666,4242.051282,4497.435897,4189.230769,4429.230769,4207.179487,4220.000000,4477.948717,4233.846153,4639.487179,3981.025642,4042.564102
37,4344.615384,4510.769230,4514.871794,4235.897435,4493.333333,4185.128205,4425.641025,4194.358974,4210.769230,4469.743589,4227.692307,4627.179487,3970.769231,4031.282051
38,4347.692307,4513.333333,4510.769230,4242.051282,4495.897435,4183.589743,4425.641025,4193.846153,4203.589743,4473.846153,4247.179487,4625.641025,3975.384616,4033.846153
39,4359.487179,4526.666666,4519.487179,4246.666666,4495.384615,4187.692307,4430.256410,4198.974358,4208.205128,4485.641025,4256.923076,4634.871794,3989.743590,4043.076923
40,4355.897435,4528.205128,4526.666666,4240.512820,4489.230769,4184.102564,4421.025641,4194.871794,4211.794871,4483.076923,4236.923076,4636.923076,3984.102565,4040.512820
41,4355.384615,4526.666666,4528.205128,4243.589743,4490.256410,4180.000000,4414.871794,4197.435897,4210.769230,4478.974358,4231.282051,4633.333333,3972.820513,4037.948717
42,4368.717948,4534.358974,4532.820512,4258.461538,4497.948717,4188.205128,4432.820512,4216.923076,4224.102564,4496.410256,4254.871794,4642.051282,3985.128206,4051.794871
43,4371.794871,4537.435897,4535.384615,4257.435897,4501.538461,4192.820512,4443.076923,4226.153846,4236.923076,4509.743589,4264.615384,4650.256410,3996.923077,4062.051282
44,4365.641025,4540.000000,4531.794871,4250.769230,4498.461538,4188.205128,4431.282051,4213.333333,4232.820512,4499.487179,4252.307692,4645.641025,3994.871795,4056.410256
45,4372.307692,4546.666666,4533.846153,4262.564102,4496.410256,4186.666666,4426.153846,4208.717948,4227.692307,4498.974358,4255.897435,4645.128205,3997.435898,4055.897435
46,4380.000000,4549.230769,4542.564102,4275.897435,4501.025641,4188.717948,4430.256410,4217.435897,4224.615384,4510.769230,4267.692307,4652.820512,4003.076923,4061.538461
47,4378.974358,4551.282051,4546.666666,4276.410256,4503.589743,4192.820512,4434.871794,4216.923076,4225.641025,4510.256410,4264.615384,4657.948717,4000.000000,4063.589743
48,4380.512820,4554.358974,4542.051282,4272.820512,4506.153846,4196.923076,4438.461538,4215.384615,4230.769230,4506.153846,4258.461538,4659.487179,3998.461539,4064.615384
49,4377.435897,4549.230769,4532.820512,4266.153846,4504.615384,4194.871794,4433.333333,4216.410256,4223.589743,4497.435897,4252.307692,4651.794871,3994.358975,4060.512820
50,4366.153846,4544.615384,4530.256410,4260.000000,4502.564102,4192.820512,4429.743589,4211.794871,4214.358974,4490.256410,4248.205128,4642.564102,3983.076924,4054.871794
51,4372.307692,4552.307692,4540.000000,4271.282051,4509.743589,4201.025641,4442.051282,4213.846153,4224.615384,4500.512820,4254.358974,4648.205128,3986.666667,4063.076923
52,4387.179487,4556.410256,4545.128205,4283.076923,4512.307692,4204.102564,4447.179487,4220.000000,4231.794871,4509.230769,4258.974358,4656.923076,4002.564102,4073.333333
53,4382.564102,4551.794871,4542.564102,4278.974358,4506.666666,4197.948717,4434.358974,4218.461538,4226.666666,4505.128205,4257.435897,4656.923076,4007.179487,4071.794871
54,4376.923076,4551.282051,4542.564102,4271.282051,4506.153846,4199.487179,4431.282051,4216.923076,4230.256410,4508.717948,4261.538461,4658.461538,4007.179487,4070.769230
55,4381.538461,4551.794871,4537.948717,4267.692307,4508.205128,4202.051282,4441.538461,4217.948717,4231.282051,4513.846153,4267.179487,4656.410256,4008.717948,4069.230769
56,4375.897435,4544.615384,4529.743589,4261.025641,4507.179487,4195.897435,4439.487179,4212.307692,4223.589743,4509.743589,4260.000000,4648.205128,4001.025641,4060.512820
57,4370.256410,4538.461538,4530.256410,4256.410256,4504.615384,4193.333333,4431.282051,4209.743589,4224.102564,4511.794871,4246.666666,4644.102564,3996.410257,4055.384615
58,4373.846153,4540.000000,4532.820512,4256.923076,4504.615384,4194.871794,4436.410256,4212.307692,4224.102564,4512.307692,4241.538461,4641.025641,3998.461539,4057.948717
59,4376.410256,4542.564102,4535.897435,4260.512820,4504.615384,4192.820512,4444.615384,4215.897435,4223.076923,4505.641025,4252.307692,4640.512820,3999.487180,4062.564102
60,4374.871794,4540.000000,4542.051282,4261.025641,4505.128205,4194.871794,4441.538461,4223.589743,4229.230769,4507.692307,4264.615384,4647.692307,3998.461539,4061.538461
61,4371.282051,4532.820512,4543.589743,4251.794871,4504.102564,4196.923076,4441.025641,4225.641025,4232.307692,4513.333333,4256.923076,4652.820512,3992.820513,4058.974358
62,4372.820512,4530.256410,4544.102564,4249.743589,4505.641025,4194.358974,4445.641025,4225.128205,4225.641025,4507.179487,4249.230769,4655.897435,3994.871795,4063.589743
63,4377.948717,4534.871794,4548.717948,4262.564102,4505.641025,4197.435897,4445.128205,4227.179487,4227.692307,4502.564102,4257.948717,4661.538461,4007.179487,4068.717948
64,4380.000000,4541.538461,4552.820512,4272.820512,4508.205128,4203.589743,4444.615384,4223.589743,4236.410256,4508.205128,4262.051282,4667.692307,4008.717948,4068.205128
65,4384.615384,4549.743589,4557.948717,4274.358974,4515.897435,4202.051282,4444.102564,4215.384615,4234.358974,4508.205128,4255.384615,4670.769230,3998.974359,4068.205128
66,4390.769230,4553.333333,4560.512820,4277.435897,4513.333333,4201.538461,4442.051282,4213.333333,4225.641025,4504.615384,4260.000000,4669.743589,4000.000000,4074.871794
67,4389.230769,4550.769230,4554.358974,4280.512820,4512.307692,4204.102564,4442.564102,4217.435897,4223.076923,4511.794871,4270.256410,4664.615384,4011.794871,4080.000000
68,4382.564102,4548.205128,4549.743589,4276.410256,4517.435897,4203.076923,4443.589743,4221.538461,4227.692307,4517.435897,4264.615384,4663.589743,4013.333333,4075.384615
69,4377.948717,4544.102564,4548.717948,4269.743589,4512.820512,4201.538461,4443.589743,4226.153846,4232.820512,4511.282051,4252.307692,4663.076923,4003.589743,4064.102564
70,4376.410256,4541.025641,4548.205128,4265.641025,4509.743589,4202.051282,4444.102564,4228.717948,4238.974358,4511.794871,4255.384615,4657.948717,3997.948718,4058.461538
71,4376.923076,4541.025641,4546.666666,4267.692307,4512.820512,4201.538461,4443.589743,4223.076923,4238.974358,4515.897435,4257.948717,4655.384615,3997.435898,4060.512820
72,4374.358974,4538.974358,4543.076923,4266.666666,4509.230769,4198.974358,4438.974358,4215.384615,4228.205128,4508.205128,4254.358974,4649.743589,3994.871795,4061.025641
73,4375.384615,4540.000000,4545.128205,4263.076923,4507.179487,4201.538461,4441.538461,4220.000000,4226.666666,4508.717948,4264.102564,4647.179487,4000.512820,4064.102564
74,4382.564102,4545.128205,4548.717948,4264.102564,4515.384615,4207.179487,4447.179487,4234.871794,4239.487179,4520.512820,4271.282051,4651.282051,4011.282051,4066.153846
75,4377.435897,4540.512820,4544.102564,4260.000000,4513.333333,4205.128205,4443.589743,4237.948717,4245.641025,4524.102564,4259.487179,4650.769230,4003.589743,4058.461538
76,4369.230769,4536.923076,4539.487179,4254.358974,4506.153846,4200.512820,4439.487179,4225.128205,4235.384615,4515.384615,4255.897435,4646.153846,3989.743590,4053.333333
77,4375.384615,4542.564102,4543.076923,4258.461538,4507.692307,4200.000000,4444.102564,4222.051282,4229.743589,4509.743589,4267.179487,4646.666666,3994.871795,4057.435897
78,4378.461538,4542.051282,4545.128205,4262.051282,4510.769230,4201.025641,4446.153846,4227.692307,4236.923076,4512.820512,4267.692307,4649.743589,4000.512820,4060.000000
79,4371.282051,4535.897435,4540.000000,4253.846153,4510.256410,4200.512820,4443.589743,4225.128205,4241.538461,4516.410256,4263.589743,4646.666666,3991.282052,4054.871794
80,4369.230769,4531.794871,4535.897435,4250.769230,4506.666666,4198.974358,4442.051282,4215.897435,4233.333333,4510.256410,4256.923076,4645.641025,3983.589744,4051.794871
81,4372.820512,4533.333333,4538.461538,4260.512820,4503.076923,4197.948717,4441.538461,4212.820512,4226.666666,4504.102564,4246.153846,4647.179487,3986.153847,4053.333333
82,4376.410256,4538.974358,4543.589743,4267.179487,4507.692307,4198.974358,4441.025641,4216.923076,4231.794871,4508.205128,4254.358974,4651.282051,3993.333334,4058.974358
83,4381.538461,4540.000000,4547.179487,4265.641025,4513.846153,4200.512820,4443.076923,4218.974358,4233.846153,4511.794871,4264.615384,4661.538461,4000.512820,4064.615384
84,4382.051282,4537.948717,4549.230769,4263.076923,4513.846153,4202.564102,4444.615384,4218.461538,4227.179487,4505.128205,4257.435897,4664.102564,4001.025641,4063.589743
85,4377.435897,4541.025641,4547.692307,4265.641025,4508.205128,4204.102564,4444.102564,4214.871794,4221.538461,4499.487179,4252.820512,4657.435897,3992.307693,4058.461538
86,4373.333333,4537.435897,4542.564102,4264.615384,4505.641025,4201.025641,4442.051282,4212.307692,4217.948717,4494.871794,4250.769230,4653.846153,3982.051283,4054.358974
87,4371.794871,4530.256410,4541.538461,4257.435897,4507.692307,4197.435897,4442.564102,4216.410256,4217.435897,4490.769230,4248.717948,4655.897435,3982.564103,4051.794871
88,4372.307692,4532.820512,4543.589743,4249.230769,4507.692307,4198.974358,4444.615384,4217.435897,4221.025641,4492.820512,4254.871794,4656.923076,3988.717949,4051.282051
89,4379.487179,4540.512820,4543.589743,4249.743589,4506.666666,4201.025641,4439.487179,4213.333333,4223.076923,4497.435897,4257.948717,4654.871794,3992.820513,4056.923076
90,4384.102564,4542.564102,4545.128205,4257.435897,4506.666666,4199.487179,4434.871794,4211.282051,4222.564102,4497.948717,4253.333333,4655.384615,3993.846154,4062.051282
91,4381.025641,4542.051282,4547.692307,4262.564102,4506.153846,4198.461538,4440.512820,4213.333333,4226.153846,4497.948717,4261.538461,4661.025641,3990.769231,4060.512820
92,4377.948717,4540.512820,4546.153846,4265.128205,4509.230769,4200.512820,4445.641025,4215.897435,4235.897435,4505.128205,4271.794871,4661.538461,3990.256411,4061.025641
93,4373.846153,4535.897435,4543.076923,4262.564102,4508.205128,4200.000000,4442.564102,4217.435897,4233.846153,4508.205128,4264.102564,4651.282051,3997.948718,4061.538461
94,4372.820512,4536.410256,4542.564102,4257.948717,4503.076923,4196.923076,4436.923076,4217.435897,4220.512820,4499.487179,4254.871794,4648.205128,4003.589743,4056.923076
95,4376.410256,4544.102564,4544.102564,4261.025641,4506.153846,4201.025641,4434.358974,4216.410256,4218.974358,4493.333333,4260.512820,4655.384615,3999.487180,4056.410256
96,4373.846153,4541.025641,4544.102564,4262.051282,4510.256410,4202.051282,4431.282051,4214.358974,4228.205128,4500.000000,4267.179487,4652.307692,3996.410257,4056.923076
97,4366.153846,4528.717948,4537.948717,4253.846153,4507.179487,4193.846153,4427.179487,4214.871794,4230.256410,4508.205128,4260.000000,4644.615384,3995.384616,4050.256410
98,4369.743589,4529.230769,4533.333333,4252.820512,4505.128205,4192.820512,4428.205128,4217.435897,4232.820512,4509.230769,4253.846153,4648.205128,3995.384616,4049.743589
99,4378.461538,4541.025641,4537.948717,4261.025641,4507.179487,4198.974358,4435.384615,4217.435897,4237.435897,4507.692307,4257.435897,4656.923076,4000.512820,4056.923076
100,4378.974358,4543.589743,4543.076923,4264.615384,4507.692307,4200.512820,4437.435897,4215.897435,4228.205128,4502.051282,4255.897435,4659.487179,4001.025641,4053.333333
101,4377.435897,4539.487179,4544.615384,4264.102564,4506.153846,4198.974358,4432.307692,4213.846153,4220.000000,4499.487179,4254.871794,4658.974358,3995.384616,4048.717948
102,4376.923076,4538.461538,4540.000000,4263.589743,4506.153846,4194.871794,4429.230769,4207.179487,4222.564102,4502.564102,4255.897435,4658.974358,3993.846154,4052.307692
103,4373.846153,4539.487179,4532.820512,4261.538461,4506.153846,4188.717948,4427.692307,4206.153846,4224.615384,4503.589743,4254.871794,4657.948717,3993.846154,4050.256410
104,4368.205128,4532.307692,4529.743589,4258.461538,4500.512820,4184.615384,4425.128205,4212.307692,4223.589743,4497.435897,4255.897435,4655.384615,3988.717949,4041.538461
105,4367.692307,4526.153846,4532.307692,4255.384615,4497.435897,4188.205128,4429.743589,4218.974358,4227.692307,4497.435897,4258.461538,4656.410256,3990.769231,4042.051282
106,4374.871794,4534.871794,4536.410256,4258.974358,4503.076923,4197.435897,4441.538461,4224.615384,4236.410256,4505.641025,4255.897435,4662.564102,3996.923077,4052.820512
107,4378.461538,4536.410256,4537.948717,4262.051282,4508.205128,4197.435897,4443.076923,4227.179487,4241.025641,4506.666666,4258.974358,4665.641025,3996.410257,4056.410256
108,4371.794871,4528.205128,4535.897435,4260.512820,4507.692307,4192.820512,4434.358974,4218.974358,4228.205128,4497.948717,4264.102564,4657.948717,3987.179488,4046.666666
109,4363.076923,4529.743589,4529.743589,4257.948717,4500.512820,4193.333333,4429.743589,4202.564102,4211.794871,4488.717948,4252.820512,4648.717948,3984.102565,4040.512820
110,4364.615384,4532.307692,4530.256410,4252.307692,4492.820512,4191.794871,4430.769230,4200.000000,4214.871794,4491.794871,4245.641025,4649.743589,3990.769231,4043.589743
111,4373.846153,4531.794871,4538.974358,4252.307692,4495.897435,4188.717948,4433.333333,4210.256410,4227.179487,4503.076923,4256.410256,4660.000000,3992.820513,4050.256410
112,4375.897435,4533.333333,4543.076923,4257.948717,4501.025641,4189.230769,4434.871794,4212.307692,4227.692307,4506.153846,4259.487179,4662.564102,3989.230770,4053.846153
113,4369.743589,4527.179487,4536.410256,4254.871794,4495.384615,4187.179487,4431.282051,4205.128205,4221.025641,4497.948717,4251.794871,4654.358974,3986.153847,4051.794871
114,4363.589743,4518.974358,4529.743589,4245.128205,4489.743589,4183.589743,4425.128205,4197.435897,4211.794871,4482.051282,4247.692307,4645.641025,3981.025642,4041.025641
115,4360.512820,4523.076923,4529.230769,4246.666666,4492.820512,4185.128205,4425.641025,4194.871794,4202.564102,4475.897435,4240.000000,4640.512820,3974.358975,4032.820512
116,4363.589743,4524.615384,4532.820512,4256.410256,4498.974358,4191.282051,4430.256410,4199.487179,4206.153846,4484.615384,4233.333333,4642.564102,3973.333334,4035.384615
117,4369.230769,4520.000000,4534.358974,4260.512820,4502.564102,4193.846153,4429.743589,4203.589743,4219.487179,4489.743589,4241.538461,4647.692307,3977.948718,4039.487179
118,4370.256410,4525.128205,4533.333333,4255.384615,4502.051282,4195.384615,4428.717948,4199.487179,4221.025641,4486.666666,4250.256410,4648.205128,3980.000000,4038.461538
119,4369.230769,4531.282051,4540.000000,4254.358974,4502.564102,4195.897435,4433.333333,4197.948717,4212.307692,4486.153846,4249.743589,4647.179487,3982.564103,4040.512820
120,4375.384615,4530.256410,4547.692307,4263.589743,4507.179487,4194.871794,4435.897435,4203.076923,4216.410256,4495.897435,4245.128205,4651.794871,3989.743590,4045.641025
121,4378.461538,4529.230769,4544.102564,4263.589743,4506.153846,4194.358974,4432.307692,4206.153846,4224.102564,4503.076923,4244.615384,4651.282051,3993.333334,4043.076923
122,4375.384615,4529.230769,4537.435897,4257.435897,4502.564102,4194.358974,4428.717948,4211.282051,4225.641025,4499.487179,4256.410256,4647.179487,3988.717949,4044.102564
123,4378.461538,4532.820512,4542.051282,4263.589743,4504.615384,4197.435897,4434.871794,4218.974358,4231.794871,4498.461538,4266.666666,4652.307692,3993.846154,4056.410256
124,4381.025641,4534.871794,4546.666666,4264.615384,4507.692307,4198.974358,4438.461538,4215.384615,4233.846153,4500.512820,4251.794871,4653.333333,4000.512820,4056.923076
125,4371.794871,4526.666666,4536.410256,4250.256410,4502.051282,4194.358974,4431.282051,4202.564102,4220.000000,4494.358974,4234.358974,4643.076923,3985.641026,4041.538461
126,4364.102564,4519.487179,4530.769230,4245.641025,4496.410256,4190.256410,4431.794871,4198.974358,4209.230769,4485.641025,4239.487179,4638.974358,3971.282052,4034.871794
127,4369.743589,4521.538461,4542.564102,4252.307692,4496.410256,4190.769230,4437.435897,4201.538461,4214.358974,4487.692307,4251.282051,4647.179487,3984.102565,4042.564102
128,4378.461538,4527.179487,4549.230769,4253.333333,4498.461538,4193.846153,4433.333333,4205.128205,4223.589743,4492.820512,4250.769230,4652.820512,3996.410257,4050.256410
129,4383.076923,4534.358974,4544.615384,4256.410256,4502.051282,4196.410256,4432.307692,4211.282051,4227.179487,4496.410256,4245.128205,4655.384615,3990.769231,4053.333333
130,4383.076923,4538.974358,4546.666666,4264.615384,4507.179487,4201.538461,4440.000000,4211.794871,4227.692307,4502.564102,4252.307692,4659.487179,3990.256411,4049.743589
131,4375.384615,4530.256410,4544.102564,4260.512820,4506.153846,4199.487179,4436.410256,4207.692307,4230.769230,4501.538461,4255.384615,4654.358974,3993.846154,4042.564102
132,4369.743589,4522.051282,4533.846153,4254.358974,4502.564102,4195.384615,4428.205128,4208.717948,4228.717948,4494.871794,4244.615384,4646.153846,3987.692308,4041.538461
133,4371.282051,4526.153846,4535.384615,4261.538461,4504.615384,4200.000000,4434.871794,4207.179487,4221.538461,4493.333333,4244.615384,4647.179487,3985.641026,4047.179487
134,4374.358974,4530.769230,4542.051282,4265.641025,4507.179487,4202.051282,4441.538461,4205.128205,4219.487179,4490.256410,4250.769230,4651.794871,3989.743590,4046.666666
135,4378.974358,4534.358974,4543.589743,4260.000000,4505.128205,4200.000000,4442.051282,4211.282051,4220.000000,4488.205128,4245.128205,4653.846153,3988.717949,4042.564102
136,4383.589743,4539.487179,4547.179487,4263.589743,4508.717948,4204.102564,4445.641025,4216.923076,4224.102564,4496.923076,4244.615384,4656.410256,3995.384616,4045.641025
137,4383.589743,4543.076923,4550.256410,4270.769230,4516.410256,4211.282051,4447.179487,4214.871794,4230.256410,4506.666666,4255.897435,4659.487179,4003.589743,4049.230769
138,4376.923076,4538.974358,4539.487179,4262.564102,4509.743589,4204.102564,4438.974358,4209.230769,4226.666666,4501.025641,4255.384615,4652.307692,3988.205129,4044.102564
139,4366.153846,4527.692307,4528.205128,4249.230769,4493.333333,4187.179487,4427.692307,4203.076923,4220.512820,4489.230769,4248.717948,4641.025641,3977.948718,4034.871794
140,4363.076923,4521.025641,4530.256410,4245.128205,4491.794871,4183.076923,4425.128205,4199.487179,4222.564102,4489.743589,4247.179487,4640.512820,3987.692308,4033.333333
141,4368.205128,4525.128205,4535.897435,4254.358974,4495.897435,4188.717948,4427.692307,4203.076923,4224.102564,4493.333333,4242.051282,4646.666666,3988.205129,4036.923076
142,4367.692307,4528.205128,4534.871794,4260.512820,4490.256410,4187.179487,4430.256410,4206.666666,4219.487179,4488.717948,4240.000000,4647.179487,3976.410257,4037.435897
143,4365.641025,4525.128205,4533.333333,4255.897435,4488.205128,4184.102564,4432.820512,4206.153846,4219.487179,4488.717948,4246.666666,4647.179487,3977.435898,4035.897435
144,4369.743589,4527.179487,4536.410256,4255.897435,4500.000000,4191.794871,4431.794871,4207.179487,4222.564102,4494.871794,4248.717948,4647.692307,3991.282052,4037.435897
145,4368.205128,4529.743589,4534.358974,4257.948717,4502.051282,4196.410256,4428.205128,4203.076923,4218.461538,4490.256410,4245.128205,4642.051282,3992.307693,4036.410256
146,4363.589743,4528.717948,4528.205128,4258.461538,4495.897435,4193.333333,4428.205128,4194.871794,4210.769230,4486.666666,4248.205128,4639.487179,3980.512821,4032.820512
147,4367.692307,4532.307692,4534.358974,4262.051282,4498.461538,4192.307692,4430.769230,4194.358974,4209.743589,4497.435897,4249.230769,4646.666666,3978.461539,4038.461538
148,4371.282051,4540.000000,4542.564102,4261.538461,4501.025641,4193.846153,4429.230769,4202.051282,4218.974358,4499.487179,4243.076923,4651.794871,3989.743590,4044.615384
149,4368.205128,4539.487179,4540.000000,4256.410256,4500.512820,4195.897435,4429.230769,4206.666666,4220.512820,4495.384615,4237.948717,4649.743589,3993.333334,4044.102564
150,4370.256410,4536.410256,4542.051282,4264.615384,4502.051282,4196.923076,4434.871794,4210.256410,4217.435897,4502.051282,4245.128205,4648.717948,3988.717949,4045.641025
151,4374.871794,4544.615384,4546.666666,4270.769230,4499.487179,4193.333333,4435.384615,4210.769230,4220.000000,4503.076923,4251.282051,4650.769230,3983.589744,4045.128205
152,4367.692307,4541.025641,4536.410256,4252.307692,4496.923076,4190.256410,4426.153846,4200.512820,4214.871794,4488.205128,4236.923076,4645.128205,3973.333334,4034.358974
153,4361.538461,4532.820512,4531.794871,4248.205128,4504.615384,4196.410256,4425.128205,4198.461538,4213.333333,4488.717948,4226.153846,4638.974358,3969.743590,4033.333333
154,4371.794871,4542.564102,4544.615384,4271.282051,4508.717948,4201.025641,4437.948717,4209.230769,4225.128205,4510.769230,4237.948717,4648.205128,3983.589744,4045.128205
155,4383.076923,4554.871794,4550.769230,4281.025641,4504.102564,4197.435897,4443.076923,4215.897435,4232.307692,4517.435897,4246.666666,4656.923076,3996.410257,4051.794871
156,4386.153846,4556.410256,4547.692307,4270.769230,4506.153846,4200.512820,4443.589743,4217.435897,4232.307692,4511.794871,4247.692307,4654.871794,3994.871795,4055.384615
157,4382.564102,4550.256410,4545.641025,4263.589743,4510.256410,4202.564102,4445.128205,4217.435897,4233.846153,4513.333333,4251.794871,4651.794871,3990.256411,4053.846153
158,4373.333333,4539.487179,4540.512820,4261.538461,4501.538461,4193.846153,4436.410256,4211.282051,4230.769230,4507.692307,4248.205128,4648.717948,3989.230770,4041.538461
159,4372.307692,4534.871794,4535.897435,4261.538461,4492.820512,4191.282051,4432.307692,4208.717948,4225.641025,4501.025641,4240.000000,4649.230769,3989.743590,4041.538461
160,4381.025641,4542.051282,4542.051282,4266.666666,4501.025641,4198.974358,4441.025641,4214.871794,4229.230769,4510.256410,4244.615384,4656.923076,3987.179488,4053.846153
161,4380.000000,4543.589743,4543.589743,4268.205128,4509.230769,4198.461538,4441.538461,4215.897435,4233.846153,4517.948717,4250.769230,4654.358974,3982.051283,4049.743589
162,4371.794871,4537.435897,4538.974358,4262.051282,4503.589743,4193.333333,4436.923076,4210.769230,4228.717948,4507.692307,4246.666666,4645.128205,3982.051283,4036.923076
163,4370.769230,4535.384615,4540.512820,4260.512820,4503.076923,4194.871794,4437.435897,4208.205128,4220.512820,4497.948717,4248.205128,4648.717948,3985.641026,4039.487179
164,4371.282051,4533.333333,4542.051282,4263.076923,4507.692307,4194.871794,4433.846153,4206.666666,4217.948717,4496.923076,4251.282051,4649.743589,3979.487180,4043.589743
165,4372.820512,4536.923076,4542.051282,4262.564102,4505.128205,4193.846153,4434.358974,4207.692307,4222.051282,4500.000000,4246.666666,4646.666666,3977.435898,4040.000000
166,4378.461538,4545.128205,4545.128205,4265.128205,4505.128205,4200.000000,4441.538461,4211.282051,4229.230769,4507.692307,4246.666666,4654.871794,3990.769231,4044.615384
167,4377.948717,4543.076923,4544.615384,4265.128205,4506.153846,4201.025641,4431.794871,4211.794871,4233.846153,4508.205128,4245.641025,4655.897435,3992.307693,4050.256410
168,4374.871794,4534.871794,4542.564102,4259.487179,4501.025641,4192.820512,4422.564102,4210.256410,4227.179487,4502.051282,4241.025641,4648.205128,3981.025642,4049.230769
169,4378.461538,4540.512820,4548.205128,4263.589743,4505.128205,4193.846153,4437.948717,4214.871794,4223.589743,4502.564102,4247.692307,4653.333333,3985.128206,4050.769230
170,4382.564102,4547.692307,4550.769230,4271.282051,4513.846153,4202.051282,4447.179487,4218.461538,4227.692307,4506.153846,4252.307692,4659.487179,3995.384616,4051.794871
171,4381.538461,4544.102564,4546.666666,4266.153846,4511.282051,4205.128205,4438.974358,4212.307692,4222.564102,4509.230769,4237.435897,4651.794871,3993.333334,4045.128205
172,4381.025641,4543.076923,4546.666666,4260.000000,4506.666666,4203.589743,4437.435897,4209.743589,4222.051282,4506.153846,4232.307692,4646.153846,3988.205129,4040.000000
173,4380.000000,4545.128205,4547.179487,4262.564102,4508.205128,4199.487179,4438.461538,4209.743589,4230.769230,4504.615384,4244.102564,4649.230769,3986.666667,4041.025641
174,4376.410256,4541.025641,4545.128205,4257.435897,4507.179487,4195.897435,4432.820512,4207.179487,4224.102564,4507.179487,4250.256410,4647.692307,3983.589744,4041.025641
175,4369.743589,4535.384615,4542.051282,4246.666666,4503.589743,4194.358974,4427.179487,4205.641025,4214.871794,4505.641025,4244.615384,4641.025641,3981.025642,4038.461538
176,4369.230769,4533.333333,4541.025641,4246.666666,4503.589743,4197.435897,4425.128205,4206.666666,4229.743589,4503.589743,4241.025641,4641.025641,3985.641026,4034.871794
177,4380.000000,4542.564102,4547.179487,4256.923076,4506.666666,4200.000000,4431.282051,4210.769230,4238.461538,4507.179487,4257.948717,4652.307692,3993.333334,4042.051282
178,4384.102564,4549.743589,4550.256410,4263.076923,4509.230769,4200.000000,4440.512820,4212.820512,4231.282051,4507.692307,4260.512820,4656.923076,3993.846154,4052.820512
179,4377.948717,4544.615384,4545.128205,4264.102564,4509.230769,4201.025641,4436.410256,4210.256410,4232.307692,4508.717948,4243.076923,4647.179487,3989.743590,4047.692307
180,4377.948717,4542.051282,4543.076923,4263.589743,4506.153846,4201.025641,4427.179487,4207.179487,4234.871794,4515.384615,4248.717948,4646.153846,3992.307693,4040.000000
181,4383.589743,4546.153846,4542.564102,4259.487179,4505.128205,4196.410256,4428.717948,4206.153846,4231.794871,4511.794871,4261.538461,4653.846153,3994.871795,4044.102564
182,4376.923076,4542.564102,4533.846153,4251.794871,4506.666666,4194.358974,4429.743589,4202.051282,4225.128205,4501.538461,4250.769230,4643.076923,3982.564103,4042.051282
183,4363.589743,4530.256410,4525.641025,4243.589743,4502.051282,4192.820512,4424.615384,4192.307692,4213.333333,4495.897435,4240.000000,4627.179487,3965.641026,4027.179487
184,4362.564102,4523.589743,4530.256410,4243.076923,4498.461538,4191.282051,4426.153846,4192.820512,4211.282051,4493.846153,4239.487179,4633.333333,3970.769231,4027.692307
185,4371.794871,4529.230769,4539.487179,4255.384615,4505.641025,4195.897435,4431.282051,4200.512820,4226.666666,4500.000000,4242.564102,4645.641025,3988.205129,4040.512820
186,4372.307692,4534.358974,4542.051282,4258.974358,4506.153846,4195.897435,4429.230769,4203.076923,4230.769230,4501.538461,4254.358974,4640.512820,3990.256411,4040.512820
187,4369.743589,4533.846153,4541.538461,4250.256410,4498.974358,4192.820512,4426.666666,4199.487179,4222.564102,4494.871794,4256.923076,4634.358974,3979.487180,4036.410256
188,4378.461538,4535.897435,4545.641025,4253.846153,4502.051282,4196.923076,4433.846153,4203.076923,4225.641025,4497.948717,4248.717948,4646.666666,3980.512821,4044.615384
189,4383.076923,4540.512820,4550.769230,4267.179487,4508.205128,4196.410256,4440.000000,4209.743589,4229.743589,4506.153846,4250.256410,4655.897435,3993.846154,4052.820512
190,4377.948717,4540.000000,4550.769230,4265.641025,4504.615384,4192.307692,4434.871794,4201.538461,4224.615384,4502.564102,4249.743589,4649.230769,3992.307693,4047.179487
191,4377.435897,4542.564102,4550.769230,4261.538461,4505.128205,4199.487179,4428.717948,4196.410256,4224.102564,4497.948717,4249.743589,4646.153846,3984.615385,4043.589743
192,4381.538461,4546.153846,4552.307692,4266.153846,4509.743589,4204.102564,4432.307692,4203.076923,4229.743589,4504.615384,4265.641025,4656.923076,3990.769231,4049.743589
193,4382.051282,4540.512820,4550.769230,4267.179487,4507.692307,4197.948717,4439.487179,4204.102564,4230.256410,4508.717948,4267.179487,4658.974358,3996.410257,4050.769230
194,4377.948717,4537.435897,4548.717948,4266.153846,4507.179487,4199.487179,4440.512820,4197.948717,4231.282051,4502.051282,4244.102564,4648.717948,3988.205129,4043.589743
195,4375.384615,4537.435897,4548.717948,4264.102564,4508.717948,4202.051282,4437.948717,4202.564102,4234.871794,4498.974358,4234.358974,4648.205128,3984.102565,4039.487179
196,4376.410256,4538.974358,4549.743589,4264.102564,4508.717948,4200.000000,4439.487179,4210.256410,4232.307692,4502.564102,4245.641025,4657.435897,3988.205129,4047.179487
197,4380.000000,4541.538461,4548.717948,4267.692307,4508.205128,4201.025641,4445.128205,4205.641025,4228.205128,4503.076923,4252.307692,4658.974358,3989.743590,4055.384615
198,4382.051282,4540.000000,4546.666666,4266.666666,4506.666666,4200.512820,4442.564102,4201.538461,4232.820512,4506.153846,4257.435897,4655.384615,3999.487180,4058.461538
199,4384.615384,4538.461538,4547.179487,4263.589743,4505.641025,4194.358974,4432.820512,4205.641025,4239.487179,4514.358974,4268.205128,4657.435897,4008.205128,4057.435897
200,4385.128205,4542.051282,4549.230769,4265.641025,4508.205128,4195.384615,4430.769230,4206.666666,4237.948717,4513.846153,4269.743589,4657.435897,4002.564102,4053.333333
201,4378.461538,4541.025641,4548.717948,4267.692307,4504.102564,4196.923076,4432.820512,4197.435897,4230.256410,4501.025641,4259.487179,4650.256410,3991.794872,4049.743589
202,4373.333333,4535.897435,4543.589743,4263.589743,4496.923076,4192.820512,4430.769230,4191.282051,4221.538461,4493.846153,4252.307692,4649.743589,3994.358975,4046.153846
203,4374.358974,4535.384615,4542.564102,4261.538461,4502.564102,4192.307692,4430.256410,4197.948717,4225.128205,4501.538461,4254.871794,4656.410256,4003.076923,4043.589743
204,4375.384615,4535.384615,4544.102564,4262.564102,4503.076923,4191.794871,4432.307692,4201.025641,4232.820512,4506.666666,4258.461538,4653.846153,3996.410257,4043.589743
205,4368.717948,4528.205128,4538.974358,4257.435897,4497.948717,4190.256410,4430.256410,4195.384615,4224.615384,4495.384615,4256.410256,4646.666666,3982.051283,4038.974358
206,4358.461538,4519.487179,4533.333333,4246.666666,4498.974358,4191.794871,4426.153846,4190.769230,4210.256410,4487.179487,4245.641025,4647.179487,3979.487180,4030.769230
207,4356.410256,4517.948717,4535.897435,4244.102564,4495.897435,4189.230769,4424.615384,4189.230769,4212.307692,4495.897435,4232.820512,4648.205128,3989.230770,4032.307692
208,4365.128205,4527.692307,4540.512820,4256.410256,4489.230769,4182.051282,4426.153846,4190.769230,4222.564102,4497.435897,4235.897435,4647.179487,3995.384616,4041.025641
209,4370.769230,4531.794871,4543.076923,4262.051282,4492.307692,4185.641025,4428.717948,4191.794871,4224.102564,4490.256410,4248.717948,4649.230769,3993.846154,4042.051282
210,4366.666666,4530.769230,4544.102564,4258.974358,4494.358974,4188.205128,4428.717948,4194.358974,4222.564102,4492.820512,4253.333333,4650.256410,3990.256411,4038.974358
211,4364.102564,4529.743589,4543.076923,4255.897435,4488.205128,4182.051282,4425.128205,4194.871794,4217.435897,4498.974358,4247.179487,4647.179487,3986.153847,4038.461538
212,4368.205128,4526.666666,4543.589743,4254.358974,4490.256410,4184.102564,4425.641025,4193.846153,4216.923076,4498.461538,4238.974358,4650.769230,3989.230770,4039.487179
213,4369.743589,4529.743589,4545.641025,4259.487179,4494.358974,4188.717948,4428.205128,4193.333333,4225.641025,4497.948717,4244.102564,4656.923076,3990.769231,4039.487179
214,4366.666666,4533.333333,4544.615384,4261.538461,4489.743589,4185.128205,4426.666666,4189.230769,4221.538461,4487.179487,4253.333333,4653.333333,3985.128206,4034.871794
215,4365.641025,4531.794871,4543.076923,4257.948717,4490.256410,4184.615384,4426.666666,4187.692307,4212.307692,4479.487179,4245.128205,4650.256410,3984.615385,4033.333333
216,4369.230769,4534.358974,4546.153846,4259.487179,4500.512820,4194.871794,4428.205128,4194.358974,4220.000000,4494.871794,4238.974358,4657.435897,3991.794872,4041.025641
217,4371.282051,4536.923076,4547.179487,4263.589743,4501.025641,4195.384615,4427.692307,4204.102564,4229.743589,4506.153846,4249.743589,4662.564102,3989.743590,4042.051282
218,4369.230769,4533.333333,4543.076923,4260.512820,4490.256410,4185.128205,4427.692307,4202.564102,4227.179487,4498.974358,4251.282051,4658.461538,3981.025642,4035.384615
219,4369.743589,4532.820512,4542.564102,4260.512820,4494.358974,4185.641025,4430.256410,4197.435897,4223.589743,4494.358974,4251.794871,4660.000000,3987.179488,4039.487179
220,4373.846153,4536.923076,4545.128205,4265.641025,4509.230769,4197.435897,4430.769230,4198.461538,4220.000000,4495.384615,4260.000000,4664.102564,3991.794872,4046.153846
221,4370.769230,4536.923076,4543.076923,4261.538461,4509.743589,4202.564102,4430.769230,4198.461538,4217.435897,4494.871794,4250.256410,4658.974358,3984.102565,4040.000000
222,4366.153846,4537.435897,4544.102564,4262.051282,4501.538461,4195.897435,4431.282051,4201.538461,4226.666666,4500.512820,4241.538461,4656.923076,3982.051283,4032.820512
223,4371.282051,4536.410256,4548.717948,4265.641025,4503.076923,4193.846153,4431.282051,4207.179487,4237.435897,4504.615384,4255.384615,4663.076923,3990.769231,4039.487179
224,4376.410256,4537.435897,4549.230769,4262.564102,4503.076923,4195.384615,4433.333333,4216.923076,4242.564102,4505.128205,4262.051282,4668.205128,3997.435898,4047.692307
225,4377.435897,4540.512820,4547.179487,4263.076923,4497.948717,4194.358974,4434.358974,4218.461538,4250.256410,4512.820512,4257.948717,4666.153846,4000.000000,4049.743589
226,4378.974358,4540.512820,4548.205128,4268.717948,4501.538461,4194.358974,4430.769230,4208.205128,4246.153846,4513.846153,4262.051282,4663.589743,3997.435898,4049.230769
227,4376.410256,4534.871794,4545.641025,4263.589743,4503.589743,4195.384615,4427.179487,4195.384615,4228.717948,4501.538461,4261.538461,4660.000000,3988.717949,4046.666666
228,4367.179487,4526.153846,4539.487179,4253.846153,4493.333333,4188.717948,4427.692307,4187.179487,4214.871794,4492.820512,4253.333333,4651.794871,3983.076924,4043.589743
229,4364.615384,4527.179487,4539.487179,4257.435897,4488.205128,4182.051282,4426.153846,4188.205128,4212.820512,4492.307692,4242.564102,4648.205128,3989.230770,4044.102564
230,4369.743589,4537.948717,4542.051282,4267.179487,4493.846153,4186.153846,4423.589743,4191.282051,4217.435897,4491.794871,4231.794871,4648.717948,3991.794872,4044.102564
231,4371.282051,4542.051282,4542.051282,4266.666666,4493.333333,4189.230769,4424.102564,4186.153846,4216.923076,4487.179487,4233.846153,4648.205128,3979.487180,4037.435897
232,4366.153846,4532.820512,4538.461538,4262.051282,4489.230769,4185.641025,4421.538461,4182.051282,4211.794871,4481.538461,4244.102564,4648.205128,3966.666667,4031.282051
233,4362.051282,4528.717948,4539.487179,4261.025641,4492.820512,4185.641025,4418.461538,4186.666666,4217.948717,4482.051282,4246.666666,4647.692307,3973.333334,4033.846153
234,4367.179487,4535.384615,4543.589743,4261.538461,4496.923076,4188.205128,4423.076923,4190.256410,4227.692307,4486.666666,4240.512820,4648.205128,3985.641026,4040.000000
235,4371.282051,4536.410256,4539.487179,4258.461538,4495.897435,4189.743589,4422.564102,4187.692307,4223.076923,4485.641025,4234.358974,4651.282051,3985.128206,4043.076923
236,4365.641025,4533.333333,4534.871794,4258.974358,4489.743589,4185.128205,4418.974358,4185.641025,4215.384615,4482.051282,4235.897435,4652.307692,3981.025642,4041.025641
237,4364.102564,4534.871794,4536.923076,4263.076923,4488.205128,4182.564102,4421.538461,4185.641025,4217.948717,4489.743589,4250.256410,4650.769230,3982.051283,4039.487179
238,4366.666666,4532.820512,4536.410256,4257.948717,4492.820512,4186.153846,4422.564102,4189.230769,4222.051282,4497.435897,4254.871794,4649.743589,3980.000000,4038.974358
239,4363.076923,4521.538461,4532.307692,4247.179487,4491.794871,4185.128205,4420.512820,4192.820512,4217.948717,4488.717948,4244.102564,4648.717948,3973.333334,4032.820512
240,4358.461538,4517.948717,4532.307692,4245.128205,4487.692307,4183.076923,4419.487179,4189.743589,4216.923076,4484.102564,4247.692307,4646.153846,3973.333334,4028.717948
241,4357.948717,4523.589743,4535.384615,4249.230769,4491.794871,4187.692307,4420.000000,4191.282051,4229.230769,4492.307692,4251.282051,4645.641025,3980.000000,4034.358974
242,4355.897435,4524.102564,4534.871794,4247.179487,4489.743589,4185.128205,4417.948717,4193.846153,4228.205128,4493.333333,4234.871794,4646.666666,3977.948718,4036.923076
243,4356.410256,4521.025641,4530.769230,4242.564102,4480.512820,4176.923076,4415.384615,4188.717948,4209.743589,4481.025641,4230.769230,4646.153846,3974.871795,4030.769230
244,4362.051282,4520.000000,4533.846153,4243.076923,4484.102564,4181.025641,4421.025641,4189.230769,4207.179487,4478.974358,4244.615384,4646.666666,3974.358975,4032.307692
245,4364.615384,4523.076923,4538.974358,4249.230769,4488.717948,4186.153846,4427.692307,4193.333333,4218.461538,4489.230769,4250.256410,4648.205128,3972.820513,4041.538461
246,4362.564102,4528.205128,4538.461538,4255.897435,4484.102564,4178.974358,4424.102564,4193.846153,4221.538461,4489.743589,4244.615384,4652.307692,3975.897436,4046.153846
247,4366.666666,4531.794871,4542.051282,4262.564102,4488.205128,4180.512820,4420.512820,4194.358974,4224.102564,4488.205128,4248.205128,4657.435897,3987.692308,4047.179487
248,4376.923076,4534.358974,4547.692307,4263.589743,4495.897435,4189.743589,4427.692307,4194.358974,4229.230769,4493.333333,4252.307692,4661.025641,3994.871795,4047.692307
249,4375.384615,4536.923076,4543.589743,4251.282051,4491.282051,4187.179487,4427.179487,4190.769230,4222.051282,4491.794871,4247.179487,4656.923076,3989.230770,4042.051282
250,4368.717948,4536.923076,4543.076923,4246.153846,4488.205128,4183.589743,4425.128205,4191.794871,4217.948717,4488.205128,4246.153846,4650.769230,3981.538462,4037.948717
251,4371.282051,4533.846153,4545.641025,4257.435897,4493.846153,4188.717948,4428.717948,4197.435897,4223.076923,4492.820512,4249.743589,4649.230769,3980.512821,4038.461538
252,4370.769230,4532.307692,4537.948717,4263.589743,4492.820512,4187.692307,4426.666666,4193.333333,4217.948717,4489.230769,4247.692307,4648.205128,3977.435898,4035.897435
253,4364.102564,4535.897435,4531.282051,4260.000000,4489.743589,4184.102564,4422.564102,4189.743589,4212.307692,4485.641025,4236.410256,4646.666666,3974.871795,4035.384615
254,4371.282051,4548.205128,4536.923076,4260.512820,4494.871794,4193.333333,4426.666666,4194.358974,4223.076923,4498.461538,4233.333333,4652.820512,3987.179488,4046.153846
255,4382.051282,4555.384615,4546.666666,4266.153846,4507.179487,4205.128205,4433.333333,4203.076923,4234.871794,4507.692307,4245.128205,4662.051282,3994.871795,4055.384615
256,4374.358974,4549.743589,4544.615384,4266.666666,4511.282051,4204.615384,4430.769230,4205.128205,4233.333333,4502.051282,4252.307692,4656.923076,3982.564103,4048.717948
257,4363.589743,4542.051282,4532.820512,4262.564102,4498.461538,4192.820512,4423.076923,4196.923076,4223.589743,4496.410256,4250.256410,4645.641025,3970.769231,4037.435897
258,4367.179487,4542.051282,4531.282051,4261.538461,4487.692307,4185.128205,4425.128205,4192.820512,4219.487179,4497.435897,4240.000000,4646.666666,3972.307693,4041.025641
259,4372.820512,4546.666666,4540.512820,4263.589743,4495.384615,4191.282051,4431.794871,4197.435897,4223.589743,4495.897435,4233.846153,4654.871794,3975.384616,4049.743589
