,AF3,F7,F3,FC5,T7,P7,O1,O2,P8,T8,FC6,F4,F8,AF4
0,4417.948717,4545.641025,4571.794871,4282.564102,4391.794871,4186.666666,4430.769230,4206.153846,4249.230769,4490.769230,4220.000000,4645.641025,3992.307693,4072.307692
1,4419.487179,4548.717948,4568.717948,4274.871794,4391.282051,4182.564102,4428.717948,4201.025641,4244.615384,4483.589743,4213.846153,4640.512820,3995.384616,4076.923076
2,4421.025641,4546.153846,4571.794871,4276.410256,4398.974358,4185.641025,4429.230769,4204.615384,4246.666666,4477.948717,4216.923076,4640.000000,4003.589743,4072.820512
3,4414.871794,4538.974358,4570.256410,4279.487179,4394.358974,4189.230769,4431.794871,4204.615384,4243.076923,4476.410256,4219.487179,4637.948717,3995.897436,4064.102564
4,4408.717948,4537.948717,4562.564102,4272.307692,4373.846153,4179.487179,4427.179487,4191.794871,4228.205128,4471.794871,4205.128205,4630.256410,3978.461539,4057.435897
5,4409.743589,4543.589743,4561.538461,4267.179487,4372.820512,4172.820512,4418.974358,4182.051282,4220.000000,4466.153846,4190.256410,4626.666666,3971.794872,4054.358974
6,4415.384615,4549.230769,4569.743589,4271.282051,4392.820512,4178.974358,4421.538461,4185.128205,4225.641025,4466.153846,4195.384615,4631.794871,3979.487180,4061.025641
7,4424.102564,4554.358974,4574.871794,4277.435897,4400.512820,4185.641025,4428.717948,4193.846153,4232.820512,4474.871794,4208.205128,4636.410256,3989.743590,4064.102564
8,4427.692307,4554.358974,4571.282051,4278.461538,4392.820512,4184.615384,4428.717948,4194.358974,4230.256410,4478.461538,4205.641025,4633.846153,3993.846154,4062.564102
9,4427.692307,4554.871794,4574.871794,4280.000000,4395.384615,4183.589743,4426.153846,4188.717948,4227.692307,4471.794871,4195.897435,4633.333333,3992.307693,4066.153846
10,4426.153846,4554.358974,4580.000000,4283.589743,4405.128205,4185.641025,4427.692307,4190.256410,4232.307692,4468.717948,4203.076923,4634.358974,3991.282052,4068.717948
11,4418.974358,4550.769230,4575.897435,4283.589743,4411.794871,4187.692307,4428.717948,4198.461538,4233.846153,4474.871794,4214.358974,4633.846153,3994.358975,4070.256410
12,4415.897435,4554.871794,4574.871794,4280.000000,4411.794871,4188.205128,4428.717948,4200.512820,4234.871794,4478.461538,4210.769230,4638.974358,4000.512820,4072.307692
13,4418.461538,4552.820512,4575.384615,4275.897435,4399.487179,4184.102564,4427.692307,4197.435897,4237.948717,4472.820512,4203.076923,4641.025641,4004.615384,4064.102564
14,4415.897435,4542.564102,4573.333333,4276.410256,4392.307692,4182.564102,4427.179487,4199.487179,4240.000000,4477.948717,4203.589743,4635.897435,3998.974359,4060.000000
15,4411.794871,4546.153846,4572.820512,4280.512820,4408.205128,4185.641025,4427.692307,4201.025641,4237.435897,4479.487179,4206.666666,4633.333333,3995.384616,4067.692307
16,4414.358974,4556.923076,4572.820512,4281.025641,4426.153846,4185.641025,4426.153846,4196.410256,4230.769230,4460.512820,4205.641025,4633.333333,3996.923077,4062.564102
17,4416.410256,4556.923076,4574.358974,4278.974358,4424.102564,4186.153846,4426.666666,4193.333333,4230.256410,4455.384615,4201.025641,4635.384615,3995.384616,4056.923076
18,4414.871794,4554.871794,4576.923076,4278.461538,4410.769230,4188.205128,4425.128205,4190.769230,4232.820512,4474.358974,4203.589743,4638.461538,3992.307693,4059.487179
19,4412.307692,4557.948717,4575.384615,4278.461538,4412.307692,4185.641025,4422.564102,4186.153846,4230.256410,4482.051282,4213.333333,4636.410256,3998.461539,4053.846153
20,4411.282051,4557.435897,4571.794871,4280.000000,4426.153846,4186.666666,4426.666666,4187.692307,4230.256410,4475.384615,4211.794871,4632.307692,4005.128205,4050.769230
21,4412.307692,4554.358974,4571.794871,4282.051282,4428.205128,4192.820512,4430.769230,4192.307692,4232.307692,4475.384615,4200.000000,4632.820512,3996.410257,4056.923076
22,4410.769230,4552.307692,4574.358974,4276.923076,4421.538461,4190.769230,4429.743589,4192.307692,4230.256410,4472.307692,4197.435897,4635.897435,3987.692308,4053.333333
23,4411.282051,4552.820512,4580.512820,4276.410256,4420.512820,4185.641025,4430.769230,4191.282051,4231.282051,4466.666666,4204.102564,4640.512820,3989.230770,4049.230769
24,4412.307692,4552.307692,4580.512820,4280.000000,4416.923076,4185.641025,4432.307692,4190.769230,4234.358974,4467.179487,4204.102564,4641.538461,3990.256411,4043.589743
25,4404.102564,4541.538461,4569.743589,4269.743589,4404.102564,4183.589743,4426.153846,4184.615384,4225.128205,4463.589743,4191.282051,4633.333333,3978.461539,4023.589743
26,4397.435897,4533.333333,4567.179487,4265.128205,4401.538461,4179.487179,4423.076923,4184.615384,4220.000000,4462.051282,4185.128205,4628.205128,3973.846154,4022.051282
27,4405.641025,4542.564102,4577.948717,4276.923076,4416.410256,4183.589743,4433.333333,4197.435897,4231.282051,4474.358974,4201.538461,4637.948717,3990.256411,4044.615384
28,4421.025641,4556.410256,4587.692307,4283.076923,4427.692307,4195.897435,4444.615384,4205.641025,4244.615384,4483.076923,4220.512820,4652.820512,4003.076923,4062.564102
29,4428.205128,4557.948717,4591.282051,4281.025641,4427.692307,4198.974358,4446.153846,4202.564102,4249.743589,4474.358974,4222.051282,4660.000000,4003.589743,4067.179487
30,4426.666666,4555.897435,4590.769230,4287.692307,4422.051282,4191.794871,4440.512820,4203.076923,4247.179487,4472.307692,4217.435897,4657.435897,4004.615384,4061.538461
31,4420.512820,4555.897435,4590.256410,4292.307692,4409.230769,4185.128205,4432.307692,4204.102564,4237.948717,4482.564102,4216.410256,4652.820512,4003.589743,4050.256410
32,4413.846153,4551.282051,4585.128205,4282.564102,4399.487179,4180.512820,4424.615384,4190.769230,4232.307692,4478.974358,4215.897435,4647.179487,3994.358975,4039.487179
33,4413.333333,4549.230769,4581.025641,4275.384615,4413.846153,4179.487179,4424.615384,4186.666666,4234.358974,4478.461538,4218.461538,4644.615384,3991.794872,4040.000000
34,4414.871794,4552.307692,4584.615384,4276.923076,4421.538461,4182.051282,4428.205128,4196.923076,4232.820512,4483.589743,4210.256410,4646.153846,3995.384616,4045.641025
35,4416.923076,4552.820512,4585.641025,4280.512820,4411.282051,4183.076923,4427.179487,4194.358974,4230.256410,4468.717948,4198.461538,4647.692307,3994.358975,4044.102564
36,4418.974358,4554.871794,4584.615384,4281.538461,4416.410256,4183.589743,4427.179487,4186.153846,4232.820512,4454.358974,4206.153846,4646.153846,3991.794872,4042.051282
37,4417.435897,4553.846153,4583.589743,4281.538461,4420.512820,4181.538461,4428.205128,4187.179487,4232.820512,4469.230769,4210.769230,4642.051282,3986.666667,4045.128205
38,4413.846153,4548.205128,4582.051282,4280.512820,4410.769230,4177.948717,4425.641025,4187.692307,4229.743589,4484.102564,4201.538461,4638.461538,3985.641026,4046.666666
39,4415.384615,4551.794871,4582.051282,4279.487179,4415.384615,4180.512820,4425.128205,4192.307692,4233.333333,4478.974358,4203.589743,4641.025641,3994.871795,4043.589743
40,4420.000000,4554.358974,4586.153846,4280.512820,4423.589743,4185.641025,4429.230769,4199.487179,4238.461538,4480.000000,4212.307692,4647.179487,3999.487180,4041.025641
41,4414.871794,4543.589743,4582.051282,4280.512820,4412.820512,4183.076923,4427.179487,4190.769230,4233.846153,4477.948717,4204.102564,4643.589743,3991.282052,4034.358974
42,4408.205128,4535.897435,4573.333333,4277.948717,4408.205128,4177.435897,4423.076923,4182.051282,4227.179487,4455.897435,4195.897435,4634.871794,3981.538462,4031.282051
43,4410.256410,4541.538461,4572.820512,4272.307692,4414.358974,4174.871794,4425.641025,4188.205128,4229.743589,4450.769230,4198.974358,4631.794871,3978.461539,4037.948717
44,4414.358974,4543.589743,4576.410256,4271.794871,4409.230769,4171.794871,4422.564102,4188.717948,4230.769230,4474.871794,4199.487179,4634.358974,3982.051283,4040.000000
45,4413.846153,4538.461538,4579.487179,4275.384615,4407.692307,4168.717948,4417.435897,4184.615384,4229.743589,4488.205128,4199.487179,4642.564102,3987.179488,4034.358974
46,4412.820512,4544.102564,4580.512820,4278.461538,4420.000000,4174.871794,4422.564102,4192.307692,4233.846153,4477.948717,4207.179487,4648.717948,3988.717949,4042.051282
47,4413.846153,4551.282051,4580.512820,4277.948717,4427.692307,4182.051282,4429.743589,4201.025641,4236.410256,4473.846153,4215.897435,4649.230769,3991.794872,4054.358974
48,4411.794871,4545.641025,4580.000000,4272.307692,4420.000000,4177.948717,4425.128205,4200.000000,4232.307692,4478.461538,4214.358974,4645.128205,3994.871795,4050.769230
49,4414.358974,4541.025641,4582.564102,4272.820512,4411.282051,4173.333333,4420.512820,4197.948717,4231.794871,4480.000000,4210.769230,4646.153846,3992.820513,4044.615384
50,4420.512820,4543.076923,4585.128205,4277.948717,4412.307692,4174.871794,4424.102564,4200.000000,4234.358974,4478.974358,4214.358974,4648.205128,3992.307693,4048.205128
51,4427.692307,4548.717948,4587.692307,4281.025641,4422.051282,4181.538461,4428.205128,4201.538461,4235.897435,4477.948717,4217.435897,4650.256410,4000.512820,4050.769230
52,4428.717948,4555.897435,4589.743589,4285.128205,4431.794871,4185.641025,4429.743589,4200.512820,4235.384615,4482.051282,4212.820512,4650.769230,4002.051282,4053.846153
53,4420.512820,4553.846153,4584.615384,4287.692307,4426.666666,4178.974358,4425.128205,4198.461538,4232.307692,4486.153846,4207.179487,4642.564102,3991.794872,4054.358974
54,4417.435897,4547.692307,4583.076923,4282.564102,4420.000000,4174.871794,4422.051282,4195.384615,4233.846153,4482.564102,4207.692307,4637.948717,3991.282052,4049.743589
55,4422.051282,4544.615384,4585.128205,4276.923076,4423.076923,4175.897435,4423.076923,4188.717948,4228.717948,4463.076923,4206.153846,4640.000000,3992.820513,4045.641025
56,4418.461538,4538.461538,4581.538461,4275.384615,4426.666666,4172.307692,4418.461538,4182.564102,4216.923076,4446.666666,4204.615384,4639.487179,3983.589744,4041.025641
57,4411.282051,4537.948717,4581.025641,4275.897435,4435.384615,4173.846153,4418.461538,4189.230769,4221.025641,4461.025641,4208.717948,4640.512820,3982.051283,4037.948717
58,4414.358974,4546.153846,4587.179487,4281.025641,4438.461538,4181.538461,4424.615384,4195.384615,4227.692307,4483.076923,4205.641025,4642.564102,3986.666667,4042.564102
59,4414.871794,4543.076923,4583.076923,4281.538461,4427.692307,4176.410256,4422.051282,4186.153846,4222.051282,4476.923076,4191.282051,4636.923076,3977.435898,4036.923076
60,4412.820512,4535.897435,4576.410256,4276.923076,4432.307692,4174.871794,4418.974358,4186.153846,4221.538461,4463.589743,4190.256410,4634.358974,3973.333334,4031.282051
61,4420.000000,4542.051282,4585.641025,4284.102564,4449.743589,4188.717948,4429.230769,4202.051282,4234.871794,4466.666666,4205.641025,4643.589743,3987.179488,4048.717948
62,4417.435897,4544.615384,4593.333333,4288.717948,4437.948717,4189.230769,4432.307692,4206.153846,4236.923076,4463.076923,4205.641025,4643.076923,3988.717949,4050.256410
63,4404.102564,4533.333333,4582.564102,4280.000000,4408.205128,4175.384615,4425.128205,4194.358974,4224.102564,4456.410256,4193.846153,4629.743589,3975.897436,4029.743589
64,4404.102564,4527.692307,4570.769230,4276.923076,4409.743589,4173.333333,4425.641025,4191.794871,4221.025641,4465.641025,4194.871794,4626.153846,3971.794872,4030.769230
65,4413.333333,4533.333333,4578.461538,4282.051282,4436.410256,4185.128205,4431.282051,4199.487179,4231.794871,4473.846153,4200.000000,4632.820512,3974.871795,4048.717948
66,4412.307692,4537.435897,4584.615384,4274.871794,4441.025641,4187.692307,4429.230769,4201.538461,4235.384615,4464.615384,4194.358974,4632.307692,3975.384616,4045.128205
67,4406.153846,4534.358974,4573.846153,4264.102564,4418.461538,4173.333333,4421.025641,4195.897435,4224.615384,4454.358974,4189.743589,4627.179487,3968.717949,4031.282051
68,4408.717948,4533.846153,4572.820512,4271.794871,4418.974358,4166.666666,4420.512820,4195.384615,4221.538461,4455.897435,4197.435897,4628.205128,3969.743590,4033.333333
69,4413.333333,4535.897435,4583.589743,4285.128205,4442.051282,4178.461538,4422.564102,4202.051282,4228.205128,4463.589743,4202.051282,4634.871794,3982.564103,4038.461538
70,4412.307692,4534.871794,4580.512820,4284.102564,4441.025641,4181.025641,4419.487179,4197.948717,4231.794871,4478.461538,4199.487179,4635.897435,3986.666667,4034.871794
71,4410.769230,4534.871794,4573.846153,4281.025641,4425.128205,4172.307692,4422.051282,4188.717948,4231.282051,4484.102564,4198.974358,4632.820512,3973.846154,4036.410256
72,4414.358974,4536.410256,4581.538461,4281.538461,4425.128205,4175.897435,4428.717948,4192.820512,4230.256410,4471.794871,4198.461538,4632.820512,3969.230770,4048.717948
73,4419.487179,4537.948717,4588.205128,4283.076923,4432.307692,4186.666666,4429.230769,4201.025641,4231.794871,4470.769230,4200.512820,4634.358974,3983.076924,4053.846153
74,4416.410256,4539.487179,4585.128205,4283.589743,4430.256410,4185.641025,4428.205128,4203.076923,4235.897435,4480.512820,4206.153846,4635.384615,3989.230770,4048.717948
75,4412.307692,4536.923076,4581.538461,4282.564102,4422.051282,4180.512820,4429.743589,4200.512820,4232.820512,4476.923076,4203.076923,4632.820512,3979.487180,4041.538461
76,4408.717948,4526.666666,4575.384615,4277.435897,4416.923076,4175.897435,4425.641025,4191.282051,4220.512820,4471.282051,4191.282051,4621.538461,3970.769231,4029.743589
77,4405.128205,4525.128205,4568.717948,4275.384615,4417.435897,4168.717948,4424.615384,4187.692307,4217.435897,4473.846153,4189.230769,4616.410256,3967.692308,4028.205128
78,4407.692307,4533.846153,4576.410256,4276.410256,4422.051282,4174.358974,4429.230769,4196.410256,4228.717948,4474.358974,4197.435897,4625.641025,3969.230770,4042.564102
79,4410.769230,4532.820512,4583.076923,4272.307692,4426.153846,4188.205128,4430.769230,4202.564102,4236.410256,4474.358974,4205.128205,4632.820512,3978.974359,4045.641025
80,4408.205128,4522.051282,4576.410256,4270.769230,4426.153846,4188.205128,4428.205128,4196.410256,4229.743589,4477.435897,4209.230769,4630.256410,3985.641026,4035.897435
81,4408.205128,4520.512820,4574.871794,4278.974358,4425.128205,4178.974358,4426.666666,4192.820512,4223.076923,4474.871794,4206.153846,4630.769230,3983.076924,4041.025641
82,4413.333333,4530.769230,4584.102564,4282.564102,4426.666666,4178.974358,4430.256410,4194.358974,4225.641025,4471.282051,4203.589743,4633.846153,3981.538462,4050.256410
83,4413.846153,4540.512820,4586.153846,4276.410256,4419.487179,4180.512820,4429.743589,4191.282051,4223.589743,4467.692307,4197.948717,4630.769230,3976.923077,4040.000000
84,4412.820512,4539.487179,4584.102564,4277.435897,4404.615384,4174.358974,4427.179487,4185.128205,4217.435897,4465.128205,4192.820512,4629.230769,3972.307693,4034.871794
85,4414.358974,4528.205128,4580.000000,4278.974358,4398.461538,4170.256410,4428.717948,4183.076923,4212.820512,4469.230769,4195.384615,4628.205128,3970.769231,4044.102564
86,4408.717948,4517.435897,4572.820512,4268.205128,4398.461538,4169.230769,4427.179487,4185.641025,4213.333333,4472.307692,4197.435897,4623.589743,3963.076924,4043.589743
87,4408.205128,4521.538461,4578.974358,4269.230769,4404.615384,4173.846153,4425.641025,4191.794871,4222.564102,4477.948717,4202.564102,4625.641025,3965.641026,4042.051282
88,4421.025641,4534.871794,4591.794871,4281.538461,4419.487179,4182.564102,4430.769230,4199.487179,4234.358974,4485.128205,4211.282051,4635.384615,3980.000000,4049.743589
89,4425.128205,4539.487179,4589.230769,4280.000000,4422.564102,4180.512820,4432.307692,4203.589743,4234.358974,4477.948717,4209.230769,4634.358974,3982.051283,4053.846153
90,4418.974358,4534.871794,4584.102564,4275.384615,4412.307692,4169.230769,4427.692307,4197.435897,4225.641025,4460.000000,4198.974358,4630.769230,3974.358975,4051.282051
91,4419.487179,4532.820512,4587.179487,4276.923076,4408.205128,4166.666666,4426.153846,4188.717948,4221.538461,4458.974358,4200.512820,4632.820512,3975.384616,4052.820512
92,4420.512820,4534.358974,4582.564102,4272.307692,4400.000000,4169.743589,4424.102564,4183.589743,4217.435897,4469.230769,4199.487179,4625.641025,3973.846154,4049.743589
93,4412.307692,4530.769230,4575.384615,4264.615384,4390.769230,4167.179487,4422.564102,4185.128205,4215.384615,4473.846153,4193.846153,4618.974358,3970.769231,4043.076923
94,4409.743589,4525.641025,4579.487179,4266.666666,4403.589743,4169.230769,4427.179487,4192.307692,4221.538461,4477.435897,4197.948717,4625.641025,3978.461539,4044.615384
95,4415.384615,4530.769230,4580.512820,4274.358974,4416.923076,4179.487179,4430.256410,4196.410256,4224.102564,4473.846153,4201.538461,4630.256410,3981.025642,4050.256410
96,4416.923076,4535.897435,4577.948717,4273.333333,4407.692307,4186.153846,4426.153846,4191.794871,4219.487179,4468.717948,4202.564102,4630.769230,3975.384616,4049.230769
97,4412.820512,4527.692307,4578.974358,4264.615384,4395.384615,4183.589743,4421.025641,4183.589743,4216.923076,4473.333333,4200.000000,4625.641025,3970.769231,4044.102564
98,4410.769230,4518.461538,4579.487179,4267.692307,4398.974358,4181.538461,4420.000000,4183.589743,4216.923076,4479.487179,4188.717948,4619.487179,3966.666667,4047.179487
99,4418.461538,4526.666666,4581.538461,4279.487179,4411.282051,4186.666666,4424.615384,4188.205128,4220.000000,4478.461538,4194.871794,4626.153846,3973.333334,4059.487179
100,4420.512820,4534.871794,4584.615384,4278.974358,4413.846153,4187.692307,4429.743589,4186.666666,4224.615384,4474.871794,4213.846153,4634.358974,3984.615385,4063.589743
101,4412.307692,4529.230769,4582.564102,4269.743589,4408.717948,4186.153846,4428.717948,4186.153846,4224.102564,4474.871794,4209.743589,4630.769230,3982.564103,4054.871794
102,4410.769230,4525.128205,4577.435897,4269.230769,4404.615384,4186.666666,4422.564102,4188.717948,4220.512820,4476.923076,4199.487179,4625.128205,3976.923077,4048.205128
103,4412.820512,4523.076923,4573.846153,4267.692307,4396.923076,4183.076923,4414.871794,4185.128205,4217.435897,4476.923076,4199.487179,4622.564102,3980.512821,4049.230769
104,4409.743589,4522.051282,4567.692307,4264.615384,4392.820512,4179.487179,4409.230769,4179.487179,4213.846153,4470.256410,4191.794871,4616.410256,3978.974359,4051.282051
105,4411.282051,4527.692307,4568.205128,4268.717948,4405.641025,4182.564102,4411.794871,4182.051282,4217.435897,4469.230769,4190.256410,4618.461538,3972.307693,4050.769230
106,4417.435897,4532.307692,4578.974358,4277.435897,4420.512820,4188.205128,4422.564102,4188.717948,4225.128205,4480.000000,4203.076923,4628.717948,3980.000000,4050.256410
107,4413.846153,4525.128205,4580.512820,4276.923076,4408.717948,4187.179487,4424.102564,4185.641025,4220.512820,4478.461538,4205.128205,4628.205128,3987.692308,4045.128205
108,4407.179487,4517.435897,4570.769230,4266.153846,4390.769230,4182.564102,4413.846153,4176.923076,4210.769230,4467.179487,4193.846153,4617.435897,3982.564103,4041.025641
109,4408.205128,4519.487179,4569.230769,4262.051282,4398.461538,4182.564102,4411.282051,4178.974358,4212.307692,4471.794871,4193.333333,4617.435897,3984.102565,4052.307692
110,4412.820512,4529.230769,4576.923076,4269.230769,4420.512820,4188.717948,4416.923076,4187.692307,4222.564102,4480.000000,4210.256410,4630.256410,3998.974359,4067.692307
111,4412.307692,4535.384615,4576.923076,4270.769230,4417.435897,4190.769230,4420.512820,4188.205128,4229.743589,4474.871794,4217.435897,4635.384615,4006.666666,4059.487179
112,4409.743589,4528.205128,4569.743589,4267.692307,4382.564102,4185.641025,4419.487179,4183.589743,4226.153846,4481.538461,4207.692307,4631.794871,4002.051282,4043.076923
113,4410.769230,4527.692307,4572.307692,4272.820512,4357.948717,4185.128205,4414.871794,4183.076923,4218.974358,4492.820512,4205.641025,4631.282051,4001.538461,4049.743589
114,4411.794871,4536.410256,4582.051282,4278.974358,4369.230769,4189.230769,4413.333333,4183.589743,4218.974358,4483.076923,4211.282051,4633.333333,4002.564102,4058.974358
115,4408.717948,4532.307692,4585.641025,4277.435897,4388.717948,4189.743589,4415.897435,4186.666666,4221.025641,4474.358974,4206.153846,4634.871794,3997.435898,4054.871794
116,4402.564102,4521.025641,4574.871794,4269.743589,4385.128205,4187.692307,4412.307692,4183.076923,4216.410256,4470.769230,4197.948717,4634.358974,3990.769231,4047.692307
117,4400.000000,4521.538461,4570.256410,4263.589743,4376.923076,4185.641025,4408.717948,4174.358974,4210.769230,4466.666666,4197.948717,4630.256410,3985.641026,4038.974358
118,4407.179487,4530.256410,4582.564102,4268.717948,4392.820512,4191.794871,4416.410256,4178.461538,4220.000000,4483.589743,4206.666666,4632.820512,3992.307693,4043.589743
119,4417.948717,4539.487179,4591.282051,4277.948717,4411.794871,4200.512820,4426.153846,4188.717948,4228.205128,4497.435897,4213.846153,4643.076923,4010.256410,4060.000000
120,4417.948717,4541.025641,4584.102564,4277.948717,4415.384615,4201.025641,4427.179487,4189.230769,4226.153846,4481.538461,4214.871794,4646.153846,4015.897435,4064.102564
121,4411.794871,4540.000000,4576.923076,4275.897435,4408.205128,4197.948717,4425.128205,4185.128205,4222.564102,4470.769230,4211.794871,4641.025641,4005.128205,4059.487179
122,4409.743589,4538.974358,4576.410256,4276.410256,4401.538461,4200.512820,4427.179487,4186.153846,4224.615384,4480.512820,4207.692307,4640.000000,3997.435898,4053.846153
123,4405.641025,4529.230769,4571.282051,4271.282051,4401.538461,4200.512820,4423.076923,4186.666666,4222.564102,4479.487179,4202.051282,4637.948717,3993.333334,4038.461538
124,4404.102564,4526.153846,4572.820512,4270.769230,4408.205128,4196.923076,4416.923076,4185.128205,4216.410256,4471.794871,4200.512820,4635.897435,3990.256411,4032.820512
125,4410.256410,4536.410256,4580.512820,4278.974358,4415.897435,4198.974358,4421.538461,4186.153846,4218.974358,4478.461538,4207.179487,4641.538461,4001.025641,4048.205128
126,4414.871794,4540.000000,4584.102564,4278.974358,4416.410256,4202.564102,4425.641025,4187.179487,4225.128205,4486.153846,4215.384615,4648.717948,4010.769230,4056.410256
127,4412.820512,4537.435897,4582.051282,4271.794871,4407.179487,4198.974358,4423.076923,4186.666666,4224.615384,4481.025641,4214.871794,4645.641025,4001.538461,4052.307692
128,4406.666666,4537.435897,4573.333333,4265.641025,4392.820512,4189.230769,4417.948717,4184.615384,4217.435897,4471.282051,4208.205128,4640.000000,3991.282052,4043.076923
129,4403.076923,4533.333333,4571.794871,4262.564102,4390.769230,4183.076923,4417.948717,4183.076923,4212.307692,4476.410256,4207.179487,4643.076923,3997.948718,4042.564102
130,4408.205128,4531.794871,4580.512820,4271.794871,4401.538461,4190.769230,4421.025641,4186.153846,4220.512820,4491.282051,4212.820512,4650.256410,4007.692307,4052.307692
131,4412.820512,4536.410256,4578.461538,4276.923076,4399.487179,4197.948717,4418.974358,4188.205128,4229.230769,4493.846153,4210.769230,4647.692307,4004.615384,4049.230769
132,4409.230769,4535.897435,4570.256410,4268.205128,4392.307692,4190.256410,4414.871794,4185.128205,4225.128205,4491.282051,4209.230769,4642.564102,4000.512820,4039.487179
133,4411.794871,4536.923076,4581.025641,4269.230769,4402.051282,4188.717948,4420.512820,4188.205128,4222.564102,4488.717948,4220.512820,4651.282051,4005.641025,4044.102564
134,4416.923076,4541.538461,4589.743589,4281.538461,4406.666666,4198.461538,4427.692307,4197.948717,4232.307692,4487.179487,4228.205128,4659.487179,4011.282051,4055.384615
135,4413.846153,4538.974358,4582.564102,4283.589743,4402.564102,4199.487179,4425.641025,4200.000000,4235.897435,4496.410256,4224.102564,4655.897435,4015.897435,4062.564102
136,4416.410256,4539.487179,4584.102564,4281.538461,4408.205128,4195.897435,4428.205128,4199.487179,4235.384615,4506.153846,4228.205128,4655.897435,4022.564102,4068.205128
137,4427.179487,4551.794871,4590.256410,4292.307692,4409.743589,4202.564102,4436.923076,4206.666666,4245.641025,4506.666666,4240.512820,4664.615384,4026.666666,4068.717948
138,4428.717948,4556.923076,4585.641025,4295.897435,4394.358974,4204.615384,4435.384615,4208.205128,4245.641025,4506.666666,4237.435897,4664.615384,4022.051282,4060.512820
139,4426.153846,4550.769230,4581.538461,4290.769230,4392.820512,4197.435897,4430.256410,4200.512820,4233.333333,4510.256410,4227.179487,4657.948717,4018.974358,4056.923076
140,4429.743589,4554.871794,4585.641025,4292.820512,4413.333333,4200.000000,4429.230769,4201.025641,4235.384615,4507.179487,4223.076923,4658.974358,4017.948717,4061.025641
141,4427.179487,4554.871794,4585.128205,4290.256410,4411.794871,4202.564102,4426.153846,4200.000000,4236.923076,4495.384615,4218.461538,4657.948717,4009.230769,4058.461538
142,4413.846153,4540.512820,4573.846153,4280.000000,4390.256410,4192.307692,4420.512820,4187.692307,4224.102564,4482.051282,4217.435897,4648.717948,4000.000000,4044.615384
143,4408.717948,4535.384615,4567.692307,4275.897435,4391.794871,4186.666666,4418.974358,4183.076923,4220.512820,4486.666666,4215.897435,4645.128205,4000.000000,4041.025641
144,4419.487179,4542.051282,4578.974358,4284.615384,4414.358974,4197.435897,4423.589743,4195.897435,4229.743589,4498.974358,4214.871794,4653.333333,4003.589743,4054.358974
145,4428.717948,4542.564102,4586.153846,4287.692307,4422.564102,4201.025641,4426.153846,4202.051282,4235.897435,4491.282051,4220.000000,4656.923076,4008.717948,4067.179487
146,4420.512820,4537.435897,4576.923076,4281.025641,4409.230769,4190.256410,4420.000000,4191.282051,4230.256410,4482.564102,4220.512820,4650.256410,4005.641025,4064.102564
147,4410.769230,4534.358974,4573.333333,4278.974358,4401.025641,4184.615384,4415.384615,4182.564102,4220.512820,4477.948717,4212.820512,4645.641025,3990.256411,4052.820512
148,4421.538461,4536.410256,4582.051282,4282.051282,4408.205128,4188.717948,4423.589743,4189.743589,4222.564102,4478.974358,4213.846153,4651.282051,3989.230770,4051.794871
149,4429.230769,4540.512820,4588.717948,4281.538461,4407.692307,4189.743589,4427.179487,4200.000000,4230.256410,4493.333333,4220.512820,4658.461538,4003.589743,4056.923076
150,4418.461538,4539.487179,4585.128205,4279.487179,4393.333333,4187.179487,4417.948717,4194.358974,4225.128205,4497.948717,4215.384615,4654.871794,4001.025641,4056.923076
151,4411.282051,4534.358974,4575.897435,4276.923076,4386.153846,4182.564102,4412.820512,4184.615384,4215.384615,4478.974358,4203.076923,4643.076923,3986.153847,4050.256410
152,4412.307692,4530.769230,4568.205128,4270.256410,4388.205128,4181.025641,4411.282051,4181.538461,4215.384615,4466.666666,4194.871794,4635.384615,3982.564103,4040.000000
153,4412.307692,4531.794871,4569.230769,4271.282051,4392.307692,4185.128205,4413.333333,4183.589743,4216.923076,4476.923076,4200.512820,4640.512820,3988.205129,4039.487179
154,4412.820512,4534.871794,4573.846153,4279.487179,4399.487179,4188.717948,4425.128205,4190.769230,4221.538461,4488.205128,4212.820512,4647.179487,3985.641026,4045.641025
155,4412.307692,4535.897435,4570.256410,4278.461538,4397.948717,4186.666666,4429.743589,4197.435897,4231.282051,4488.205128,4212.820512,4645.128205,3984.102565,4047.179487
156,4412.307692,4537.435897,4568.717948,4275.897435,4394.871794,4185.641025,4422.564102,4198.461538,4232.307692,4476.410256,4208.205128,4643.589743,3998.461539,4049.230769
157,4415.384615,4540.000000,4572.307692,4280.000000,4403.076923,4186.153846,4422.564102,4196.923076,4230.769230,4470.256410,4211.794871,4647.692307,4004.615384,4052.820512
158,4415.897435,4538.461538,4572.307692,4280.512820,4403.076923,4186.153846,4427.179487,4197.948717,4233.333333,4477.435897,4217.948717,4647.692307,3992.307693,4050.769230
159,4418.461538,4537.435897,4570.769230,4276.410256,4391.794871,4189.743589,4424.102564,4200.000000,4232.820512,4486.666666,4218.974358,4647.179487,3990.769231,4051.282051
160,4421.538461,4538.461538,4574.358974,4278.461538,4392.307692,4190.769230,4422.051282,4197.435897,4228.717948,4492.307692,4212.820512,4648.205128,4000.512820,4053.333333
161,4419.487179,4541.025641,4575.897435,4282.564102,4401.025641,4191.282051,4426.153846,4193.333333,4227.179487,4490.256410,4206.666666,4647.692307,3997.948718,4052.820512
162,4420.512820,4542.051282,4577.435897,4281.025641,4400.512820,4196.410256,4428.205128,4195.897435,4229.743589,4485.128205,4211.282051,4651.282051,3992.820513,4057.435897
163,4423.589743,4541.538461,4582.051282,4278.461538,4395.897435,4198.974358,4425.128205,4198.461538,4229.743589,4490.769230,4216.923076,4652.820512,3989.743590,4057.948717
164,4423.076923,4543.589743,4580.000000,4284.615384,4403.589743,4198.974358,4425.128205,4197.435897,4230.256410,4492.307692,4212.820512,4648.717948,3985.641026,4050.256410
165,4424.102564,4545.641025,4573.846153,4288.717948,4409.230769,4198.974358,4427.179487,4200.000000,4232.307692,4476.923076,4211.794871,4648.717948,3987.692308,4047.692307
166,4418.974358,4542.564102,4571.282051,4285.641025,4398.461538,4196.410256,4428.205128,4202.051282,4231.794871,4474.871794,4213.333333,4648.205128,3991.282052,4055.384615
167,4408.205128,4536.923076,4571.282051,4281.025641,4392.307692,4194.871794,4429.230769,4198.461538,4231.282051,4488.717948,4210.769230,4643.076923,3986.153847,4058.974358
168,4412.820512,4536.923076,4573.333333,4277.948717,4405.641025,4200.000000,4430.769230,4200.000000,4234.358974,4486.153846,4214.358974,4644.102564,3986.153847,4058.461538
169,4427.692307,4546.153846,4577.435897,4283.076923,4409.230769,4202.051282,4430.769230,4205.128205,4237.435897,4480.000000,4216.923076,4650.769230,3994.358975,4063.589743
170,4429.230769,4551.794871,4580.512820,4292.307692,4392.820512,4194.871794,4428.205128,4200.000000,4231.794871,4490.256410,4213.846153,4650.256410,3997.948718,4063.589743
171,4425.641025,4545.128205,4577.435897,4289.230769,4383.589743,4186.153846,4425.128205,4188.717948,4223.076923,4491.794871,4213.846153,4646.666666,3993.333334,4053.333333
172,4424.102564,4536.410256,4571.794871,4276.410256,4389.230769,4187.692307,4427.179487,4186.666666,4223.589743,4475.897435,4212.307692,4645.641025,3981.538462,4049.743589
173,4426.153846,4541.025641,4576.410256,4279.487179,4397.948717,4196.923076,4431.794871,4196.923076,4230.256410,4473.846153,4212.307692,4647.692307,3980.000000,4060.512820
174,4427.179487,4544.102564,4581.538461,4289.230769,4398.461538,4199.487179,4431.794871,4201.538461,4230.769230,4488.717948,4217.435897,4649.230769,3989.230770,4062.564102
175,4426.153846,4536.923076,4577.435897,4284.615384,4397.435897,4197.948717,4429.230769,4194.358974,4228.717948,4495.384615,4217.948717,4646.666666,3991.794872,4053.333333
176,4425.128205,4542.051282,4577.948717,4285.641025,4399.487179,4200.512820,4430.256410,4193.846153,4232.307692,4491.794871,4214.871794,4647.179487,3991.282052,4054.358974
177,4426.666666,4553.846153,4581.538461,4294.871794,4398.974358,4201.025641,4431.794871,4200.000000,4232.820512,4489.743589,4217.948717,4649.230769,3990.256411,4060.000000
178,4427.692307,4544.102564,4574.871794,4289.743589,4395.897435,4197.435897,4429.230769,4200.512820,4230.256410,4484.615384,4214.871794,4646.153846,3984.615385,4062.051282
179,4426.666666,4535.897435,4568.717948,4285.128205,4395.897435,4200.000000,4428.717948,4197.948717,4236.923076,4473.846153,4205.641025,4644.615384,3984.615385,4062.564102
180,4427.179487,4545.641025,4576.410256,4290.256410,4390.769230,4198.974358,4430.769230,4200.512820,4242.564102,4481.538461,4210.256410,4650.256410,3988.205129,4057.435897
181,4427.179487,4545.128205,4577.435897,4285.128205,4380.000000,4188.717948,4428.205128,4198.461538,4235.384615,4496.410256,4217.435897,4647.692307,3980.512821,4051.282051
182,4428.205128,4542.564102,4574.358974,4276.923076,4385.641025,4188.717948,4427.179487,4192.307692,4231.282051,4491.282051,4218.461538,4640.000000,3979.487180,4059.487179
183,4429.230769,4549.743589,4578.461538,4282.051282,4401.025641,4195.897435,4429.230769,4194.871794,4235.897435,4483.589743,4215.897435,4641.538461,3993.333334,4068.717948
184,4428.205128,4545.641025,4577.948717,4283.589743,4400.512820,4194.358974,4427.179487,4198.974358,4233.333333,4492.820512,4209.743589,4644.615384,3992.307693,4064.102564
185,4428.205128,4537.948717,4577.435897,4278.974358,4394.871794,4195.384615,4430.256410,4198.974358,4230.769230,4503.076923,4209.230769,4644.615384,3984.615385,4063.076923
186,4427.692307,4544.615384,4580.000000,4280.512820,4397.948717,4203.076923,4439.487179,4199.487179,4233.846153,4495.897435,4216.923076,4648.717948,3989.230770,4064.615384
187,4427.692307,4546.153846,4576.923076,4282.051282,4403.589743,4203.589743,4436.923076,4197.948717,4232.307692,4484.102564,4218.974358,4649.743589,3989.743590,4057.948717
188,4427.179487,4538.974358,4572.820512,4281.538461,4406.153846,4198.974358,4432.820512,4196.923076,4230.256410,4483.076923,4210.256410,4642.051282,3977.948718,4055.897435
189,4422.051282,4535.897435,4573.333333,4279.487179,4407.692307,4201.025641,4436.410256,4198.461538,4232.820512,4491.282051,4206.666666,4636.923076,3974.871795,4060.512820
190,4418.974358,4536.410256,4575.384615,4277.435897,4395.384615,4199.487179,4436.410256,4200.512820,4233.846153,4492.820512,4209.743589,4644.102564,3981.025642,4058.974358
191,4424.615384,4539.487179,4577.948717,4277.435897,4371.282051,4188.717948,4432.820512,4198.974358,4232.820512,4483.076923,4209.743589,4649.743589,3981.538462,4057.948717
192,4426.666666,4537.948717,4577.948717,4273.846153,4369.230769,4184.102564,4430.256410,4197.948717,4231.794871,4472.307692,4209.230769,4644.615384,3981.538462,4068.205128
193,4426.153846,4534.871794,4577.948717,4274.358974,4398.461538,4195.897435,4432.820512,4198.974358,4230.256410,4473.333333,4210.769230,4642.564102,3987.179488,4076.410256
194,4432.820512,4545.641025,4589.230769,4284.102564,4419.487179,4206.153846,4437.948717,4202.051282,4235.384615,4490.769230,4215.897435,4653.333333,3989.230770,4072.820512
195,4436.410256,4555.897435,4595.384615,4288.717948,4414.358974,4201.538461,4443.589743,4206.153846,4242.051282,4504.102564,4222.051282,4662.564102,3989.743590,4071.282051
196,4433.333333,4550.769230,4586.666666,4283.076923,4408.717948,4200.000000,4441.025641,4207.179487,4237.435897,4497.948717,4221.538461,4657.435897,3987.179488,4078.974358
197,4429.230769,4540.512820,4581.538461,4280.000000,4408.205128,4201.025641,4432.307692,4198.974358,4231.282051,4479.487179,4215.384615,4649.743589,3983.076924,4074.871794
198,4422.564102,4540.512820,4581.538461,4282.051282,4401.538461,4194.871794,4427.692307,4189.230769,4227.179487,4471.282051,4212.307692,4646.666666,3983.589744,4058.974358
199,4420.000000,4542.564102,4576.410256,4282.051282,4382.564102,4187.692307,4426.153846,4186.153846,4219.487179,4482.051282,4207.179487,4640.000000,3982.564103,4053.846153
200,4423.589743,4536.923076,4566.666666,4276.410256,4367.692307,4181.025641,4419.487179,4182.051282,4217.435897,4492.820512,4199.487179,4631.794871,3977.435898,4058.461538
201,4428.205128,4535.384615,4570.769230,4275.897435,4388.717948,4182.564102,4417.435897,4185.128205,4228.717948,4488.717948,4207.692307,4637.435897,3983.589744,4066.666666
202,4430.769230,4543.589743,4584.615384,4282.564102,4419.487179,4196.410256,4429.743589,4200.000000,4235.384615,4477.435897,4220.512820,4647.179487,3995.384616,4078.461538
203,4428.205128,4543.076923,4577.948717,4279.487179,4416.923076,4200.512820,4432.820512,4200.000000,4230.256410,4474.871794,4214.358974,4640.512820,3987.179488,4074.358974
204,4419.487179,4537.435897,4563.076923,4272.820512,4406.153846,4192.307692,4424.615384,4189.743589,4228.717948,4487.179487,4202.564102,4629.743589,3974.871795,4055.897435
205,4415.384615,4537.435897,4567.692307,4273.333333,4406.153846,4188.205128,4425.128205,4194.871794,4232.307692,4502.564102,4204.102564,4632.307692,3985.128206,4051.282051
206,4421.538461,4535.384615,4572.820512,4271.282051,4397.435897,4186.153846,4425.128205,4200.000000,4231.282051,4498.974358,4212.820512,4638.974358,3993.846154,4057.435897
207,4426.666666,4539.487179,4569.743589,4271.794871,4397.948717,4186.153846,4425.128205,4194.871794,4233.846153,4485.128205,4218.461538,4641.025641,3991.282052,4062.564102
208,4428.205128,4550.769230,4573.333333,4282.564102,4417.435897,4196.923076,4428.717948,4198.974358,4242.564102,4491.794871,4217.435897,4646.666666,3998.461539,4073.333333
209,4426.153846,4548.205128,4573.333333,4286.666666,4416.923076,4201.538461,4428.205128,4203.589743,4247.179487,4509.230769,4213.846153,4647.692307,4012.307692,4076.410256
210,4420.512820,4541.025641,4568.717948,4274.871794,4398.461538,4194.871794,4425.641025,4198.461538,4245.641025,4512.307692,4220.512820,4638.974358,4013.333333,4066.153846
211,4419.487179,4543.076923,4569.743589,4266.153846,4402.564102,4195.384615,4427.179487,4197.435897,4243.589743,4498.974358,4228.717948,4640.000000,4010.256410,4063.589743
212,4423.589743,4544.102564,4570.256410,4270.769230,4425.641025,4202.564102,4427.179487,4198.974358,4244.615384,4496.923076,4228.205128,4647.179487,4014.358974,4073.846153
213,4427.692307,4548.205128,4571.282051,4277.948717,4432.307692,4203.076923,4429.230769,4198.461538,4245.641025,4502.564102,4223.589743,4650.256410,4013.333333,4075.384615
214,4425.128205,4554.871794,4578.461538,4278.461538,4426.666666,4201.025641,4431.794871,4202.051282,4241.025641,4491.282051,4220.000000,4652.307692,4012.307692,4071.282051
215,4420.000000,4552.820512,4580.000000,4276.923076,4431.794871,4204.102564,4429.743589,4202.564102,4237.435897,4480.512820,4223.076923,4656.410256,4018.974358,4072.820512
216,4421.025641,4550.769230,4578.461538,4280.512820,4441.025641,4210.769230,4434.358974,4203.589743,4244.102564,4489.230769,4230.769230,4660.000000,4024.615384,4072.820512
217,4422.051282,4555.897435,4582.051282,4282.051282,4434.871794,4209.230769,4438.461538,4207.179487,4251.282051,4499.487179,4225.128205,4662.051282,4022.051282,4067.179487
218,4417.948717,4554.358974,4582.564102,4278.974358,4426.153846,4200.000000,4431.794871,4204.102564,4245.128205,4497.435897,4213.846153,4662.051282,4017.435897,4067.179487
219,4421.025641,4551.282051,4581.538461,4280.000000,4428.205128,4199.487179,4428.205128,4200.000000,4237.948717,4495.384615,4224.615384,4664.102564,4017.435897,4076.410256
220,4424.615384,4555.384615,4583.589743,4282.564102,4426.153846,4205.641025,4431.282051,4204.102564,4242.051282,4492.820512,4236.923076,4667.692307,4015.384615,4077.435897
221,4414.871794,4552.307692,4581.025641,4277.435897,4420.000000,4203.076923,4429.230769,4202.564102,4238.461538,4486.153846,4220.000000,4664.615384,4010.256410,4063.589743
222,4407.179487,4543.076923,4573.846153,4270.769230,4430.769230,4200.512820,4428.717948,4195.897435,4229.230769,4489.230769,4210.256410,4660.512820,4006.153846,4051.794871
223,4411.794871,4546.666666,4573.333333,4276.410256,4444.615384,4211.794871,4436.923076,4204.615384,4234.871794,4496.410256,4220.512820,4663.589743,4010.256410,4059.487179
224,4412.820512,4549.743589,4576.410256,4281.538461,4439.487179,4214.358974,4440.512820,4213.846153,4246.666666,4493.846153,4223.589743,4664.102564,4017.948717,4069.230769
225,4409.230769,4544.615384,4575.384615,4279.487179,4436.410256,4205.641025,4437.435897,4208.717948,4246.666666,4494.358974,4223.589743,4663.076923,4017.948717,4063.589743
226,4411.794871,4548.717948,4577.435897,4276.923076,4445.641025,4209.230769,4440.000000,4208.717948,4247.179487,4503.589743,4226.153846,4667.692307,4012.820512,4058.461538
227,4414.871794,4550.769230,4582.051282,4271.794871,4448.717948,4219.487179,4443.076923,4219.487179,4254.358974,4505.128205,4220.000000,4669.743589,4013.333333,4062.564102
228,4411.282051,4545.128205,4577.435897,4271.282051,4439.487179,4214.358974,4436.923076,4217.435897,4250.769230,4491.282051,4217.948717,4664.102564,4014.358974,4063.076923
229,4410.256410,4546.153846,4568.205128,4274.358974,4431.282051,4204.102564,4436.923076,4206.153846,4243.076923,4484.102564,4229.743589,4660.512820,4011.282051,4060.512820
230,4411.282051,4553.846153,4570.256410,4273.846153,4433.333333,4206.153846,4440.000000,4205.641025,4246.153846,4496.923076,4227.692307,4663.076923,4012.820512,4061.025641
231,4405.641025,4549.743589,4572.307692,4272.820512,4431.282051,4204.102564,4432.820512,4203.589743,4245.128205,4503.076923,4213.846153,4660.512820,4012.820512,4053.846153
232,4404.615384,4545.641025,4568.717948,4276.923076,4429.743589,4202.564102,4431.282051,4201.025641,4236.923076,4496.410256,4213.846153,4657.435897,4007.179487,4049.743589
233,4409.743589,4551.282051,4569.230769,4278.974358,4444.102564,4210.769230,4439.487179,4206.666666,4238.974358,4500.000000,4217.435897,4661.538461,4002.564102,4056.923076
234,4406.666666,4551.794871,4571.794871,4281.025641,4457.435897,4215.897435,4442.051282,4207.692307,4244.615384,4506.666666,4217.948717,4663.589743,4005.128205,4061.025641
235,4402.051282,4547.692307,4567.692307,4282.051282,4448.717948,4208.205128,4436.410256,4204.615384,4243.076923,4497.435897,4220.000000,4662.564102,4010.256410,4056.923076
236,4403.076923,4544.615384,4558.461538,4275.384615,4436.410256,4200.000000,4430.769230,4202.051282,4240.512820,4487.179487,4215.384615,4659.487179,4006.666666,4049.743589
237,4400.000000,4546.153846,4557.948717,4271.794871,4440.512820,4198.974358,4430.769230,4202.564102,4238.461538,4487.179487,4209.743589,4653.333333,3997.948718,4046.666666
238,4401.025641,4549.743589,4566.666666,4281.538461,4455.384615,4207.692307,4440.000000,4209.743589,4243.076923,4495.897435,4214.358974,4655.384615,4000.000000,4055.384615
239,4412.307692,4556.410256,4573.333333,4290.256410,4463.076923,4215.897435,4445.128205,4220.000000,4252.820512,4506.153846,4222.564102,4663.589743,4013.333333,4063.589743
240,4413.333333,4556.410256,4569.743589,4284.615384,4450.769230,4209.230769,4441.538461,4217.948717,4251.282051,4497.435897,4220.000000,4665.128205,4013.846153,4057.435897
241,4408.205128,4552.307692,4570.256410,4284.102564,4441.025641,4204.615384,4444.102564,4215.897435,4252.307692,4489.230769,4220.000000,4667.692307,4009.230769,4054.358974
242,4418.974358,4557.435897,4581.025641,4295.897435,4454.871794,4215.897435,4449.230769,4224.615384,4262.564102,4500.512820,4230.256410,4676.923076,4017.435897,4067.692307
243,4429.230769,4560.000000,4581.538461,4294.871794,4470.256410,4220.000000,4448.717948,4223.589743,4264.102564,4510.256410,4235.384615,4678.461538,4025.128205,4077.948717
244,4423.076923,4555.384615,4575.384615,4289.230769,4475.384615,4212.820512,4444.615384,4216.923076,4259.487179,4516.923076,4229.743589,4674.358974,4020.000000,4074.871794
245,4414.871794,4553.846153,4577.435897,4295.384615,4477.435897,4208.717948,4443.076923,4217.948717,4255.897435,4517.435897,4222.051282,4673.846153,4012.820512,4065.128205
246,4411.794871,4553.846153,4576.923076,4295.897435,4468.717948,4206.666666,4443.076923,4217.948717,4248.205128,4496.410256,4222.564102,4672.820512,4007.179487,4058.461538
247,4408.717948,4550.256410,4569.230769,4283.589743,4459.487179,4204.615384,4441.538461,4214.871794,4247.692307,4483.076923,4226.153846,4670.256410,4006.153846,4059.487179
248,4404.615384,4544.615384,4566.153846,4278.974358,4460.512820,4205.128205,4441.025641,4217.435897,4252.820512,4501.025641,4223.589743,4667.179487,4009.743589,4063.076923
249,4397.948717,4536.410256,4560.000000,4278.461538,4454.358974,4202.051282,4437.948717,4212.307692,4247.692307,4503.589743,4211.794871,4655.384615,4003.076923,4057.435897
250,4391.282051,4534.358974,4551.282051,4276.923076,4444.615384,4198.974358,4430.256410,4203.076923,4242.564102,4487.692307,4203.076923,4644.102564,3988.717949,4043.589743
251,4399.487179,4545.128205,4554.871794,4279.487179,4451.794871,4202.051282,4431.282051,4211.794871,4251.794871,4492.820512,4206.153846,4652.820512,3995.384616,4043.076923
252,4412.820512,4555.897435,4560.000000,4283.589743,4465.128205,4205.128205,4440.512820,4222.051282,4258.461538,4500.512820,4216.923076,4666.153846,4016.410256,4059.487179
253,4408.205128,4557.435897,4555.384615,4283.076923,4460.000000,4202.564102,4437.435897,4216.410256,4253.333333,4490.256410,4222.564102,4659.487179,4016.923076,4065.128205
254,4394.358974,4547.179487,4552.307692,4277.435897,4453.846153,4198.461538,4427.179487,4209.230769,4246.153846,4490.769230,4217.948717,4649.743589,4002.051282,4052.820512
255,4396.410256,4539.487179,4553.333333,4275.897435,4469.230769,4202.051282,4432.820512,4212.307692,4246.666666,4509.230769,4214.871794,4654.871794,4003.076923,4048.717948
256,4407.692307,4544.615384,4555.384615,4281.538461,4478.461538,4205.128205,4444.102564,4216.923076,4251.282051,4511.794871,4216.923076,4658.461538,4010.256410,4057.435897
257,4404.102564,4545.128205,4554.358974,4284.615384,4458.461538,4202.051282,4443.589743,4215.897435,4252.820512,4499.487179,4214.358974,4650.769230,4004.102564,4062.051282
258,4396.410256,4540.000000,4551.282051,4280.000000,4447.692307,4198.974358,4435.384615,4213.846153,4248.717948,4501.538461,4211.282051,4646.666666,3999.487180,4060.000000
259,4400.000000,4544.102564,4551.794871,4276.410256,4462.051282,4199.487179,4435.897435,4215.384615,4245.641025,4503.076923,4212.820512,4650.256410,4006.666666,4059.487179
