,AF3,F7,F3,FC5,T7,P7,O1,O2,P8,T8,FC6,F4,F8,AF4
0,4345.128205,4519.487179,4550.256410,4305.641025,4521.025641,4223.589743,4340.000000,4234.871794,4245.128205,4488.205128,4213.333333,4672.307692,4004.615384,4050.256410
1,4345.641025,4526.666666,4552.307692,4309.230769,4522.564102,4224.615384,4344.102564,4239.487179,4243.076923,4491.282051,4225.128205,4673.846153,4020.000000,4052.820512
2,4336.923076,4526.666666,4549.230769,4310.769230,4524.615384,4218.974358,4342.051282,4235.384615,4230.256410,4477.435897,4225.128205,4672.820512,4017.435897,4038.461538
3,4330.769230,4515.384615,4544.615384,4302.051282,4519.487179,4211.794871,4335.384615,4228.717948,4229.230769,4465.641025,4212.820512,4663.589743,3998.461539,4031.794871
4,4328.205128,4512.307692,4540.512820,4300.512820,4514.871794,4209.230769,4328.717948,4223.076923,4233.333333,4465.128205,4206.153846,4655.897435,3989.230770,4029.230769
5,4328.205128,4516.410256,4542.564102,4308.717948,4517.948717,4213.846153,4331.794871,4225.641025,4229.743589,4473.333333,4210.256410,4658.974358,3994.358975,4030.256410
6,4331.282051,4520.000000,4547.179487,4306.153846,4523.589743,4218.974358,4342.051282,4235.384615,4236.923076,4479.487179,4214.358974,4664.102564,4001.025641,4036.923076
7,4330.256410,4517.435897,4546.153846,4295.384615,4526.153846,4216.410256,4342.564102,4231.282051,4245.641025,4474.871794,4211.282051,4659.487179,3999.487180,4031.282051
8,4325.641025,4509.230769,4538.974358,4293.333333,4518.974358,4213.846153,4339.487179,4221.025641,4236.410256,4472.307692,4207.179487,4655.384615,3993.333334,4026.666666
9,4322.564102,4508.717948,4537.435897,4297.948717,4511.282051,4218.461538,4345.128205,4223.589743,4233.333333,4482.051282,4205.641025,4661.025641,3994.871795,4037.948717
10,4327.179487,4515.384615,4545.641025,4304.102564,4515.384615,4227.179487,4356.410256,4233.846153,4243.589743,4485.641025,4211.282051,4666.666666,3999.487180,4042.564102
11,4334.358974,4519.487179,4552.307692,4310.769230,4523.589743,4232.820512,4364.102564,4237.948717,4249.230769,4479.487179,4223.589743,4666.666666,3997.435898,4036.923076
12,4333.846153,4520.000000,4551.282051,4312.307692,4525.128205,4231.794871,4367.179487,4241.025641,4251.282051,4480.512820,4227.179487,4670.769230,4000.512820,4048.717948
13,4332.307692,4521.538461,4555.384615,4310.769230,4530.256410,4234.871794,4369.230769,4247.692307,4255.897435,4490.256410,4222.051282,4677.948717,4010.256410,4060.512820
14,4339.487179,4523.076923,4559.487179,4312.820512,4538.974358,4238.974358,4373.333333,4249.743589,4255.384615,4495.384615,4221.025641,4680.000000,4011.794871,4053.846153
15,4341.538461,4526.666666,4554.871794,4314.871794,4538.974358,4235.384615,4373.333333,4242.051282,4248.205128,4490.769230,4228.717948,4677.948717,4009.743589,4045.128205
16,4337.435897,4529.230769,4552.820512,4316.410256,4539.487179,4233.846153,4369.743589,4235.897435,4241.025641,4486.666666,4237.948717,4677.435897,4012.307692,4048.205128
17,4331.282051,4521.538461,4550.256410,4306.153846,4540.512820,4233.333333,4367.179487,4232.820512,4234.871794,4481.025641,4225.641025,4670.256410,4008.205128,4047.692307
18,4321.538461,4512.307692,4540.000000,4287.179487,4527.179487,4221.538461,4361.538461,4229.230769,4229.743589,4474.871794,4204.102564,4658.461538,4001.538461,4034.871794
19,4321.025641,4514.871794,4538.461538,4283.076923,4519.487179,4213.846153,4359.487179,4230.769230,4232.307692,4476.923076,4208.717948,4656.923076,4008.205128,4030.769230
20,4331.794871,4520.000000,4547.692307,4294.871794,4531.794871,4223.589743,4367.692307,4243.076923,4238.974358,4487.692307,4224.102564,4665.641025,4023.589743,4046.153846
21,4332.820512,4522.564102,4547.179487,4298.974358,4544.102564,4232.307692,4375.897435,4244.615384,4239.487179,4495.897435,4222.564102,4669.230769,4029.230769,4058.461538
22,4326.666666,4531.282051,4542.564102,4296.923076,4544.102564,4229.743589,4374.871794,4231.282051,4234.358974,4492.820512,4212.820512,4666.153846,4026.153846,4049.743589
23,4331.794871,4538.461538,4546.153846,4302.564102,4540.512820,4228.717948,4373.333333,4230.769230,4234.871794,4486.153846,4215.897435,4669.743589,4033.846153,4046.153846
24,4334.358974,4531.794871,4550.769230,4305.641025,4545.641025,4233.333333,4379.487179,4240.000000,4238.974358,4487.179487,4223.076923,4673.333333,4042.051282,4056.923076
25,4320.000000,4519.487179,4545.641025,4295.384615,4547.179487,4227.692307,4377.948717,4233.333333,4231.282051,4489.743589,4216.410256,4665.128205,4032.820512,4055.897435
26,4315.897435,4523.076923,4538.974358,4291.282051,4543.076923,4218.461538,4373.333333,4226.153846,4224.615384,4489.230769,4208.205128,4660.512820,4027.692307,4049.230769
27,4327.179487,4536.410256,4543.589743,4301.025641,4549.743589,4225.641025,4379.487179,4236.410256,4231.794871,4489.230769,4208.717948,4666.153846,4034.871794,4047.692307
28,4326.666666,4536.410256,4551.282051,4301.538461,4556.410256,4233.333333,4387.179487,4235.897435,4230.256410,4488.717948,4206.153846,4670.256410,4033.846153,4048.717948
29,4315.897435,4525.128205,4546.666666,4291.282051,4546.666666,4223.589743,4382.051282,4226.666666,4218.461538,4481.025641,4204.615384,4669.230769,4025.641025,4050.769230
30,4314.358974,4518.461538,4542.564102,4288.717948,4537.948717,4217.948717,4377.948717,4224.102564,4220.000000,4473.846153,4211.282051,4666.666666,4023.076923,4049.230769
31,4315.384615,4521.538461,4546.666666,4295.384615,4544.102564,4222.564102,4383.589743,4223.589743,4225.641025,4476.410256,4209.743589,4665.641025,4023.589743,4044.102564
32,4313.846153,4524.102564,4544.615384,4295.384615,4544.615384,4219.487179,4386.666666,4225.128205,4220.000000,4480.512820,4197.948717,4666.666666,4023.589743,4044.615384
33,4311.282051,4518.974358,4538.461538,4285.641025,4539.487179,4213.846153,4382.564102,4222.564102,4212.820512,4471.794871,4196.923076,4665.128205,4016.410256,4046.153846
34,4308.205128,4513.333333,4538.974358,4278.461538,4537.435897,4214.871794,4375.384615,4214.358974,4212.307692,4464.615384,4204.102564,4663.589743,4009.230769,4042.051282
35,4310.769230,4519.487179,4545.641025,4287.692307,4535.384615,4215.384615,4376.923076,4218.974358,4219.487179,4479.487179,4208.717948,4670.769230,4020.000000,4051.794871
36,4314.871794,4523.589743,4550.769230,4297.948717,4542.051282,4219.487179,4384.615384,4228.205128,4228.717948,4493.333333,4210.256410,4678.461538,4030.256410,4064.615384
37,4310.256410,4512.307692,4547.692307,4292.307692,4546.153846,4217.435897,4383.076923,4221.538461,4225.128205,4481.025641,4203.589743,4671.282051,4020.000000,4058.974358
38,4310.769230,4511.282051,4544.102564,4289.230769,4536.410256,4212.307692,4384.102564,4220.000000,4222.564102,4476.410256,4203.076923,4668.205128,4014.871794,4056.923076
39,4322.051282,4525.641025,4551.794871,4296.410256,4541.025641,4225.128205,4396.923076,4233.846153,4234.358974,4491.282051,4216.410256,4680.000000,4026.666666,4067.692307
40,4323.076923,4524.615384,4557.948717,4296.923076,4554.871794,4235.897435,4402.564102,4232.307692,4235.897435,4494.871794,4218.974358,4683.589743,4030.256410,4066.666666
41,4311.794871,4512.307692,4549.230769,4291.282051,4545.641025,4221.025641,4394.358974,4220.000000,4221.025641,4483.589743,4205.128205,4671.794871,4017.435897,4054.871794
42,4307.179487,4514.358974,4546.153846,4293.846153,4536.923076,4213.846153,4392.307692,4215.384615,4212.307692,4476.923076,4200.512820,4668.205128,4007.692307,4054.871794
43,4312.307692,4523.076923,4551.794871,4303.076923,4550.256410,4226.666666,4397.435897,4216.923076,4218.461538,4479.487179,4206.666666,4674.358974,4014.871794,4059.487179
44,4320.000000,4523.076923,4550.769230,4304.102564,4556.410256,4231.282051,4400.000000,4223.076923,4225.128205,4490.256410,4209.743589,4674.871794,4026.666666,4063.076923
45,4322.564102,4520.512820,4552.820512,4297.435897,4551.794871,4229.743589,4406.153846,4231.282051,4228.717948,4494.358974,4213.333333,4676.923076,4026.153846,4066.153846
46,4318.461538,4524.102564,4554.871794,4297.435897,4551.794871,4233.846153,4412.820512,4234.358974,4232.307692,4481.538461,4213.846153,4681.025641,4018.974358,4061.538461
47,4312.820512,4525.641025,4548.717948,4300.000000,4549.743589,4232.820512,4411.282051,4232.307692,4234.358974,4478.461538,4209.743589,4677.435897,4018.461538,4055.897435
48,4308.717948,4520.000000,4543.589743,4294.358974,4546.666666,4229.230769,4406.666666,4230.256410,4235.384615,4489.743589,4210.256410,4670.769230,4020.000000,4056.410256
49,4314.358974,4520.512820,4547.179487,4292.820512,4551.282051,4232.820512,4409.743589,4233.846153,4242.051282,4501.538461,4216.410256,4674.871794,4023.589743,4061.538461
50,4324.615384,4525.128205,4551.282051,4298.974358,4553.846153,4234.871794,4414.358974,4241.538461,4248.205128,4506.666666,4224.615384,4685.641025,4031.794871,4066.666666
51,4318.461538,4524.615384,4550.769230,4297.435897,4552.307692,4231.794871,4411.282051,4241.025641,4241.538461,4500.512820,4226.153846,4684.615384,4033.846153,4065.128205
52,4309.743589,4522.051282,4551.282051,4295.384615,4551.794871,4230.769230,4406.666666,4232.820512,4233.333333,4497.435897,4224.102564,4678.461538,4024.615384,4057.948717
53,4319.487179,4524.102564,4551.794871,4301.538461,4550.769230,4230.769230,4408.205128,4230.769230,4231.794871,4503.589743,4225.128205,4681.025641,4019.487179,4058.461538
54,4322.051282,4523.589743,4550.256410,4301.025641,4548.717948,4231.794871,4409.743589,4232.820512,4231.282051,4498.461538,4223.589743,4683.589743,4022.564102,4063.076923
55,4315.897435,4522.051282,4549.743589,4296.410256,4553.333333,4232.820512,4411.282051,4231.794871,4230.769230,4486.666666,4215.897435,4680.512820,4021.538461,4056.410256
56,4320.000000,4524.102564,4550.256410,4297.435897,4556.410256,4233.333333,4415.897435,4231.794871,4231.794871,4485.128205,4215.384615,4679.487179,4017.435897,4051.282051
57,4317.435897,4519.487179,4546.666666,4293.333333,4547.179487,4230.769230,4417.435897,4232.307692,4231.794871,4484.615384,4218.974358,4676.923076,4015.384615,4050.256410
58,4304.615384,4508.205128,4541.025641,4281.538461,4541.025641,4227.692307,4414.871794,4230.769230,4234.358974,4482.051282,4214.358974,4670.256410,4016.410256,4042.051282
59,4305.641025,4504.615384,4537.435897,4276.410256,4546.153846,4230.256410,4417.435897,4231.282051,4236.410256,4490.256410,4214.358974,4668.717948,4018.974358,4034.871794
60,4314.358974,4511.282051,4537.948717,4286.153846,4549.743589,4232.307692,4422.564102,4235.384615,4235.897435,4495.897435,4217.948717,4670.769230,4020.000000,4037.948717
61,4312.307692,4514.358974,4542.051282,4293.333333,4549.743589,4230.769230,4425.641025,4238.974358,4239.487179,4489.743589,4218.461538,4674.871794,4021.538461,4042.051282
62,4306.666666,4510.256410,4542.564102,4288.205128,4552.820512,4231.282051,4428.205128,4237.435897,4239.487179,4482.564102,4217.948717,4677.948717,4020.000000,4044.615384
63,4308.717948,4509.230769,4541.025641,4286.153846,4554.358974,4232.820512,4427.692307,4238.974358,4234.871794,4485.128205,4216.410256,4676.410256,4017.435897,4050.769230
64,4314.358974,4515.384615,4544.102564,4292.307692,4551.282051,4233.846153,4428.717948,4246.153846,4245.641025,4492.820512,4215.897435,4674.358974,4014.358974,4047.179487
65,4313.846153,4514.358974,4541.538461,4289.230769,4551.794871,4232.820512,4432.307692,4243.589743,4251.794871,4487.692307,4208.717948,4672.820512,4010.769230,4034.871794
66,4308.205128,4505.128205,4533.333333,4278.461538,4550.256410,4228.205128,4429.230769,4230.769230,4233.846153,4476.410256,4200.000000,4666.666666,4007.692307,4032.820512
67,4306.666666,4503.589743,4534.358974,4279.487179,4542.564102,4227.692307,4426.666666,4228.205128,4227.692307,4473.846153,4201.025641,4664.615384,4008.717948,4035.384615
68,4309.230769,4509.743589,4541.538461,4289.743589,4538.974358,4232.820512,4436.410256,4235.384615,4239.487179,4478.461538,4211.282051,4671.282051,4008.205128,4034.358974
69,4314.358974,4509.743589,4543.076923,4293.333333,4540.000000,4233.333333,4440.512820,4235.384615,4238.461538,4482.564102,4214.358974,4677.948717,4006.153846,4035.384615
70,4315.897435,4506.153846,4543.076923,4285.128205,4537.948717,4229.743589,4432.820512,4232.307692,4235.384615,4484.615384,4210.769230,4676.410256,4009.743589,4035.897435
71,4315.897435,4511.794871,4545.128205,4282.051282,4534.358974,4231.794871,4434.871794,4235.384615,4246.666666,4489.230769,4210.769230,4674.871794,4012.307692,4037.948717
72,4320.000000,4519.487179,4549.230769,4294.358974,4540.512820,4235.384615,4444.615384,4240.512820,4249.743589,4495.384615,4214.871794,4680.000000,4015.897435,4044.615384
73,4318.974358,4519.487179,4550.256410,4300.000000,4546.666666,4235.384615,4445.641025,4241.538461,4236.923076,4486.153846,4220.512820,4684.102564,4018.461538,4040.000000
74,4311.282051,4511.282051,4546.153846,4291.794871,4544.102564,4234.358974,4441.538461,4238.974358,4230.769230,4471.794871,4215.897435,4677.435897,4012.820512,4027.179487
75,4310.256410,4508.205128,4543.076923,4295.384615,4541.025641,4234.358974,4437.948717,4235.897435,4233.846153,4473.846153,4204.615384,4669.743589,4005.128205,4028.717948
76,4313.846153,4512.820512,4543.589743,4298.974358,4538.461538,4232.307692,4435.384615,4230.769230,4232.820512,4478.461538,4202.564102,4669.743589,4004.615384,4035.897435
77,4310.769230,4509.230769,4543.589743,4285.641025,4536.923076,4230.256410,4440.512820,4231.282051,4232.820512,4475.384615,4207.692307,4670.256410,4007.179487,4033.333333
78,4306.666666,4504.615384,4543.589743,4283.076923,4544.102564,4241.538461,4446.153846,4240.000000,4241.538461,4479.487179,4206.666666,4668.717948,4006.666666,4024.615384
79,4309.743589,4514.358974,4545.641025,4300.512820,4549.743589,4248.717948,4444.102564,4244.102564,4243.589743,4484.102564,4197.435897,4668.717948,4003.589743,4023.076923
80,4316.410256,4528.717948,4547.179487,4309.230769,4549.230769,4239.487179,4443.076923,4243.589743,4237.435897,4482.564102,4202.051282,4670.256410,4004.102564,4035.384615
81,4322.564102,4528.717948,4549.743589,4305.128205,4551.282051,4237.948717,4447.692307,4248.717948,4244.615384,4489.230769,4220.000000,4675.897435,4009.743589,4044.615384
82,4322.051282,4522.564102,4550.769230,4300.000000,4545.128205,4242.051282,4447.692307,4248.205128,4250.256410,4489.230769,4226.666666,4678.974358,4009.230769,4042.051282
83,4316.923076,4521.538461,4547.179487,4296.923076,4529.743589,4233.333333,4442.051282,4234.871794,4236.410256,4478.461538,4217.435897,4673.846153,4005.128205,4042.564102
84,4315.384615,4522.564102,4545.128205,4299.487179,4534.358974,4228.717948,4442.051282,4230.769230,4228.205128,4481.538461,4208.205128,4668.717948,4007.179487,4045.128205
85,4312.820512,4524.102564,4542.051282,4295.384615,4538.974358,4235.384615,4440.000000,4231.282051,4233.846153,4484.102564,4202.564102,4663.076923,4001.025641,4027.179487
86,4306.666666,4522.051282,4537.435897,4288.205128,4522.564102,4231.794871,4431.794871,4225.128205,4234.871794,4474.871794,4200.000000,4657.948717,3988.717949,4012.820512
87,4310.769230,4518.974358,4541.538461,4295.384615,4522.564102,4228.717948,4436.923076,4230.769230,4238.974358,4480.512820,4213.333333,4666.666666,3995.897436,4032.820512
88,4320.512820,4525.641025,4549.743589,4302.564102,4540.512820,4241.025641,4448.205128,4239.487179,4248.717948,4495.897435,4222.051282,4679.487179,4011.794871,4049.743589
89,4321.538461,4533.333333,4547.692307,4300.000000,4539.487179,4248.717948,4447.692307,4234.871794,4245.641025,4491.282051,4214.358974,4677.435897,4012.820512,4037.948717
90,4321.025641,4530.256410,4545.641025,4302.564102,4526.153846,4241.025641,4444.102564,4233.333333,4236.923076,4481.025641,4213.333333,4671.794871,4007.692307,4031.282051
91,4321.538461,4523.589743,4550.769230,4309.230769,4527.692307,4233.846153,4445.128205,4236.410256,4238.461538,4481.538461,4218.974358,4675.384615,4007.692307,4036.410256
92,4320.512820,4525.128205,4555.384615,4303.589743,4532.820512,4237.948717,4448.717948,4231.794871,4241.025641,4487.179487,4217.948717,4677.948717,4005.128205,4032.820512
93,4325.128205,4528.205128,4558.974358,4300.512820,4531.794871,4247.179487,4457.435897,4237.948717,4242.564102,4493.846153,4214.358974,4678.974358,4008.205128,4038.461538
94,4326.153846,4523.589743,4559.487179,4301.025641,4530.256410,4247.179487,4461.025641,4247.692307,4245.641025,4489.230769,4215.897435,4677.948717,4011.794871,4047.179487
95,4318.974358,4518.974358,4552.820512,4296.923076,4524.615384,4237.948717,4450.769230,4238.974358,4240.000000,4478.974358,4216.923076,4670.256410,4002.051282,4038.974358
96,4318.974358,4522.051282,4548.717948,4303.076923,4526.153846,4237.435897,4443.076923,4230.256410,4230.256410,4478.974358,4216.410256,4667.692307,3995.384616,4034.871794
97,4321.538461,4524.615384,4555.384615,4310.256410,4535.384615,4245.128205,4444.102564,4231.794871,4229.230769,4474.871794,4209.743589,4672.820512,4000.512820,4031.282051
98,4310.769230,4519.487179,4556.923076,4306.153846,4531.794871,4238.974358,4439.487179,4223.076923,4224.102564,4461.538461,4202.051282,4672.307692,3998.974359,4023.076923
99,4308.205128,4515.897435,4549.230769,4300.000000,4517.948717,4226.666666,4435.897435,4216.410256,4217.435897,4461.025641,4209.230769,4667.179487,3992.307693,4031.794871
100,4323.076923,4527.179487,4551.282051,4305.641025,4521.538461,4232.820512,4442.564102,4229.230769,4227.179487,4475.897435,4217.948717,4669.230769,3994.871795,4048.717948
101,4326.153846,4532.307692,4555.384615,4311.794871,4528.717948,4239.487179,4446.153846,4236.923076,4235.897435,4481.025641,4211.794871,4669.743589,3999.487180,4043.076923
102,4316.923076,4524.102564,4548.717948,4304.102564,4523.076923,4231.794871,4441.538461,4228.717948,4231.282051,4476.410256,4209.230769,4664.615384,3998.461539,4024.615384
103,4318.974358,4521.025641,4545.641025,4295.897435,4522.564102,4230.769230,4441.025641,4226.666666,4224.102564,4474.358974,4217.948717,4665.128205,3998.461539,4024.102564
104,4325.128205,4524.615384,4550.256410,4300.000000,4524.615384,4235.897435,4444.102564,4233.333333,4223.076923,4479.487179,4222.051282,4669.230769,4001.025641,4035.384615
105,4323.076923,4523.076923,4554.358974,4306.666666,4523.076923,4229.230769,4438.974358,4228.717948,4225.641025,4486.153846,4215.897435,4670.256410,4006.153846,4039.487179
106,4323.589743,4521.538461,4551.794871,4302.051282,4521.538461,4221.025641,4432.307692,4223.589743,4231.282051,4481.025641,4212.820512,4668.717948,4009.743589,4033.333333
107,4326.666666,4522.051282,4550.256410,4301.025641,4520.512820,4225.641025,4434.871794,4226.153846,4231.794871,4474.358974,4212.307692,4667.692307,4007.692307,4030.256410
108,4326.153846,4525.641025,4552.820512,4310.256410,4521.538461,4233.846153,4443.076923,4224.102564,4225.128205,4478.461538,4213.846153,4668.717948,4007.179487,4030.769230
109,4325.128205,4537.435897,4557.948717,4311.794871,4529.230769,4234.358974,4446.666666,4223.589743,4226.153846,4478.974358,4224.102564,4671.794871,4004.615384,4030.256410
110,4324.102564,4538.461538,4560.512820,4309.230769,4531.794871,4233.846153,4444.102564,4226.666666,4229.230769,4472.307692,4223.076923,4669.743589,3997.435898,4030.256410
111,4322.051282,4527.692307,4558.461538,4309.230769,4525.641025,4233.846153,4444.102564,4226.153846,4230.256410,4469.230769,4207.179487,4664.615384,3995.897436,4025.128205
112,4321.025641,4524.102564,4552.820512,4309.230769,4523.076923,4230.256410,4443.589743,4224.102564,4228.205128,4472.307692,4204.615384,4666.666666,3998.974359,4020.000000
113,4317.948717,4528.717948,4548.717948,4305.128205,4529.230769,4225.128205,4438.461538,4222.564102,4224.102564,4473.333333,4214.871794,4666.153846,3998.974359,4020.000000
114,4312.307692,4522.564102,4547.179487,4298.461538,4524.102564,4220.000000,4429.743589,4218.461538,4219.487179,4470.256410,4207.179487,4655.897435,3989.230770,4019.487179
115,4307.692307,4507.692307,4542.051282,4292.307692,4509.743589,4214.358974,4422.051282,4214.871794,4214.358974,4460.512820,4192.307692,4650.769230,3978.461539,4017.435897
116,4313.333333,4506.666666,4543.076923,4293.846153,4511.794871,4216.923076,4428.717948,4214.358974,4215.384615,4459.487179,4201.025641,4656.923076,3980.512821,4020.512820
117,4324.615384,4520.512820,4554.871794,4299.487179,4523.589743,4228.205128,4444.615384,4220.000000,4223.076923,4473.846153,4215.384615,4666.153846,3993.846154,4027.692307
118,4323.589743,4527.692307,4556.410256,4297.435897,4528.205128,4233.846153,4448.205128,4232.820512,4225.641025,4472.820512,4214.358974,4665.641025,3996.410257,4030.769230
119,4312.307692,4518.974358,4547.179487,4298.461538,4523.589743,4230.256410,4445.641025,4233.846153,4223.589743,4460.512820,4203.589743,4660.512820,3988.205129,4030.256410
120,4311.282051,4516.923076,4546.153846,4306.666666,4522.564102,4231.282051,4451.282051,4230.256410,4228.205128,4462.564102,4198.461538,4660.000000,3986.666667,4029.230769
121,4316.923076,4525.641025,4548.717948,4307.179487,4525.128205,4234.871794,4451.794871,4234.358974,4227.179487,4468.717948,4208.205128,4662.051282,3986.666667,4027.179487
122,4315.384615,4524.615384,4546.666666,4303.076923,4522.051282,4230.256410,4442.564102,4233.846153,4222.564102,4467.692307,4218.461538,4661.025641,3985.128206,4027.692307
123,4313.846153,4519.487179,4545.641025,4308.205128,4521.025641,4230.256410,4443.076923,4231.794871,4226.153846,4465.641025,4212.820512,4662.051282,3992.820513,4032.820512
124,4316.410256,4524.102564,4548.205128,4312.307692,4529.743589,4233.846153,4447.179487,4233.333333,4229.743589,4466.666666,4201.025641,4663.589743,3996.923077,4030.769230
125,4315.384615,4526.666666,4546.153846,4305.641025,4533.846153,4229.743589,4441.538461,4229.230769,4225.128205,4464.615384,4204.102564,4656.410256,3984.615385,4020.000000
126,4316.410256,4520.512820,4544.102564,4304.102564,4526.153846,4227.179487,4440.000000,4227.692307,4224.102564,4464.615384,4215.897435,4653.846153,3977.435898,4017.948717
127,4321.538461,4521.538461,4545.128205,4308.717948,4522.051282,4234.358974,4446.666666,4230.256410,4222.051282,4463.076923,4216.410256,4657.435897,3990.256411,4023.076923
128,4316.410256,4518.461538,4544.102564,4302.564102,4522.564102,4231.282051,4440.512820,4221.538461,4217.435897,4451.282051,4207.692307,4651.282051,3993.333334,4013.333333
129,4307.179487,4513.333333,4538.974358,4294.871794,4522.051282,4219.487179,4430.256410,4214.358974,4217.435897,4449.743589,4200.512820,4645.128205,3980.000000,3999.487180
130,4309.743589,4518.974358,4536.410256,4294.871794,4522.564102,4220.512820,4433.333333,4224.102564,4217.435897,4464.102564,4200.512820,4649.230769,3978.974359,4001.538461
131,4312.820512,4515.384615,4538.461538,4295.384615,4523.076923,4222.051282,4436.410256,4225.641025,4216.410256,4467.692307,4202.564102,4649.743589,3986.666667,4009.743589
132,4310.256410,4509.230769,4537.435897,4296.923076,4526.666666,4220.000000,4432.820512,4218.461538,4212.307692,4451.282051,4201.538461,4646.153846,3986.153847,4005.128205
133,4309.743589,4517.435897,4534.871794,4304.615384,4532.307692,4225.128205,4436.923076,4221.025641,4211.794871,4448.205128,4198.974358,4646.666666,3984.102565,3995.384616
134,4308.717948,4520.512820,4534.358974,4306.666666,4529.230769,4232.820512,4446.153846,4229.743589,4219.487179,4462.564102,4199.487179,4648.205128,3981.538462,3998.461539
135,4308.205128,4513.846153,4532.820512,4301.538461,4522.564102,4228.717948,4441.025641,4229.743589,4223.589743,4467.179487,4200.000000,4648.205128,3972.307693,4005.641025
136,4311.282051,4518.974358,4529.230769,4301.025641,4522.564102,4221.538461,4433.333333,4222.564102,4220.512820,4457.948717,4197.948717,4646.153846,3970.256411,3999.487180
137,4315.897435,4526.153846,4533.846153,4305.641025,4529.743589,4225.128205,4436.923076,4220.000000,4214.871794,4450.256410,4203.589743,4648.717948,3979.487180,3998.974359
138,4324.102564,4525.128205,4547.179487,4307.692307,4539.487179,4233.846153,4443.589743,4224.102564,4212.820512,4455.384615,4212.307692,4662.051282,3989.743590,4015.897435
139,4327.179487,4523.076923,4549.743589,4301.538461,4541.025641,4235.897435,4445.641025,4230.256410,4216.410256,4464.102564,4211.282051,4667.692307,3993.846154,4020.512820
140,4320.000000,4520.000000,4536.923076,4291.794871,4534.358974,4228.717948,4442.564102,4227.692307,4219.487179,4468.205128,4206.153846,4656.410256,3989.230770,4008.717948
141,4314.358974,4521.538461,4532.820512,4291.794871,4533.333333,4227.692307,4441.538461,4222.051282,4214.358974,4466.666666,4203.076923,4650.256410,3985.641026,4002.564102
142,4314.358974,4526.153846,4537.948717,4297.435897,4538.461538,4233.846153,4444.102564,4218.461538,4209.230769,4460.512820,4203.076923,4652.820512,3990.769231,4002.564102
143,4312.307692,4524.102564,4533.846153,4293.333333,4540.000000,4231.794871,4441.538461,4215.897435,4209.230769,4457.948717,4198.461538,4651.282051,3999.487180,4008.717948
144,4311.794871,4520.000000,4527.692307,4284.615384,4540.512820,4225.128205,4432.820512,4217.948717,4206.153846,4468.205128,4189.743589,4649.743589,4003.589743,4014.871794
145,4311.794871,4521.025641,4528.717948,4278.461538,4537.948717,4224.615384,4427.179487,4213.846153,4200.512820,4468.717948,4187.179487,4650.256410,4002.564102,4003.589743
146,4308.717948,4522.051282,4527.179487,4277.948717,4534.871794,4228.717948,4426.153846,4205.128205,4197.435897,4453.846153,4194.871794,4646.153846,4000.000000,3994.871795
147,4308.205128,4522.051282,4526.666666,4287.179487,4542.051282,4232.307692,4429.743589,4206.666666,4202.564102,4458.974358,4201.538461,4646.153846,4006.666666,4011.282051
148,4313.333333,4521.538461,4531.794871,4291.282051,4549.743589,4232.307692,4435.897435,4216.923076,4208.717948,4472.307692,4196.923076,4655.384615,4016.923076,4025.128205
149,4315.384615,4522.051282,4533.846153,4284.102564,4543.076923,4225.641025,4432.820512,4217.948717,4207.179487,4466.666666,4193.333333,4657.948717,4015.384615,4017.435897
150,4312.820512,4527.692307,4532.307692,4284.615384,4534.871794,4224.102564,4428.205128,4214.358974,4210.769230,4462.051282,4194.871794,4656.410256,4009.743589,4011.282051
151,4309.230769,4530.256410,4534.358974,4289.230769,4538.461538,4227.692307,4431.794871,4219.487179,4212.820512,4472.307692,4195.384615,4658.974358,4008.717948,4013.333333
152,4307.179487,4528.205128,4533.846153,4286.666666,4538.974358,4228.717948,4435.897435,4218.461538,4205.128205,4475.897435,4188.205128,4658.974358,4006.666666,4015.384615
153,4305.641025,4518.461538,4530.769230,4284.102564,4536.410256,4227.692307,4437.435897,4212.307692,4202.564102,4467.692307,4183.589743,4658.461538,4007.692307,4012.307692
154,4301.538461,4506.666666,4532.307692,4283.589743,4536.410256,4223.589743,4440.000000,4215.384615,4206.666666,4463.589743,4188.205128,4661.538461,4012.820512,4006.153846
155,4297.435897,4508.717948,4531.282051,4280.512820,4536.410256,4217.435897,4437.948717,4216.923076,4206.666666,4460.000000,4186.666666,4657.948717,4006.153846,4005.641025
156,4297.435897,4517.948717,4525.641025,4276.410256,4536.410256,4215.384615,4430.256410,4205.641025,4208.205128,4457.435897,4183.076923,4649.230769,3996.410257,4011.794871
157,4299.487179,4517.948717,4526.153846,4277.435897,4538.461538,4216.410256,4426.153846,4198.974358,4208.717948,4458.974358,4188.717948,4650.256410,4004.615384,4012.820512
158,4306.666666,4517.948717,4536.410256,4285.641025,4539.487179,4214.871794,4432.307692,4209.743589,4204.615384,4466.153846,4197.435897,4661.538461,4012.820512,4013.846153
159,4318.974358,4526.153846,4544.615384,4294.871794,4540.000000,4218.974358,4443.589743,4219.487179,4210.769230,4474.358974,4201.025641,4668.205128,4010.769230,4024.102564
160,4320.512820,4524.102564,4544.102564,4293.333333,4544.615384,4227.179487,4445.128205,4221.025641,4218.461538,4472.307692,4200.000000,4666.153846,4011.282051,4029.743589
161,4311.282051,4515.897435,4543.076923,4290.256410,4549.743589,4228.205128,4443.589743,4222.564102,4216.923076,4474.358974,4202.051282,4664.615384,4010.769230,4024.102564
162,4309.743589,4522.051282,4543.589743,4292.307692,4552.820512,4222.051282,4445.128205,4218.461538,4211.282051,4475.897435,4197.948717,4663.589743,4002.564102,4014.871794
163,4312.820512,4527.692307,4539.487179,4291.282051,4551.282051,4215.897435,4438.974358,4208.205128,4201.538461,4465.128205,4186.153846,4653.846153,3995.897436,4008.717948
164,4310.256410,4521.538461,4537.948717,4290.769230,4544.615384,4215.384615,4428.205128,4201.025641,4197.435897,4455.897435,4181.025641,4649.743589,3994.358975,4013.333333
165,4309.230769,4522.564102,4541.538461,4293.846153,4539.487179,4216.410256,4428.205128,4206.153846,4208.205128,4461.538461,4188.717948,4660.512820,3994.358975,4022.051282
166,4312.820512,4533.333333,4544.615384,4295.897435,4536.923076,4216.923076,4430.769230,4213.846153,4213.846153,4466.153846,4193.846153,4664.615384,3995.384616,4020.000000
167,4308.717948,4528.717948,4541.538461,4291.282051,4543.589743,4216.410256,4426.666666,4208.205128,4208.205128,4460.512820,4189.743589,4657.948717,3996.410257,4017.948717
168,4300.000000,4517.435897,4541.538461,4287.179487,4551.794871,4217.435897,4430.256410,4203.076923,4207.692307,4458.461538,4184.102564,4656.410256,3997.435898,4022.564102
169,4302.051282,4520.512820,4544.102564,4288.717948,4549.743589,4225.641025,4441.025641,4209.743589,4215.384615,4460.512820,4183.589743,4659.487179,3995.384616,4027.179487
170,4307.692307,4525.128205,4544.615384,4288.717948,4540.000000,4231.282051,4447.692307,4219.487179,4221.538461,4466.153846,4190.256410,4661.538461,3996.410257,4030.769230
171,4309.230769,4521.025641,4545.641025,4285.128205,4537.948717,4230.769230,4454.871794,4225.128205,4228.717948,4473.846153,4201.025641,4665.128205,4000.512820,4036.410256
172,4307.692307,4520.000000,4546.666666,4289.230769,4542.564102,4230.769230,4454.871794,4225.128205,4235.897435,4474.358974,4204.102564,4664.615384,4001.025641,4038.461538
173,4302.564102,4520.512820,4543.076923,4293.333333,4540.000000,4226.666666,4444.102564,4217.948717,4230.256410,4469.230769,4196.923076,4655.897435,3993.333334,4035.897435
174,4300.512820,4517.948717,4539.487179,4289.230769,4535.897435,4218.974358,4439.487179,4212.820512,4217.948717,4469.230769,4195.897435,4654.871794,3989.230770,4033.846153
175,4307.179487,4521.538461,4543.589743,4294.871794,4544.615384,4221.025641,4446.153846,4220.000000,4222.051282,4476.410256,4204.102564,4664.102564,3998.974359,4037.948717
176,4311.282051,4530.256410,4548.205128,4301.025641,4554.871794,4228.717948,4445.128205,4225.128205,4232.307692,4475.384615,4203.076923,4666.666666,4006.666666,4040.512820
177,4314.358974,4535.897435,4549.230769,4296.923076,4551.282051,4231.282051,4442.051282,4221.025641,4232.307692,4471.794871,4197.435897,4664.102564,4006.153846,4045.128205
178,4318.974358,4536.410256,4554.871794,4302.564102,4554.871794,4232.307692,4452.307692,4224.102564,4235.384615,4481.538461,4205.128205,4670.256410,4005.128205,4052.307692
179,4315.897435,4537.435897,4562.564102,4312.307692,4567.179487,4233.846153,4460.512820,4232.820512,4249.230769,4490.256410,4217.948717,4674.871794,4004.615384,4048.205128
180,4314.871794,4542.564102,4563.076923,4306.153846,4564.102564,4236.410256,4453.333333,4229.743589,4250.769230,4481.538461,4212.307692,4670.769230,4001.538461,4035.897435
181,4319.487179,4538.461538,4560.000000,4297.948717,4558.974358,4232.307692,4444.102564,4220.000000,4233.846153,4472.820512,4198.461538,4669.743589,4002.051282,4039.487179
182,4318.974358,4528.205128,4557.435897,4296.923076,4560.512820,4220.512820,4443.076923,4220.512820,4222.564102,4474.358974,4198.974358,4669.743589,4001.538461,4052.820512
183,4318.461538,4532.820512,4558.974358,4303.076923,4556.410256,4220.512820,4443.589743,4221.538461,4225.128205,4471.282051,4204.102564,4667.692307,3995.384616,4051.282051
184,4318.461538,4541.025641,4560.000000,4308.717948,4552.307692,4227.179487,4443.076923,4217.435897,4229.230769,4464.615384,4201.025641,4667.692307,3992.307693,4043.076923
185,4310.256410,4530.769230,4552.307692,4305.641025,4554.358974,4221.025641,4443.076923,4215.897435,4228.205128,4464.615384,4197.948717,4663.589743,3993.333334,4045.641025
186,4303.589743,4520.512820,4545.641025,4301.025641,4553.846153,4217.435897,4442.564102,4216.410256,4229.743589,4472.820512,4199.487179,4658.461538,3996.410257,4051.794871
187,4307.179487,4523.589743,4548.205128,4302.051282,4552.307692,4222.564102,4444.615384,4216.410256,4232.820512,4472.820512,4197.435897,4659.487179,3996.410257,4052.307692
188,4310.769230,4527.179487,4549.230769,4300.512820,4559.487179,4227.179487,4447.692307,4218.974358,4232.820512,4463.076923,4197.435897,4661.538461,3992.307693,4053.333333
189,4308.717948,4528.717948,4543.076923,4298.974358,4565.641025,4228.205128,4446.153846,4222.564102,4228.717948,4463.589743,4196.923076,4659.487179,3990.769231,4058.461538
190,4306.666666,4528.717948,4541.025641,4300.512820,4562.051282,4227.692307,4443.589743,4222.051282,4227.692307,4476.410256,4196.410256,4656.923076,3997.435898,4060.512820
191,4310.256410,4526.153846,4544.615384,4296.410256,4555.384615,4225.641025,4443.589743,4223.589743,4231.794871,4480.512820,4206.666666,4661.025641,4001.025641,4064.615384
192,4311.794871,4522.051282,4540.000000,4287.179487,4552.307692,4224.102564,4445.641025,4223.076923,4231.794871,4469.743589,4209.743589,4663.589743,3995.384616,4060.000000
193,4309.743589,4522.564102,4532.307692,4288.205128,4550.769230,4227.179487,4445.128205,4218.461538,4226.153846,4466.666666,4200.000000,4658.974358,3991.282052,4043.589743
194,4312.307692,4528.205128,4533.333333,4293.333333,4548.205128,4227.692307,4444.102564,4215.384615,4227.692307,4470.769230,4198.974358,4657.435897,3995.384616,4046.153846
195,4311.282051,4529.230769,4534.871794,4288.717948,4545.128205,4223.076923,4445.641025,4217.435897,4234.871794,4467.179487,4195.897435,4658.974358,3996.410257,4059.487179
196,4304.102564,4522.051282,4530.256410,4284.102564,4538.974358,4215.897435,4442.051282,4215.384615,4230.256410,4464.615384,4184.615384,4653.846153,3987.179488,4050.256410
197,4306.153846,4520.000000,4530.256410,4291.794871,4535.897435,4211.794871,4431.794871,4209.230769,4222.051282,4468.717948,4189.743589,4652.307692,3983.076924,4038.461538
198,4310.256410,4522.051282,4532.820512,4295.384615,4537.435897,4209.743589,4426.666666,4210.256410,4225.128205,4471.282051,4204.615384,4654.358974,3990.256411,4046.153846
199,4301.538461,4518.974358,4533.333333,4291.794871,4536.923076,4209.230769,4429.230769,4214.871794,4232.307692,4471.794871,4203.589743,4654.358974,3993.333334,4046.666666
200,4301.025641,4519.487179,4534.358974,4292.820512,4538.974358,4215.897435,4434.358974,4216.923076,4233.846153,4469.230769,4191.282051,4654.358974,3988.717949,4039.487179
201,4308.205128,4524.615384,4535.384615,4293.846153,4539.487179,4216.923076,4439.487179,4216.923076,4229.230769,4460.512820,4186.666666,4654.871794,3984.615385,4045.641025
202,4302.051282,4520.000000,4538.974358,4289.743589,4536.410256,4215.897435,4444.102564,4214.871794,4227.692307,4459.487179,4193.846153,4654.871794,3985.641026,4049.743589
203,4297.948717,4510.769230,4546.153846,4288.205128,4537.948717,4218.974358,4446.153846,4220.512820,4231.794871,4470.769230,4196.923076,4660.512820,3986.666667,4049.743589
204,4307.692307,4513.333333,4546.666666,4287.692307,4541.538461,4218.461538,4447.692307,4229.230769,4234.871794,4473.333333,4194.871794,4667.692307,3987.692308,4059.487179
205,4313.846153,4524.615384,4538.974358,4293.846153,4540.000000,4217.948717,4446.666666,4226.666666,4234.358974,4466.153846,4200.000000,4664.102564,3987.692308,4062.564102
206,4302.564102,4524.102564,4533.846153,4297.948717,4538.974358,4217.435897,4442.051282,4217.435897,4230.256410,4465.128205,4197.435897,4653.333333,3979.487180,4046.153846
207,4292.820512,4516.923076,4531.794871,4290.256410,4544.615384,4215.384615,4440.000000,4214.871794,4222.051282,4463.589743,4181.538461,4645.641025,3971.282052,4037.948717
208,4298.974358,4520.512820,4530.769230,4289.230769,4552.307692,4216.410256,4443.076923,4217.435897,4224.615384,4465.128205,4181.538461,4648.717948,3973.846154,4051.794871
209,4304.102564,4524.102564,4532.820512,4295.384615,4552.307692,4221.025641,4443.589743,4214.871794,4232.307692,4468.205128,4191.794871,4653.333333,3975.384616,4058.461538
210,4299.487179,4521.025641,4535.384615,4294.871794,4544.615384,4221.538461,4442.564102,4212.307692,4224.102564,4464.615384,4191.282051,4650.256410,3972.820513,4048.717948
211,4301.025641,4520.512820,4534.358974,4290.256410,4545.128205,4217.948717,4443.076923,4215.897435,4221.538461,4461.538461,4190.769230,4649.743589,3977.948718,4038.974358
212,4310.769230,4524.102564,4536.923076,4292.820512,4553.846153,4217.435897,4444.102564,4225.641025,4239.487179,4468.717948,4196.410256,4657.948717,3985.641026,4043.076923
213,4311.794871,4527.179487,4544.615384,4298.461538,4554.871794,4219.487179,4443.589743,4228.717948,4246.666666,4480.000000,4201.538461,4665.128205,3986.666667,4055.897435
214,4306.153846,4524.102564,4543.589743,4295.384615,4551.794871,4218.974358,4441.025641,4221.025641,4231.794871,4476.410256,4200.512820,4661.025641,3985.641026,4063.589743
215,4306.666666,4517.435897,4536.923076,4288.205128,4553.846153,4214.871794,4441.538461,4218.461538,4225.128205,4467.179487,4195.897435,4657.435897,3988.205129,4059.487179
216,4309.743589,4517.435897,4534.358974,4288.205128,4555.384615,4217.948717,4445.128205,4219.487179,4231.282051,4467.692307,4193.846153,4660.000000,3990.256411,4052.820512
217,4305.641025,4526.153846,4536.923076,4295.384615,4553.333333,4226.153846,4447.179487,4217.948717,4232.820512,4475.384615,4198.974358,4661.025641,3983.076924,4050.256410
218,4297.948717,4521.025641,4534.358974,4291.794871,4552.820512,4223.589743,4446.153846,4217.948717,4225.641025,4476.410256,4200.512820,4655.897435,3972.307693,4045.641025
219,4296.410256,4506.666666,4527.179487,4283.076923,4551.282051,4215.897435,4442.051282,4214.871794,4222.051282,4464.615384,4187.692307,4648.717948,3970.256411,4041.538461
220,4299.487179,4512.307692,4527.179487,4289.230769,4550.769230,4216.410256,4441.025641,4214.871794,4222.564102,4457.435897,4181.538461,4648.717948,3972.820513,4043.076923
221,4299.487179,4526.153846,4532.820512,4298.974358,4555.897435,4221.025641,4444.615384,4219.487179,4217.948717,4458.461538,4190.256410,4652.307692,3974.358975,4045.128205
222,4297.948717,4523.589743,4532.820512,4294.871794,4556.410256,4224.615384,4444.615384,4217.435897,4217.948717,4463.076923,4190.769230,4652.820512,3976.410257,4052.307692
223,4304.615384,4518.461538,4533.846153,4292.820512,4553.333333,4228.717948,4441.538461,4220.000000,4230.769230,4470.769230,4189.230769,4654.358974,3982.051283,4060.512820
224,4313.333333,4523.589743,4539.487179,4302.564102,4563.076923,4233.846153,4451.282051,4233.846153,4237.948717,4476.410256,4202.051282,4657.435897,3986.666667,4054.871794
225,4311.794871,4526.153846,4538.974358,4302.051282,4571.282051,4235.384615,4459.487179,4235.897435,4231.794871,4470.256410,4204.102564,4656.410256,3984.615385,4044.102564
226,4303.589743,4521.025641,4533.333333,4292.820512,4561.025641,4226.666666,4449.743589,4223.589743,4227.179487,4460.000000,4186.153846,4652.820512,3977.948718,4044.615384
227,4305.128205,4520.000000,4532.820512,4291.282051,4551.794871,4216.410256,4440.000000,4224.102564,4228.717948,4460.000000,4183.076923,4650.769230,3976.410257,4050.769230
228,4310.256410,4523.589743,4533.846153,4294.871794,4554.871794,4216.923076,4441.538461,4231.794871,4233.846153,4464.615384,4200.000000,4650.769230,3981.025642,4055.384615
229,4310.769230,4523.589743,4532.307692,4297.435897,4556.410256,4221.538461,4443.076923,4232.820512,4235.384615,4467.179487,4206.666666,4651.794871,3986.666667,4060.000000
230,4311.282051,4523.589743,4534.871794,4298.974358,4550.769230,4220.000000,4442.051282,4227.179487,4230.769230,4467.179487,4194.871794,4652.820512,3987.692308,4058.974358
231,4311.282051,4526.153846,4541.025641,4298.461538,4548.205128,4222.564102,4444.615384,4221.025641,4229.743589,4462.564102,4188.205128,4652.820512,3980.000000,4055.384615
232,4309.743589,4524.102564,4541.538461,4297.948717,4548.717948,4231.794871,4453.333333,4222.564102,4234.358974,4458.461538,4192.307692,4653.333333,3974.871795,4058.461538
233,4306.153846,4524.102564,4535.384615,4298.974358,4550.256410,4230.769230,4455.384615,4221.538461,4230.769230,4456.923076,4191.794871,4651.794871,3980.000000,4057.948717
234,4306.666666,4528.717948,4532.307692,4296.410256,4553.333333,4223.589743,4448.717948,4220.000000,4224.615384,4455.897435,4185.128205,4652.307692,3985.641026,4052.307692
235,4311.794871,4526.666666,4533.333333,4293.846153,4551.794871,4226.153846,4442.564102,4222.564102,4227.692307,4458.461538,4185.128205,4652.820512,3985.128206,4055.897435
236,4316.923076,4523.076923,4534.358974,4296.410256,4547.179487,4232.820512,4445.641025,4225.641025,4232.820512,4465.641025,4196.410256,4652.307692,3982.564103,4065.641025
237,4317.435897,4524.102564,4533.846153,4295.384615,4546.666666,4230.256410,4453.333333,4225.641025,4231.282051,4465.641025,4202.051282,4652.820512,3976.410257,4064.615384
238,4312.820512,4522.564102,4531.282051,4291.794871,4543.589743,4228.717948,4452.820512,4221.025641,4226.153846,4451.282051,4189.230769,4648.717948,3970.256411,4053.846153
239,4307.692307,4521.538461,4529.230769,4291.282051,4541.538461,4232.820512,4452.820512,4218.461538,4226.666666,4448.205128,4181.538461,4643.589743,3973.333334,4047.692307
240,4303.076923,4524.102564,4529.230769,4293.333333,4546.153846,4232.307692,4455.897435,4221.025641,4226.666666,4456.923076,4187.179487,4646.153846,3975.897436,4044.102564
241,4304.615384,4523.076923,4529.230769,4292.820512,4543.589743,4230.256410,4451.282051,4221.025641,4223.589743,4454.358974,4189.743589,4650.256410,3971.794872,4046.153846
242,4314.871794,4522.564102,4532.820512,4295.384615,4534.871794,4230.256410,4447.692307,4220.512820,4225.641025,4451.282051,4191.794871,4655.384615,3975.897436,4059.487179
243,4324.615384,4524.615384,4536.923076,4297.948717,4535.897435,4232.820512,4457.435897,4229.230769,4232.820512,4466.153846,4203.076923,4657.948717,3988.205129,4067.692307
244,4325.128205,4527.179487,4534.871794,4296.410256,4536.410256,4233.846153,4462.564102,4234.358974,4238.461538,4481.538461,4204.615384,4656.410256,3991.282052,4058.974358
245,4324.615384,4533.333333,4535.384615,4301.538461,4533.846153,4232.307692,4455.897435,4229.743589,4238.974358,4474.358974,4196.410256,4658.461538,3986.666667,4051.794871
246,4329.743589,4538.461538,4542.051282,4307.692307,4536.923076,4231.282051,4455.897435,4230.256410,4236.923076,4460.512820,4198.974358,4662.564102,3989.230770,4062.564102
247,4331.282051,4538.974358,4545.128205,4303.076923,4539.487179,4233.333333,4459.487179,4234.871794,4235.897435,4462.051282,4205.641025,4663.076923,3993.846154,4074.358974
248,4330.769230,4534.871794,4545.128205,4294.871794,4536.410256,4233.333333,4458.461538,4235.384615,4236.923076,4469.230769,4202.051282,4665.128205,3986.666667,4071.282051
249,4325.641025,4523.076923,4541.538461,4291.794871,4528.717948,4225.128205,4451.282051,4227.179487,4228.717948,4458.974358,4193.846153,4662.564102,3974.358975,4058.461538
250,4318.461538,4516.410256,4530.769230,4291.794871,4521.025641,4215.897435,4441.538461,4215.384615,4214.358974,4441.025641,4189.743589,4648.205128,3970.769231,4056.410256
251,4316.923076,4524.102564,4524.615384,4293.333333,4517.948717,4214.871794,4441.538461,4212.307692,4214.358974,4442.051282,4188.717948,4641.025641,3973.333334,4061.025641
252,4320.000000,4527.179487,4526.666666,4296.410256,4521.538461,4221.025641,4444.615384,4215.897435,4220.512820,4451.794871,4187.692307,4645.128205,3978.974359,4056.923076
253,4324.615384,4523.076923,4530.256410,4298.974358,4528.717948,4227.179487,4445.641025,4224.102564,4226.153846,4458.461538,4193.333333,4650.769230,3987.692308,4054.358974
254,4327.692307,4524.102564,4531.282051,4300.512820,4528.717948,4232.820512,4450.256410,4227.692307,4233.333333,4460.512820,4201.025641,4651.794871,3982.564103,4060.512820
255,4321.538461,4525.128205,4529.743589,4294.358974,4523.589743,4231.282051,4449.230769,4218.974358,4233.333333,4457.435897,4200.512820,4646.153846,3970.769231,4060.512820
256,4311.794871,4517.435897,4522.564102,4285.128205,4518.461538,4221.025641,4437.948717,4213.333333,4223.589743,4457.948717,4195.384615,4641.025641,3977.948718,4054.358974
257,4314.358974,4509.743589,4517.948717,4282.051282,4517.948717,4215.897435,4434.871794,4219.487179,4217.948717,4464.615384,4196.923076,4642.051282,3993.846154,4057.435897
258,4321.025641,4504.615384,4517.948717,4281.025641,4516.410256,4216.410256,4442.051282,4218.461538,4217.435897,4460.000000,4200.000000,4643.076923,3987.179488,4063.589743
259,4321.025641,4505.128205,4517.435897,4276.923076,4511.282051,4215.897435,4443.076923,4214.871794,4217.948717,4449.230769,4194.358974,4640.512820,3974.358975,4062.564102
260,4320.000000,4516.410256,4520.512820,4275.897435,4513.846153,4218.974358,4445.128205,4224.102564,4223.076923,4452.820512,4187.692307,4643.589743,3983.589744,4059.487179
261,4320.512820,4520.000000,4521.025641,4275.897435,4520.000000,4223.589743,4447.692307,4227.179487,4225.128205,4462.051282,4191.282051,4646.666666,3992.307693,4058.974358
262,4323.076923,4513.846153,4518.974358,4275.384615,4525.128205,4221.538461,4445.128205,4225.128205,4225.641025,4458.974358,4194.871794,4646.666666,3992.820513,4058.974358
263,4327.692307,4518.461538,4525.128205,4278.461538,4529.230769,4217.948717,4443.076923,4226.666666,4225.641025,4455.897435,4188.205128,4648.205128,3998.461539,4055.384615
