,AF3,F7,F3,FC5,T7,P7,O1,O2,P8,T8,FC6,F4,F8,AF4
0,4363.589743,4542.051282,4520.000000,4279.487179,4505.128205,4203.589743,4459.487179,4237.435897,4253.333333,4537.948717,4221.025641,4657.948717,4017.435897,4049.230769
1,4363.076923,4540.000000,4518.974358,4280.000000,4503.589743,4197.948717,4459.487179,4233.333333,4246.153846,4523.076923,4209.230769,4653.333333,3997.948718,4047.692307
2,4364.102564,4529.230769,4516.410256,4279.487179,4504.102564,4197.948717,4456.923076,4230.769230,4240.000000,4516.410256,4189.230769,4650.256410,3987.179488,4047.692307
3,4359.487179,4520.512820,4514.871794,4270.769230,4500.000000,4201.025641,4458.974358,4230.769230,4241.025641,4518.974358,4189.230769,4651.282051,3995.384616,4039.487179
4,4361.025641,4525.128205,4516.923076,4269.230769,4496.410256,4202.564102,4461.538461,4241.025641,4254.358974,4530.769230,4207.179487,4658.461538,4008.717948,4032.820512
5,4367.692307,4527.692307,4520.000000,4270.256410,4505.128205,4200.512820,4459.487179,4249.230769,4265.128205,4538.461538,4219.487179,4665.128205,4014.871794,4045.128205
6,4363.076923,4524.102564,4514.871794,4270.256410,4509.230769,4197.435897,4456.410256,4240.000000,4257.435897,4530.256410,4209.743589,4656.923076,4004.615384,4056.923076
7,4355.897435,4524.615384,4512.820512,4278.461538,4495.897435,4198.461538,4457.435897,4231.794871,4249.743589,4525.641025,4198.974358,4649.230769,3995.897436,4048.717948
8,4354.871794,4525.641025,4515.897435,4276.410256,4487.692307,4200.000000,4458.461538,4234.358974,4245.641025,4524.615384,4202.051282,4652.820512,3997.435898,4036.923076
9,4352.820512,4520.512820,4510.256410,4258.974358,4493.846153,4192.820512,4450.769230,4230.256410,4233.333333,4511.282051,4192.820512,4647.692307,3991.794872,4032.307692
10,4353.846153,4519.487179,4505.641025,4262.051282,4494.358974,4186.153846,4444.102564,4228.717948,4233.846153,4507.179487,4182.051282,4644.102564,3986.666667,4029.743589
11,4353.846153,4523.076923,4511.794871,4273.846153,4489.230769,4187.692307,4445.641025,4232.820512,4243.589743,4515.897435,4197.948717,4650.769230,3992.820513,4032.307692
12,4350.256410,4522.564102,4511.282051,4264.102564,4495.897435,4186.666666,4444.615384,4223.589743,4234.871794,4509.743589,4208.717948,4648.717948,3990.769231,4035.384615
13,4356.923076,4524.615384,4507.692307,4262.564102,4501.538461,4182.564102,4438.974358,4215.897435,4229.230769,4508.205128,4196.410256,4645.641025,3987.179488,4037.435897
14,4370.256410,4534.358974,4513.846153,4277.435897,4496.923076,4189.743589,4445.128205,4223.589743,4244.102564,4528.205128,4199.487179,4655.897435,4000.512820,4049.743589
15,4372.820512,4543.589743,4520.000000,4285.641025,4500.512820,4203.589743,4458.974358,4233.846153,4257.948717,4542.051282,4221.538461,4664.102564,4013.333333,4059.487179
16,4365.641025,4534.871794,4516.923076,4278.461538,4505.641025,4201.538461,4457.948717,4232.307692,4258.461538,4536.923076,4221.538461,4660.000000,4008.205128,4049.230769
17,4363.589743,4525.641025,4515.897435,4269.230769,4498.974358,4192.820512,4445.641025,4225.128205,4253.846153,4527.179487,4205.128205,4655.897435,4002.051282,4040.512820
18,4364.615384,4532.820512,4520.000000,4269.743589,4497.948717,4195.384615,4444.615384,4224.615384,4245.128205,4520.512820,4202.051282,4657.435897,4000.000000,4043.076923
19,4359.487179,4533.333333,4521.538461,4275.384615,4509.230769,4200.512820,4451.794871,4226.153846,4234.358974,4518.461538,4209.743589,4658.461538,3991.794872,4045.128205
20,4366.153846,4528.205128,4526.153846,4282.564102,4508.205128,4201.025641,4455.897435,4233.846153,4240.000000,4529.743589,4220.512820,4663.589743,3995.897436,4054.358974
21,4381.025641,4535.897435,4533.333333,4286.666666,4498.461538,4203.076923,4460.000000,4244.615384,4256.410256,4541.538461,4227.179487,4671.794871,4014.871794,4066.666666
22,4378.461538,4541.025641,4530.769230,4283.589743,4502.051282,4204.615384,4457.948717,4242.564102,4258.461538,4533.846153,4215.384615,4667.179487,4013.333333,4057.435897
23,4361.538461,4535.384615,4520.000000,4276.410256,4508.717948,4202.051282,4449.743589,4228.205128,4243.589743,4522.564102,4197.948717,4650.769230,3991.794872,4036.410256
24,4356.923076,4531.794871,4515.384615,4275.897435,4502.564102,4197.948717,4447.179487,4217.948717,4235.384615,4520.000000,4197.435897,4647.179487,3985.641026,4032.820512
25,4363.076923,4527.692307,4516.923076,4279.487179,4493.333333,4196.923076,4447.692307,4217.948717,4233.846153,4510.256410,4206.153846,4652.820512,3990.256411,4040.512820
26,4360.512820,4520.512820,4515.897435,4275.897435,4500.512820,4198.461538,4445.641025,4221.025641,4228.205128,4501.025641,4203.589743,4652.307692,3984.615385,4041.538461
27,4355.384615,4521.538461,4516.410256,4274.871794,4507.692307,4199.487179,4445.128205,4227.692307,4227.179487,4511.794871,4199.487179,4652.820512,3980.000000,4037.948717
28,4361.025641,4528.717948,4516.410256,4281.025641,4500.000000,4198.974358,4447.692307,4231.282051,4237.948717,4524.615384,4207.179487,4656.410256,3986.153847,4041.538461
29,4368.717948,4537.435897,4517.435897,4278.974358,4495.897435,4201.025641,4454.358974,4233.333333,4251.794871,4526.666666,4215.384615,4657.435897,3994.871795,4046.666666
30,4362.564102,4537.435897,4514.358974,4268.205128,4501.538461,4202.564102,4455.897435,4232.307692,4245.641025,4523.076923,4206.666666,4650.769230,3991.282052,4043.589743
31,4355.897435,4531.282051,4511.282051,4269.230769,4503.076923,4201.025641,4447.179487,4224.615384,4228.717948,4520.000000,4195.897435,4644.615384,3984.615385,4044.615384
32,4361.025641,4537.435897,4517.948717,4282.564102,4503.076923,4200.512820,4445.641025,4222.564102,4234.358974,4524.615384,4202.051282,4650.769230,3996.923077,4048.717948
33,4361.025641,4541.538461,4522.564102,4280.512820,4508.717948,4200.000000,4448.717948,4225.641025,4249.230769,4527.179487,4204.615384,4656.410256,4009.743589,4043.076923
34,4352.820512,4535.897435,4518.461538,4268.205128,4505.128205,4196.923076,4441.538461,4225.641025,4246.666666,4520.512820,4194.871794,4650.256410,4005.641025,4044.615384
35,4352.820512,4535.897435,4521.025641,4268.717948,4493.333333,4196.410256,4443.589743,4229.230769,4246.666666,4523.076923,4205.128205,4652.820512,4007.692307,4062.051282
36,4361.538461,4539.487179,4532.820512,4280.512820,4494.871794,4201.025641,4459.487179,4241.025641,4261.538461,4539.487179,4223.589743,4666.666666,4026.153846,4070.256410
37,4360.512820,4541.025641,4532.307692,4278.461538,4508.717948,4203.076923,4461.025641,4242.564102,4261.025641,4540.000000,4214.358974,4669.230769,4033.846153,4054.871794
38,4349.230769,4542.051282,4525.641025,4265.641025,4510.256410,4199.487179,4455.897435,4234.871794,4249.230769,4524.102564,4199.487179,4661.025641,4024.102564,4049.743589
39,4347.692307,4540.512820,4524.615384,4268.205128,4506.153846,4198.974358,4455.897435,4230.769230,4245.128205,4520.512820,4205.641025,4658.974358,4018.974358,4062.564102
40,4351.282051,4534.871794,4520.000000,4276.923076,4509.230769,4201.025641,4450.769230,4227.692307,4242.051282,4524.102564,4210.769230,4657.948717,4022.051282,4059.487179
41,4344.102564,4534.871794,4520.512820,4270.769230,4506.666666,4197.948717,4442.564102,4220.000000,4238.461538,4520.512820,4202.051282,4652.307692,4020.000000,4045.641025
42,4341.538461,4537.948717,4524.102564,4267.179487,4500.512820,4196.410256,4442.051282,4218.461538,4238.974358,4517.435897,4197.435897,4652.820512,4016.410256,4050.256410
43,4353.333333,4540.000000,4522.564102,4276.410256,4506.666666,4201.025641,4450.769230,4228.717948,4244.102564,4528.205128,4206.153846,4663.589743,4025.128205,4065.128205
44,4356.923076,4544.102564,4526.666666,4281.538461,4513.846153,4203.076923,4458.461538,4233.333333,4246.666666,4538.461538,4215.897435,4667.692307,4030.769230,4065.641025
45,4354.358974,4551.282051,4530.769230,4277.948717,4513.333333,4202.564102,4458.974358,4232.307692,4248.205128,4535.384615,4217.435897,4664.102564,4024.615384,4066.153846
46,4357.435897,4553.333333,4529.230769,4281.025641,4515.384615,4206.666666,4457.435897,4238.974358,4256.923076,4535.897435,4218.461538,4666.153846,4027.179487,4067.692307
47,4352.820512,4544.615384,4525.641025,4281.538461,4517.948717,4206.153846,4461.538461,4252.307692,4269.743589,4542.564102,4219.487179,4666.153846,4033.333333,4056.923076
48,4337.948717,4536.923076,4518.974358,4270.769230,4509.230769,4198.461538,4456.410256,4252.307692,4263.076923,4534.358974,4213.333333,4653.333333,4028.205128,4050.769230
49,4331.794871,4534.358974,4510.769230,4265.641025,4501.538461,4194.871794,4446.666666,4237.948717,4245.128205,4520.512820,4209.230769,4647.179487,4015.897435,4053.846153
50,4336.923076,4528.717948,4513.333333,4272.307692,4503.076923,4197.948717,4447.179487,4233.333333,4242.051282,4523.076923,4207.179487,4651.282051,4008.717948,4049.743589
51,4336.923076,4522.051282,4513.846153,4274.871794,4503.076923,4200.512820,4449.230769,4233.846153,4238.974358,4524.102564,4198.461538,4650.769230,4010.769230,4040.512820
52,4331.794871,4522.564102,4510.256410,4265.641025,4501.538461,4196.410256,4445.128205,4227.692307,4230.769230,4514.871794,4196.410256,4648.717948,4009.743589,4041.025641
53,4329.230769,4529.230769,4510.769230,4262.564102,4503.076923,4192.820512,4444.102564,4223.589743,4233.333333,4515.897435,4200.512820,4650.256410,4007.179487,4047.179487
54,4333.333333,4535.897435,4513.846153,4271.794871,4504.615384,4196.410256,4446.153846,4227.179487,4241.025641,4521.538461,4198.461538,4651.282051,4011.282051,4044.615384
55,4337.948717,4540.000000,4514.358974,4274.358974,4508.205128,4200.000000,4444.102564,4229.230769,4237.948717,4516.410256,4198.974358,4651.282051,4013.333333,4042.564102
56,4340.512820,4540.512820,4515.897435,4266.666666,4509.230769,4197.948717,4442.051282,4225.641025,4231.794871,4512.820512,4202.051282,4650.769230,4010.256410,4049.743589
57,4342.051282,4538.974358,4519.487179,4263.076923,4502.051282,4197.435897,4444.615384,4228.205128,4230.769230,4519.487179,4202.564102,4653.333333,4016.923076,4053.846153
58,4341.025641,4537.948717,4520.000000,4268.717948,4498.461538,4199.487179,4445.641025,4232.307692,4233.846153,4526.153846,4205.641025,4658.974358,4026.153846,4051.794871
59,4338.974358,4537.435897,4516.410256,4274.358974,4504.102564,4198.974358,4443.076923,4226.666666,4232.820512,4523.589743,4202.564102,4658.461538,4016.923076,4048.717948
60,4338.461538,4539.487179,4515.384615,4278.461538,4509.743589,4198.974358,4447.179487,4223.589743,4231.282051,4519.487179,4198.461538,4653.333333,4010.256410,4047.179487
61,4341.538461,4540.512820,4521.025641,4282.564102,4508.717948,4205.128205,4458.461538,4236.923076,4238.461538,4527.692307,4208.205128,4656.923076,4020.512820,4048.717948
62,4342.564102,4539.487179,4523.589743,4278.461538,4509.230769,4210.256410,4461.025641,4248.717948,4248.717948,4536.923076,4213.333333,4664.615384,4024.102564,4047.179487
63,4336.923076,4534.871794,4520.000000,4268.205128,4511.282051,4208.205128,4458.974358,4248.205128,4253.846153,4533.846153,4208.205128,4662.564102,4015.384615,4045.128205
64,4330.769230,4525.128205,4516.410256,4261.538461,4508.717948,4203.589743,4461.025641,4245.641025,4244.102564,4523.589743,4208.717948,4654.871794,4008.205128,4048.717948
65,4328.717948,4521.025641,4513.333333,4262.051282,4502.564102,4202.564102,4460.512820,4245.128205,4235.384615,4517.435897,4211.794871,4649.743589,4005.128205,4047.692307
66,4331.794871,4530.769230,4517.948717,4265.128205,4501.538461,4205.128205,4460.000000,4249.743589,4250.769230,4526.153846,4214.358974,4654.871794,4005.128205,4045.128205
67,4336.923076,4540.000000,4525.641025,4266.153846,4504.615384,4205.128205,4463.076923,4257.948717,4265.641025,4539.487179,4221.025641,4665.641025,4009.743589,4051.282051
68,4336.410256,4536.410256,4521.025641,4265.641025,4504.615384,4204.102564,4462.051282,4254.358974,4254.358974,4535.384615,4215.897435,4664.102564,4009.743589,4050.769230
69,4328.205128,4535.384615,4513.846153,4266.153846,4504.102564,4205.641025,4460.000000,4244.615384,4243.076923,4522.564102,4204.615384,4652.820512,4001.025641,4040.512820
70,4328.205128,4538.461538,4516.410256,4268.205128,4508.717948,4206.666666,4463.076923,4245.641025,4246.153846,4524.102564,4205.128205,4651.794871,4000.512820,4042.051282
71,4330.769230,4527.179487,4517.435897,4263.589743,4508.205128,4203.076923,4462.051282,4249.743589,4253.333333,4535.897435,4212.307692,4656.923076,4005.641025,4047.692307
72,4330.769230,4520.000000,4515.384615,4260.000000,4501.025641,4201.538461,4460.000000,4249.230769,4259.487179,4538.461538,4214.358974,4655.897435,4002.051282,4041.538461
73,4334.871794,4537.435897,4518.974358,4272.307692,4501.025641,4202.564102,4460.512820,4244.615384,4251.794871,4529.230769,4208.717948,4653.333333,3995.897436,4037.435897
74,4334.871794,4548.205128,4516.410256,4280.000000,4507.692307,4201.538461,4454.871794,4234.871794,4232.307692,4518.461538,4200.000000,4648.717948,3989.743590,4042.051282
75,4325.128205,4534.358974,4508.205128,4267.692307,4505.128205,4197.948717,4442.564102,4228.717948,4229.230769,4516.923076,4195.897435,4642.564102,3985.641026,4044.615384
76,4321.538461,4528.205128,4507.692307,4262.051282,4497.435897,4198.461538,4439.487179,4229.743589,4235.897435,4522.564102,4193.333333,4643.076923,3988.717949,4038.461538
77,4325.128205,4538.461538,4513.846153,4271.794871,4500.512820,4207.692307,4451.282051,4235.384615,4238.461538,4522.051282,4196.923076,4649.230769,3995.897436,4031.282051
78,4323.076923,4541.538461,4517.948717,4274.358974,4510.769230,4212.307692,4460.512820,4238.974358,4246.666666,4522.051282,4203.589743,4651.282051,3992.820513,4034.358974
79,4322.564102,4535.384615,4519.487179,4271.282051,4512.820512,4210.256410,4455.897435,4236.923076,4253.846153,4527.692307,4205.641025,4651.282051,3990.769231,4040.512820
80,4325.641025,4537.435897,4522.564102,4276.923076,4507.179487,4211.794871,4455.384615,4240.512820,4250.769230,4534.871794,4210.256410,4656.923076,4002.051282,4045.641025
81,4326.666666,4546.666666,4522.051282,4282.051282,4507.692307,4210.256410,4460.000000,4246.666666,4249.743589,4531.794871,4219.487179,4660.512820,4003.076923,4051.282051
82,4323.076923,4540.000000,4517.435897,4274.358974,4506.666666,4201.538461,4453.333333,4237.948717,4247.179487,4522.564102,4216.410256,4655.384615,3987.179488,4044.615384
83,4322.564102,4528.205128,4513.846153,4264.102564,4495.384615,4197.948717,4443.076923,4226.153846,4244.102564,4519.487179,4203.589743,4650.769230,3980.512821,4031.282051
84,4331.282051,4535.384615,4517.435897,4269.230769,4489.743589,4202.564102,4446.666666,4235.897435,4248.717948,4524.102564,4203.076923,4655.897435,3993.333334,4033.333333
85,4337.948717,4545.128205,4521.538461,4281.025641,4499.487179,4202.564102,4451.794871,4244.615384,4248.717948,4526.153846,4208.717948,4661.025641,4004.102564,4044.102564
86,4336.410256,4538.974358,4519.487179,4280.000000,4508.717948,4199.487179,4450.256410,4236.923076,4238.461538,4523.589743,4206.666666,4655.897435,3996.410257,4039.487179
87,4341.538461,4534.871794,4521.025641,4276.410256,4508.717948,4205.128205,4452.820512,4235.384615,4238.461538,4526.153846,4205.128205,4657.435897,3984.615385,4035.897435
88,4354.358974,4543.076923,4530.769230,4281.025641,4502.051282,4212.820512,4461.538461,4250.769230,4251.282051,4531.282051,4214.871794,4669.230769,3988.717949,4050.769230
89,4354.871794,4543.076923,4529.230769,4277.435897,4497.948717,4208.205128,4461.538461,4255.384615,4257.435897,4531.282051,4221.538461,4667.692307,3995.384616,4053.333333
90,4341.025641,4533.846153,4513.846153,4265.641025,4497.435897,4198.461538,4449.230769,4237.948717,4246.666666,4520.512820,4207.692307,4651.794871,3983.589744,4036.923076
91,4339.487179,4533.846153,4510.256410,4263.076923,4494.871794,4200.512820,4442.564102,4227.692307,4232.820512,4510.256410,4188.717948,4648.205128,3971.794872,4028.717948
92,4348.205128,4537.435897,4515.384615,4267.179487,4496.410256,4204.102564,4446.153846,4233.333333,4230.256410,4513.846153,4186.666666,4652.820512,3971.282052,4024.615384
93,4345.128205,4534.358974,4512.820512,4267.179487,4504.615384,4201.025641,4444.102564,4234.358974,4231.794871,4518.461538,4195.897435,4650.769230,3970.256411,4022.051282
94,4341.025641,4532.307692,4511.282051,4265.128205,4507.692307,4201.538461,4446.153846,4231.794871,4234.358974,4515.897435,4200.000000,4648.717948,3972.307693,4035.384615
95,4349.230769,4539.487179,4515.897435,4267.179487,4502.564102,4203.589743,4456.410256,4239.487179,4241.025641,4520.000000,4200.512820,4653.333333,3978.974359,4045.128205
96,4353.333333,4538.974358,4519.487179,4267.692307,4501.538461,4202.564102,4456.923076,4248.717948,4247.692307,4527.179487,4203.589743,4656.410256,3980.000000,4033.846153
97,4348.205128,4523.076923,4516.410256,4266.153846,4503.076923,4204.102564,4451.794871,4246.153846,4245.641025,4522.564102,4200.512820,4652.307692,3970.769231,4026.666666
98,4349.743589,4518.974358,4516.410256,4268.205128,4503.589743,4210.256410,4455.384615,4245.641025,4246.153846,4519.487179,4196.410256,4654.358974,3972.307693,4033.333333
99,4358.974358,4541.025641,4522.564102,4278.974358,4504.615384,4213.846153,4459.487179,4251.794871,4253.333333,4528.717948,4208.205128,4665.641025,3989.743590,4040.000000
100,4361.538461,4555.384615,4523.076923,4283.589743,4506.666666,4214.358974,4453.846153,4246.666666,4250.769230,4528.717948,4217.948717,4666.153846,3989.743590,4045.641025
101,4353.846153,4545.641025,4514.358974,4267.692307,4508.717948,4215.384615,4444.102564,4230.256410,4235.384615,4513.846153,4204.102564,4649.230769,3967.692308,4041.538461
102,4347.692307,4541.025641,4511.282051,4264.102564,4509.743589,4215.897435,4441.538461,4225.128205,4226.153846,4507.692307,4191.282051,4641.538461,3959.487180,4031.282051
103,4346.666666,4544.615384,4515.384615,4278.461538,4511.794871,4215.384615,4445.641025,4232.307692,4232.307692,4515.384615,4197.435897,4647.179487,3967.179488,4028.205128
104,4343.076923,4540.000000,4513.333333,4276.410256,4511.282051,4217.948717,4445.641025,4231.794871,4235.384615,4520.512820,4202.051282,4646.666666,3962.564103,4025.128205
105,4341.025641,4536.410256,4508.717948,4264.102564,4509.743589,4214.358974,4441.538461,4222.051282,4230.256410,4516.410256,4196.410256,4638.974358,3952.307693,4019.487179
106,4342.051282,4536.923076,4504.615384,4264.102564,4504.615384,4204.102564,4442.051282,4217.435897,4231.282051,4512.307692,4190.256410,4636.410256,3953.846154,4015.897435
107,4342.564102,4535.897435,4501.025641,4269.230769,4494.871794,4204.102564,4443.076923,4225.641025,4235.384615,4509.230769,4185.641025,4638.974358,3956.410257,4015.897435
108,4343.589743,4535.384615,4501.538461,4270.769230,4497.948717,4209.230769,4443.589743,4230.256410,4228.717948,4506.153846,4184.102564,4638.461538,3956.410257,4018.974358
109,4344.615384,4539.487179,4505.128205,4274.871794,4511.282051,4206.666666,4441.025641,4224.615384,4220.512820,4508.717948,4183.589743,4634.871794,3957.435898,4021.025641
110,4344.102564,4540.512820,4507.692307,4272.820512,4505.641025,4203.589743,4430.769230,4218.974358,4223.589743,4507.692307,4181.538461,4633.846153,3955.384616,4016.410256
111,4343.076923,4536.923076,4503.589743,4264.102564,4489.230769,4206.666666,4427.692307,4217.948717,4224.102564,4502.564102,4185.128205,4634.871794,3956.410257,4015.897435
112,4341.538461,4535.897435,4501.538461,4265.128205,4496.410256,4212.307692,4437.435897,4222.564102,4222.564102,4508.205128,4190.769230,4635.897435,3960.000000,4018.461538
113,4342.564102,4538.461538,4507.179487,4274.358974,4509.743589,4216.410256,4444.102564,4229.230769,4234.358974,4519.487179,4189.230769,4639.487179,3957.948718,4018.461538
114,4345.641025,4540.000000,4510.256410,4276.923076,4506.666666,4218.461538,4443.589743,4231.282051,4241.538461,4515.897435,4185.641025,4641.538461,3956.410257,4022.564102
115,4341.025641,4541.025641,4507.692307,4265.641025,4502.051282,4215.384615,4443.076923,4228.717948,4234.871794,4505.128205,4184.102564,4638.974358,3958.974359,4020.000000
116,4333.846153,4539.487179,4503.076923,4261.538461,4506.153846,4215.897435,4443.076923,4227.179487,4224.102564,4503.589743,4182.051282,4636.923076,3956.410257,4007.692307
117,4341.025641,4538.461538,4504.102564,4272.820512,4507.692307,4218.461538,4442.051282,4229.230769,4224.102564,4507.692307,4185.641025,4640.512820,3958.974359,4014.871794
118,4352.307692,4542.564102,4511.282051,4281.538461,4505.128205,4219.487179,4444.615384,4236.410256,4236.410256,4520.512820,4196.923076,4650.256410,3970.769231,4029.230769
119,4347.179487,4543.589743,4509.230769,4280.000000,4507.179487,4218.461538,4445.128205,4241.025641,4242.564102,4525.641025,4195.897435,4650.769230,3965.128206,4020.000000
120,4337.435897,4537.948717,4502.051282,4277.435897,4507.179487,4214.871794,4441.538461,4232.307692,4233.846153,4516.410256,4182.051282,4641.025641,3948.205129,4015.897435
121,4341.538461,4537.435897,4507.179487,4277.948717,4503.589743,4215.897435,4442.564102,4227.692307,4229.230769,4514.871794,4186.153846,4642.051282,3951.794872,4029.743589
122,4348.717948,4548.717948,4514.358974,4281.025641,4505.128205,4219.487179,4447.179487,4240.512820,4235.897435,4528.717948,4202.051282,4653.846153,3968.205129,4031.282051
123,4349.743589,4553.333333,4510.769230,4282.051282,4510.256410,4220.000000,4446.666666,4246.666666,4241.538461,4534.871794,4201.538461,4654.358974,3972.820513,4029.230769
124,4350.769230,4546.153846,4508.205128,4283.076923,4509.230769,4219.487179,4442.051282,4236.923076,4240.512820,4528.205128,4199.487179,4648.717948,3969.743590,4033.333333
125,4351.794871,4540.512820,4508.717948,4282.051282,4506.153846,4219.487179,4442.564102,4230.256410,4232.307692,4522.564102,4206.666666,4646.666666,3967.692308,4030.769230
126,4348.205128,4541.025641,4509.230769,4278.974358,4503.589743,4216.410256,4443.589743,4229.743589,4224.615384,4520.512820,4196.410256,4640.000000,3959.487180,4024.615384
127,4349.230769,4541.538461,4510.256410,4277.435897,4501.025641,4215.897435,4441.025641,4231.282051,4230.256410,4522.051282,4186.153846,4638.461538,3960.000000,4022.051282
128,4354.871794,4541.538461,4514.358974,4279.487179,4500.512820,4218.974358,4444.102564,4236.923076,4237.948717,4527.692307,4198.461538,4651.282051,3972.307693,4024.102564
129,4348.205128,4541.538461,4516.923076,4281.025641,4503.589743,4217.435897,4444.102564,4236.923076,4233.846153,4526.153846,4200.512820,4652.820512,3969.743590,4027.692307
130,4340.512820,4540.000000,4511.794871,4280.512820,4506.153846,4213.846153,4433.333333,4226.153846,4224.615384,4511.794871,4182.564102,4636.410256,3956.410257,4021.538461
131,4348.717948,4540.000000,4510.256410,4282.051282,4501.538461,4215.897435,4433.333333,4224.102564,4227.692307,4505.128205,4179.487179,4634.358974,3952.307693,4017.435897
132,4352.820512,4542.051282,4514.358974,4283.076923,4497.435897,4219.487179,4444.615384,4232.820512,4231.794871,4510.769230,4191.282051,4644.615384,3950.769231,4028.717948
133,4345.128205,4545.128205,4510.769230,4280.512820,4502.564102,4215.897435,4437.948717,4230.256410,4223.076923,4512.307692,4193.846153,4640.000000,3947.692308,4030.769230
134,4346.666666,4544.102564,4509.743589,4277.435897,4500.512820,4211.282051,4423.589743,4219.487179,4222.051282,4513.846153,4194.871794,4634.871794,3954.358975,4016.923076
135,4353.846153,4541.538461,4515.897435,4279.487179,4494.871794,4214.358974,4431.794871,4222.051282,4232.820512,4523.076923,4208.717948,4644.102564,3965.641026,4018.974358
136,4353.333333,4540.512820,4513.846153,4280.512820,4497.948717,4217.948717,4444.102564,4228.717948,4232.307692,4525.641025,4214.871794,4647.692307,3970.256411,4031.282051
137,4354.871794,4546.153846,4509.743589,4278.974358,4499.487179,4217.948717,4443.589743,4231.282051,4231.282051,4522.564102,4207.179487,4643.076923,3972.307693,4032.820512
138,4358.461538,4553.846153,4511.794871,4281.538461,4498.974358,4217.948717,4442.051282,4231.282051,4237.948717,4524.102564,4201.538461,4645.641025,3973.846154,4031.282051
139,4354.358974,4546.666666,4510.769230,4283.076923,4501.538461,4218.461538,4437.435897,4224.615384,4233.333333,4523.589743,4203.589743,4645.641025,3970.769231,4025.128205
140,4350.769230,4535.384615,4508.717948,4280.000000,4498.461538,4216.410256,4433.333333,4221.538461,4235.384615,4521.538461,4201.538461,4642.051282,3965.128206,4021.025641
141,4357.435897,4547.179487,4513.333333,4285.641025,4497.435897,4216.923076,4440.512820,4232.307692,4248.205128,4524.102564,4202.051282,4648.717948,3968.717949,4030.769230
142,4361.538461,4558.461538,4518.461538,4293.333333,4507.179487,4221.538461,4446.153846,4239.487179,4243.076923,4527.692307,4206.666666,4653.846153,3976.410257,4032.820512
143,4353.846153,4545.641025,4514.871794,4286.666666,4510.769230,4221.538461,4442.051282,4232.820512,4235.384615,4528.205128,4202.051282,4645.641025,3972.820513,4021.538461
144,4354.871794,4544.102564,4512.820512,4279.487179,4502.051282,4218.974358,4442.051282,4231.282051,4244.102564,4526.666666,4204.615384,4643.076923,3968.717949,4030.256410
145,4369.230769,4557.435897,4517.435897,4284.615384,4500.512820,4220.000000,4448.205128,4235.384615,4246.153846,4525.128205,4215.384615,4652.820512,3966.666667,4044.102564
146,4364.615384,4547.179487,4515.897435,4283.589743,4501.538461,4220.000000,4445.641025,4233.333333,4233.333333,4523.076923,4204.615384,4652.307692,3959.487180,4027.179487
147,4349.743589,4530.769230,4509.743589,4276.410256,4497.948717,4216.410256,4440.000000,4229.230769,4229.743589,4522.564102,4189.743589,4641.025641,3960.512821,4014.358974
148,4358.974358,4540.512820,4514.358974,4284.102564,4490.769230,4217.948717,4441.025641,4230.256410,4237.435897,4522.564102,4206.153846,4644.102564,3973.333334,4033.333333
149,4373.846153,4554.871794,4521.025641,4291.282051,4488.717948,4222.051282,4444.615384,4233.333333,4240.512820,4526.153846,4223.076923,4651.794871,3978.461539,4047.692307
150,4363.589743,4542.564102,4510.769230,4278.461538,4496.410256,4216.923076,4441.025641,4228.717948,4232.820512,4523.589743,4210.256410,4642.564102,3964.102565,4027.179487
151,4352.307692,4530.769230,4505.128205,4270.256410,4504.102564,4215.897435,4439.487179,4225.641025,4229.230769,4517.948717,4196.923076,4636.410256,3953.846154,4010.769230
152,4364.615384,4543.589743,4514.871794,4280.512820,4500.512820,4223.589743,4445.128205,4232.820512,4236.410256,4524.102564,4197.435897,4645.128205,3964.615385,4029.230769
153,4371.282051,4554.358974,4516.410256,4283.076923,4489.743589,4222.564102,4445.128205,4233.333333,4235.384615,4527.179487,4201.025641,4648.205128,3977.948718,4041.025641
154,4365.128205,4552.820512,4512.820512,4277.435897,4494.871794,4220.512820,4443.589743,4228.717948,4232.820512,4519.487179,4205.641025,4644.615384,3981.538462,4034.358974
155,4368.717948,4555.384615,4516.410256,4283.076923,4505.641025,4231.282051,4448.205128,4233.333333,4246.666666,4523.076923,4208.717948,4647.179487,3983.589744,4041.025641
156,4371.282051,4555.897435,4514.871794,4281.025641,4504.615384,4232.820512,4447.692307,4235.897435,4249.230769,4525.128205,4202.051282,4646.666666,3985.128206,4040.512820
157,4361.025641,4549.230769,4506.666666,4267.179487,4503.076923,4218.974358,4441.025641,4228.205128,4235.897435,4516.410256,4193.333333,4643.076923,3985.641026,4022.564102
158,4363.076923,4552.307692,4511.794871,4270.769230,4507.179487,4222.564102,4442.051282,4229.230769,4240.000000,4526.666666,4201.538461,4648.717948,3997.948718,4031.794871
159,4374.871794,4558.461538,4517.435897,4282.051282,4509.743589,4231.282051,4446.666666,4232.820512,4245.641025,4540.000000,4214.358974,4651.282051,4005.128205,4055.897435
160,4367.179487,4553.846153,4504.102564,4273.846153,4503.076923,4221.025641,4442.051282,4221.025641,4231.282051,4526.666666,4210.256410,4643.589743,3993.333334,4047.179487
161,4359.487179,4551.282051,4500.512820,4268.717948,4499.487179,4220.512820,4439.487179,4217.948717,4228.717948,4518.461538,4197.948717,4643.076923,3988.205129,4030.256410
162,4368.717948,4555.897435,4515.897435,4279.487179,4506.666666,4233.846153,4444.102564,4231.282051,4246.153846,4527.692307,4199.487179,4651.282051,4003.076923,4037.435897
163,4371.282051,4554.871794,4517.948717,4280.000000,4508.205128,4234.358974,4445.641025,4234.358974,4248.205128,4526.666666,4213.333333,4651.282051,4009.230769,4047.179487
164,4368.205128,4552.820512,4509.743589,4273.333333,4502.051282,4228.205128,4444.615384,4227.692307,4242.051282,4520.512820,4217.948717,4646.666666,3999.487180,4042.051282
165,4377.435897,4553.846153,4511.794871,4275.897435,4506.153846,4233.333333,4447.692307,4231.794871,4245.128205,4524.615384,4210.256410,4649.743589,4000.512820,4037.948717
166,4383.076923,4547.179487,4512.820512,4273.846153,4514.358974,4235.897435,4447.179487,4230.769230,4241.025641,4526.666666,4203.589743,4650.256410,4007.692307,4037.435897
167,4376.410256,4536.923076,4507.179487,4262.564102,4503.076923,4224.615384,4442.051282,4216.923076,4230.256410,4519.487179,4203.076923,4643.589743,4001.538461,4035.384615
168,4377.435897,4540.000000,4508.205128,4258.461538,4494.358974,4218.974358,4443.076923,4218.461538,4234.358974,4517.948717,4202.051282,4643.076923,3994.871795,4038.461538
169,4391.282051,4551.794871,4513.333333,4270.769230,4502.051282,4225.128205,4449.743589,4232.307692,4248.205128,4526.666666,4202.564102,4648.717948,3999.487180,4046.153846
170,4399.487179,4554.871794,4515.384615,4280.000000,4502.051282,4229.230769,4448.717948,4236.410256,4246.666666,4530.256410,4205.128205,4650.256410,4000.000000,4046.153846
171,4398.461538,4545.128205,4511.794871,4272.820512,4496.923076,4225.128205,4444.615384,4231.794871,4239.487179,4527.179487,4204.102564,4646.666666,3991.794872,4040.000000
172,4391.282051,4535.384615,4504.102564,4263.589743,4502.051282,4218.974358,4444.102564,4223.589743,4235.384615,4518.974358,4196.410256,4637.948717,3987.179488,4029.743589
173,4384.615384,4535.384615,4500.000000,4262.051282,4508.205128,4216.923076,4442.564102,4216.923076,4225.128205,4504.615384,4191.794871,4632.820512,3987.179488,4020.000000
174,4386.666666,4540.000000,4506.666666,4268.205128,4503.076923,4221.025641,4443.589743,4223.076923,4224.615384,4506.153846,4200.512820,4639.487179,3987.692308,4029.230769
175,4394.871794,4540.000000,4515.384615,4274.358974,4493.846153,4228.717948,4449.230769,4233.846153,4243.589743,4525.128205,4207.692307,4647.692307,3992.307693,4044.615384
176,4398.461538,4545.128205,4516.410256,4270.769230,4494.871794,4229.230769,4449.743589,4234.871794,4249.743589,4530.769230,4210.256410,4648.205128,4000.512820,4047.179487
177,4397.948717,4552.820512,4512.307692,4263.589743,4501.025641,4227.692307,4447.179487,4233.846153,4242.564102,4521.025641,4210.769230,4646.153846,4004.102564,4043.589743
178,4397.435897,4549.743589,4510.769230,4265.128205,4500.512820,4233.333333,4454.358974,4234.871794,4246.666666,4524.615384,4207.179487,4650.256410,4006.153846,4040.000000
179,4397.948717,4543.589743,4512.820512,4269.743589,4495.897435,4233.846153,4463.076923,4236.410256,4253.846153,4533.333333,4209.230769,4652.820512,4009.743589,4039.487179
180,4395.384615,4539.487179,4508.717948,4261.025641,4501.538461,4221.538461,4453.333333,4233.333333,4245.641025,4528.205128,4211.282051,4646.666666,4005.128205,4041.538461
181,4393.333333,4536.923076,4506.666666,4255.897435,4507.179487,4215.897435,4441.538461,4226.666666,4232.820512,4520.000000,4198.974358,4640.000000,3994.358975,4039.487179
182,4401.538461,4542.051282,4516.410256,4269.743589,4501.538461,4223.589743,4447.692307,4227.179487,4235.897435,4522.051282,4197.435897,4647.179487,3997.435898,4037.435897
183,4411.282051,4553.846153,4523.076923,4278.974358,4492.307692,4224.102564,4450.769230,4233.846153,4247.179487,4526.153846,4215.897435,4655.384615,4005.641025,4046.153846
184,4409.743589,4554.358974,4515.897435,4274.358974,4491.282051,4217.435897,4443.076923,4231.794871,4247.692307,4528.717948,4221.538461,4649.743589,4004.615384,4052.820512
185,4409.743589,4550.256410,4516.923076,4272.820512,4501.025641,4224.615384,4446.666666,4230.769230,4245.128205,4535.897435,4215.897435,4648.205128,4002.051282,4046.666666
186,4418.461538,4556.410256,4529.743589,4283.076923,4508.717948,4236.410256,4460.512820,4244.102564,4249.743589,4543.589743,4220.000000,4658.974358,4007.692307,4047.179487
187,4415.897435,4553.333333,4529.743589,4285.128205,4507.179487,4235.384615,4460.000000,4249.743589,4249.230769,4535.897435,4224.615384,4662.051282,4009.743589,4050.256410
188,4407.179487,4544.615384,4524.102564,4273.333333,4508.205128,4229.743589,4453.333333,4242.051282,4244.102564,4527.692307,4228.205128,4656.410256,4006.153846,4049.230769
189,4418.461538,4552.307692,4531.282051,4271.794871,4510.256410,4238.461538,4463.076923,4247.692307,4252.820512,4539.487179,4235.897435,4661.538461,4009.230769,4053.333333
190,4426.666666,4558.974358,4534.871794,4281.025641,4508.717948,4249.230769,4472.307692,4257.948717,4263.076923,4551.282051,4235.384615,4667.692307,4013.846153,4056.923076
191,4414.871794,4548.717948,4528.205128,4284.102564,4505.128205,4242.051282,4464.615384,4252.307692,4264.615384,4543.589743,4222.051282,4658.974358,4010.256410,4051.282051
192,4407.692307,4541.538461,4525.641025,4274.871794,4505.128205,4231.282051,4457.435897,4245.641025,4261.025641,4535.897435,4215.384615,4654.871794,4001.538461,4048.717948
193,4411.282051,4540.000000,4523.076923,4266.666666,4505.641025,4234.358974,4458.974358,4248.205128,4253.333333,4537.435897,4219.487179,4657.435897,3997.435898,4052.820512
194,4411.282051,4541.538461,4520.512820,4272.820512,4504.102564,4237.948717,4462.051282,4250.256410,4254.358974,4538.974358,4219.487179,4658.461538,4002.051282,4050.769230
195,4408.205128,4548.717948,4526.666666,4277.948717,4507.692307,4234.358974,4464.102564,4250.256410,4261.025641,4540.512820,4218.461538,4656.923076,4005.641025,4050.769230
196,4403.076923,4544.615384,4524.102564,4269.743589,4508.205128,4234.358974,4462.564102,4248.717948,4255.384615,4534.871794,4217.948717,4651.794871,3996.410257,4049.743589
197,4395.384615,4531.794871,4510.256410,4260.512820,4496.410256,4232.820512,4457.435897,4245.641025,4245.641025,4526.153846,4204.615384,4643.589743,3980.512821,4036.923076
198,4395.384615,4532.820512,4511.282051,4263.589743,4486.153846,4230.769230,4456.410256,4243.589743,4248.205128,4527.179487,4198.974358,4644.102564,3977.435898,4033.846153
199,4398.461538,4539.487179,4519.487179,4270.256410,4490.769230,4232.307692,4454.871794,4238.461538,4253.333333,4529.230769,4215.384615,4650.256410,3988.205129,4040.000000
200,4398.974358,4538.974358,4517.435897,4273.846153,4495.897435,4232.307692,4447.692307,4231.282051,4244.102564,4526.666666,4216.923076,4650.256410,3988.205129,4038.974358
201,4399.487179,4539.487179,4513.333333,4274.358974,4492.820512,4230.256410,4444.615384,4229.743589,4233.333333,4520.000000,4199.487179,4646.153846,3979.487180,4035.897435
202,4397.435897,4538.461538,4511.794871,4267.692307,4493.333333,4230.256410,4444.102564,4229.743589,4233.333333,4509.230769,4196.923076,4641.025641,3978.974359,4036.923076
203,4395.897435,4535.384615,4511.794871,4265.128205,4494.871794,4232.307692,4442.051282,4229.230769,4236.410256,4508.717948,4204.615384,4641.538461,3981.538462,4033.333333
204,4396.923076,4535.897435,4512.307692,4267.179487,4493.846153,4231.794871,4443.589743,4231.282051,4240.000000,4520.512820,4200.512820,4644.102564,3981.025642,4028.205128
205,4396.923076,4536.923076,4512.820512,4265.128205,4491.282051,4231.794871,4445.641025,4232.820512,4241.538461,4523.589743,4195.897435,4638.461538,3978.461539,4026.666666
206,4397.948717,4536.410256,4512.820512,4265.128205,4490.256410,4235.384615,4446.666666,4231.794871,4238.974358,4522.051282,4203.589743,4636.923076,3977.948718,4031.794871
207,4397.435897,4536.410256,4512.820512,4264.615384,4496.410256,4234.358974,4443.076923,4230.769230,4237.435897,4521.538461,4206.666666,4638.461538,3973.846154,4032.820512
208,4396.923076,4536.923076,4510.256410,4265.641025,4499.487179,4230.256410,4442.564102,4231.794871,4242.051282,4516.923076,4199.487179,4638.461538,3969.743590,4024.615384
209,4401.025641,4538.461538,4515.897435,4274.358974,4497.948717,4234.871794,4453.846153,4235.384615,4246.666666,4524.102564,4197.435897,4642.564102,3977.435898,4025.641025
210,4405.128205,4545.641025,4527.179487,4282.051282,4502.564102,4238.461538,4460.512820,4235.897435,4246.666666,4535.897435,4207.179487,4646.666666,3989.230770,4040.512820
211,4405.128205,4550.256410,4523.589743,4280.512820,4510.256410,4233.846153,4454.358974,4233.333333,4246.666666,4529.230769,4216.410256,4644.615384,3989.743590,4047.692307
212,4409.230769,4551.282051,4519.487179,4278.461538,4509.230769,4236.410256,4454.871794,4233.846153,4246.666666,4520.000000,4218.461538,4645.128205,3986.153847,4049.743589
213,4411.794871,4554.358974,4524.615384,4281.538461,4503.589743,4244.615384,4461.025641,4236.410256,4246.666666,4524.102564,4215.384615,4650.256410,3991.282052,4050.256410
214,4402.051282,4549.230769,4521.538461,4281.538461,4501.538461,4241.538461,4456.923076,4234.358974,4241.538461,4526.153846,4203.589743,4645.641025,3987.179488,4041.538461
215,4395.384615,4542.564102,4516.923076,4278.974358,4500.512820,4232.307692,4453.333333,4232.820512,4236.410256,4522.051282,4196.410256,4642.051282,3978.974359,4033.846153
216,4398.461538,4544.102564,4522.051282,4277.948717,4504.102564,4232.307692,4458.461538,4234.871794,4243.589743,4523.076923,4208.717948,4649.230769,3986.666667,4033.333333
217,4397.948717,4544.102564,4521.538461,4275.897435,4507.179487,4235.384615,4454.871794,4237.435897,4249.743589,4529.743589,4222.051282,4653.333333,3994.358975,4040.000000
218,4393.846153,4537.435897,4515.384615,4273.333333,4500.512820,4233.333333,4444.615384,4236.923076,4246.666666,4534.358974,4213.846153,4647.692307,3989.230770,4044.615384
219,4392.820512,4534.358974,4514.871794,4271.282051,4492.307692,4230.256410,4443.076923,4236.410256,4245.128205,4529.230769,4202.051282,4644.102564,3980.000000,4039.487179
220,4391.282051,4538.461538,4515.897435,4273.846153,4489.230769,4231.282051,4447.179487,4240.512820,4247.179487,4517.948717,4208.717948,4647.692307,3976.410257,4037.435897
221,4386.666666,4535.897435,4517.948717,4271.282051,4491.282051,4233.333333,4445.128205,4240.000000,4247.179487,4520.512820,4212.820512,4648.717948,3979.487180,4041.538461
222,4378.974358,4529.230769,4515.384615,4266.153846,4490.769230,4229.743589,4441.025641,4233.846153,4244.615384,4525.641025,4202.051282,4644.615384,3986.666667,4036.410256
223,4377.948717,4531.282051,4511.794871,4270.769230,4490.769230,4226.153846,4443.589743,4231.794871,4243.076923,4521.538461,4201.025641,4643.589743,3985.641026,4031.282051
224,4387.179487,4541.025641,4517.435897,4281.025641,4493.846153,4227.692307,4446.666666,4236.923076,4249.743589,4528.717948,4218.974358,4647.692307,3982.564103,4037.948717
225,4389.230769,4538.461538,4519.487179,4280.512820,4494.871794,4229.230769,4444.102564,4237.435897,4251.282051,4539.487179,4224.102564,4644.615384,3984.102565,4036.923076
226,4383.076923,4530.256410,4508.205128,4271.794871,4491.282051,4228.717948,4441.538461,4233.333333,4243.589743,4528.717948,4205.128205,4633.846153,3977.948718,4028.717948
227,4390.769230,4534.358974,4504.615384,4273.846153,4489.743589,4231.282051,4444.615384,4234.358974,4246.666666,4523.589743,4202.564102,4636.923076,3974.358975,4031.282051
228,4402.051282,4540.000000,4513.846153,4281.025641,4493.846153,4233.846153,4447.692307,4236.410256,4252.307692,4533.846153,4213.333333,4645.641025,3976.410257,4033.846153
229,4395.897435,4536.923076,4513.846153,4279.487179,4494.871794,4231.794871,4445.128205,4233.846153,4239.487179,4524.615384,4208.717948,4642.564102,3968.205129,4028.205128
230,4394.358974,4533.846153,4509.230769,4275.384615,4490.256410,4227.692307,4443.076923,4230.769230,4232.307692,4509.743589,4197.948717,4642.051282,3961.025642,4027.179487
231,4408.717948,4536.923076,4514.358974,4276.923076,4488.205128,4229.743589,4445.128205,4234.871794,4246.666666,4520.000000,4201.025641,4647.692307,3972.307693,4034.871794
232,4412.820512,4540.512820,4519.487179,4278.461538,4496.410256,4232.820512,4445.128205,4235.897435,4251.282051,4528.205128,4202.051282,4647.692307,3976.410257,4036.923076
233,4408.205128,4544.102564,4518.974358,4276.410256,4503.589743,4232.307692,4444.102564,4231.794871,4241.025641,4520.512820,4194.871794,4646.666666,3966.666667,4033.846153
234,4419.487179,4552.307692,4522.564102,4281.025641,4498.974358,4233.846153,4446.666666,4234.358974,4245.128205,4522.051282,4205.128205,4652.820512,3970.256411,4037.948717
235,4429.743589,4555.384615,4530.256410,4284.102564,4494.358974,4235.384615,4446.666666,4235.897435,4250.256410,4525.641025,4219.487179,4657.435897,3978.461539,4043.589743
236,4420.000000,4549.743589,4527.692307,4280.000000,4493.846153,4232.820512,4442.564102,4232.307692,4237.948717,4517.435897,4209.743589,4654.358974,3972.307693,4041.538461
237,4418.461538,4548.717948,4521.025641,4286.153846,4497.435897,4231.282051,4443.076923,4232.307692,4235.897435,4515.384615,4202.564102,4653.333333,3970.256411,4037.948717
238,4428.717948,4552.820512,4521.025641,4289.743589,4503.589743,4233.846153,4445.641025,4234.871794,4244.615384,4524.615384,4215.897435,4652.820512,3978.974359,4037.435897
239,4428.205128,4553.333333,4523.076923,4283.076923,4507.692307,4235.897435,4444.102564,4234.871794,4243.589743,4534.358974,4221.538461,4652.307692,3986.666667,4035.897435
240,4428.717948,4555.897435,4528.205128,4286.666666,4508.717948,4235.384615,4443.076923,4235.384615,4246.153846,4537.435897,4223.589743,4656.923076,3990.769231,4043.589743
241,4433.846153,4555.384615,4529.230769,4293.846153,4503.589743,4233.846153,4445.641025,4235.897435,4249.230769,4531.282051,4226.153846,4660.000000,3987.692308,4056.923076
242,4427.179487,4546.153846,4520.512820,4284.615384,4498.461538,4232.820512,4446.153846,4233.333333,4240.512820,4522.051282,4212.307692,4654.358974,3979.487180,4056.410256
243,4412.820512,4538.461538,4513.333333,4274.358974,4501.538461,4233.333333,4444.102564,4233.333333,4237.948717,4522.051282,4203.076923,4649.230769,3975.897436,4042.564102
244,4414.358974,4540.512820,4516.410256,4277.435897,4500.000000,4234.358974,4444.615384,4234.358974,4246.153846,4525.128205,4209.230769,4649.743589,3975.384616,4036.410256
245,4422.564102,4542.564102,4517.948717,4277.948717,4488.717948,4232.307692,4446.153846,4235.897435,4252.307692,4522.051282,4206.666666,4646.666666,3973.846154,4035.384615
246,4420.000000,4537.435897,4514.358974,4274.871794,4490.769230,4229.743589,4444.102564,4238.461538,4254.358974,4526.666666,4205.641025,4644.615384,3969.743590,4034.871794
247,4415.384615,4541.025641,4516.410256,4278.974358,4502.051282,4229.743589,4443.589743,4244.615384,4255.384615,4538.461538,4217.435897,4650.256410,3971.794872,4041.025641
248,4418.974358,4550.256410,4520.000000,4282.051282,4502.564102,4231.794871,4447.179487,4245.641025,4257.948717,4542.051282,4223.589743,4655.384615,3985.641026,4048.717948
249,4417.948717,4544.102564,4519.487179,4278.974358,4502.051282,4233.333333,4447.179487,4236.923076,4252.307692,4533.846153,4218.974358,4655.384615,3995.384616,4050.256410
250,4411.282051,4537.435897,4514.871794,4278.974358,4506.666666,4233.333333,4443.589743,4230.256410,4243.076923,4523.076923,4207.179487,4649.743589,3983.076924,4043.589743
251,4412.307692,4544.102564,4513.333333,4279.487179,4500.512820,4233.846153,4443.076923,4230.769230,4247.692307,4520.512820,4192.307692,4645.641025,3965.128206,4031.794871
252,4411.282051,4546.666666,4516.410256,4268.717948,4491.794871,4232.820512,4446.666666,4238.461538,4254.871794,4522.564102,4200.000000,4649.743589,3966.153847,4028.205128
253,4405.128205,4537.435897,4515.897435,4262.051282,4495.897435,4231.794871,4443.589743,4244.102564,4248.205128,4522.051282,4218.974358,4652.307692,3975.897436,4040.000000
254,4408.717948,4535.384615,4513.846153,4272.307692,4496.410256,4231.282051,4441.538461,4239.487179,4243.076923,4520.512820,4214.358974,4648.717948,3972.820513,4047.179487
255,4412.820512,4542.564102,4516.923076,4282.051282,4491.794871,4233.846153,4450.769230,4236.410256,4245.641025,4523.076923,4206.666666,4648.717948,3967.179488,4037.435897
256,4413.333333,4551.282051,4526.153846,4281.538461,4499.487179,4240.000000,4460.512820,4243.076923,4250.769230,4530.769230,4211.794871,4654.871794,3982.564103,4034.871794
257,4422.051282,4559.487179,4534.871794,4283.589743,4510.769230,4247.692307,4460.512820,4248.205128,4262.051282,4537.948717,4222.051282,4662.051282,3998.974359,4053.333333
258,4427.692307,4558.974358,4536.410256,4289.743589,4509.743589,4248.717948,4457.435897,4245.641025,4262.051282,4541.025641,4230.256410,4664.615384,3996.410257,4065.641025
259,4417.948717,4553.333333,4530.256410,4289.230769,4502.051282,4238.461538,4451.794871,4240.512820,4250.256410,4537.948717,4227.692307,4658.461538,3986.666667,4055.897435
