,AF3,F7,F3,FC5,T7,P7,O1,O2,P8,T8,FC6,F4,F8,AF4
0,4461.538461,4554.871794,4532.820512,4278.974358,4554.871794,4184.102564,4446.153846,4265.128205,4252.820512,4505.128205,4218.974358,4652.307692,3992.820513,3922.051283
1,4464.615384,4551.794871,4529.743589,4272.820512,4553.846153,4183.076923,4453.333333,4259.487179,4251.794871,4501.538461,4215.897435,4650.769230,3986.666667,3925.641026
2,4453.846153,4540.512820,4522.564102,4262.564102,4553.846153,4180.512820,4456.410256,4249.743589,4245.641025,4497.948717,4199.487179,4644.615384,3984.615385,3925.641026
3,4448.717948,4536.923076,4524.102564,4262.051282,4555.384615,4182.564102,4458.974358,4253.846153,4243.589743,4500.512820,4203.076923,4645.641025,3987.179488,3922.564103
4,4457.435897,4540.512820,4535.897435,4266.153846,4554.358974,4184.615384,4461.025641,4258.461538,4248.717948,4507.179487,4217.435897,4650.256410,3992.820513,3928.717949
5,4461.538461,4541.538461,4534.871794,4267.179487,4554.358974,4183.076923,4460.000000,4254.358974,4247.692307,4507.179487,4215.897435,4650.256410,3990.769231,3927.692308
6,4458.974358,4535.897435,4528.717948,4266.153846,4551.282051,4180.000000,4458.461538,4255.384615,4245.641025,4501.538461,4207.179487,4648.205128,3982.051283,3924.102565
7,4450.256410,4527.692307,4529.743589,4260.512820,4543.589743,4173.333333,4457.435897,4261.538461,4248.205128,4502.564102,4204.615384,4647.179487,3979.487180,3925.641026
8,4446.666666,4531.282051,4529.743589,4254.871794,4539.487179,4168.717948,4455.897435,4262.051282,4248.205128,4505.641025,4203.076923,4647.179487,3984.615385,3925.641026
9,4453.846153,4539.487179,4529.230769,4258.974358,4543.076923,4170.769230,4454.871794,4256.410256,4247.179487,4500.512820,4203.589743,4649.743589,3987.179488,3930.256411
10,4452.307692,4531.794871,4531.282051,4264.615384,4542.051282,4171.282051,4455.384615,4250.769230,4244.615384,4492.307692,4205.641025,4648.717948,3986.666667,3925.128206
11,4441.538461,4521.025641,4526.666666,4263.076923,4536.410256,4167.179487,4456.410256,4248.205128,4243.076923,4501.025641,4203.589743,4642.564102,3978.974359,3909.743590
12,4443.076923,4527.179487,4522.564102,4257.435897,4543.589743,4170.256410,4460.512820,4251.282051,4248.717948,4509.230769,4201.538461,4645.641025,3974.871795,3915.384616
13,4447.179487,4529.743589,4526.153846,4250.256410,4552.307692,4177.948717,4463.589743,4248.717948,4247.179487,4493.846153,4201.025641,4648.205128,3982.564103,3924.102565
14,4442.564102,4518.974358,4523.076923,4247.692307,4544.102564,4172.307692,4458.974358,4243.076923,4238.974358,4484.615384,4200.000000,4642.564102,3983.589744,3912.820513
15,4443.589743,4521.025641,4518.461538,4256.923076,4541.025641,4170.256410,4457.948717,4247.692307,4247.692307,4499.487179,4204.102564,4643.076923,3977.435898,3906.153847
16,4447.179487,4533.846153,4522.051282,4263.076923,4550.256410,4177.435897,4464.102564,4253.846153,4257.948717,4514.358974,4211.282051,4649.743589,3981.025642,3913.846154
17,4447.179487,4532.307692,4523.076923,4260.512820,4553.333333,4178.461538,4464.615384,4249.230769,4244.102564,4507.692307,4210.769230,4647.179487,3983.589744,3917.948718
18,4448.205128,4527.692307,4522.564102,4261.025641,4551.794871,4177.435897,4461.025641,4243.589743,4230.256410,4489.230769,4203.076923,4641.025641,3982.564103,3915.384616
19,4445.128205,4533.846153,4522.564102,4262.564102,4551.794871,4177.435897,4463.589743,4245.128205,4233.846153,4485.128205,4196.923076,4640.512820,3984.615385,3913.333334
20,4445.641025,4538.974358,4522.051282,4266.153846,4548.717948,4172.820512,4464.102564,4246.153846,4240.000000,4497.435897,4202.051282,4642.564102,3985.641026,3917.435898
21,4455.384615,4542.051282,4528.205128,4272.820512,4551.282051,4177.948717,4457.948717,4251.794871,4249.230769,4504.102564,4223.076923,4652.307692,3990.769231,3928.205129
22,4463.076923,4545.641025,4539.487179,4274.871794,4557.948717,4185.128205,4457.435897,4264.102564,4266.153846,4510.256410,4235.384615,4663.589743,4006.153846,3940.000000
23,4461.025641,4542.564102,4540.512820,4271.282051,4555.897435,4175.897435,4461.025641,4267.692307,4271.794871,4522.564102,4220.000000,4660.512820,4010.256410,3946.153847
24,4453.333333,4534.871794,4527.179487,4266.666666,4550.256410,4167.692307,4460.000000,4256.410256,4257.435897,4520.000000,4206.666666,4648.717948,3997.948718,3934.358975
25,4445.641025,4528.717948,4520.512820,4258.461538,4545.128205,4169.743589,4460.000000,4248.205128,4245.128205,4507.179487,4210.256410,4644.615384,3983.076924,3917.948718
26,4441.025641,4521.025641,4522.051282,4248.717948,4538.974358,4167.179487,4461.025641,4247.692307,4244.102564,4500.512820,4206.153846,4642.051282,3971.282052,3915.897436
27,4439.487179,4517.948717,4519.487179,4246.666666,4537.435897,4167.179487,4460.000000,4241.538461,4238.461538,4496.410256,4196.923076,4632.307692,3970.769231,3911.282052
28,4439.487179,4524.615384,4516.923076,4253.846153,4541.025641,4169.743589,4456.923076,4235.897435,4231.794871,4490.256410,4196.410256,4630.256410,3978.461539,3909.230770
29,4447.692307,4532.820512,4524.615384,4262.564102,4546.153846,4166.666666,4455.897435,4241.025641,4241.538461,4489.743589,4199.487179,4642.051282,3986.153847,3923.076924
30,4458.461538,4536.923076,4533.333333,4268.717948,4551.794871,4171.282051,4464.615384,4251.282051,4254.358974,4495.897435,4208.205128,4649.743589,3989.230770,3931.794872
31,4457.948717,4535.897435,4529.230769,4268.717948,4553.333333,4177.435897,4474.871794,4251.282051,4249.743589,4501.538461,4214.871794,4645.641025,3987.692308,3925.641026
32,4455.897435,4535.897435,4527.179487,4268.717948,4553.333333,4174.871794,4472.820512,4251.794871,4245.128205,4508.717948,4216.410256,4646.153846,3988.717949,3928.205129
33,4460.000000,4540.512820,4537.948717,4276.410256,4553.846153,4174.358974,4463.589743,4257.948717,4254.358974,4513.333333,4217.435897,4652.820512,3997.948718,3940.000000
34,4461.538461,4542.051282,4545.128205,4281.538461,4551.282051,4175.897435,4459.487179,4257.435897,4258.461538,4513.846153,4216.923076,4657.435897,4002.564102,3943.076924
35,4461.025641,4537.948717,4538.974358,4272.307692,4550.769230,4172.820512,4460.512820,4251.282051,4249.743589,4510.256410,4216.923076,4655.897435,3996.410257,3941.538462
36,4458.461538,4532.820512,4535.384615,4262.051282,4548.717948,4169.743589,4458.974358,4247.179487,4245.128205,4508.205128,4217.948717,4650.256410,3988.717949,3934.871795
37,4452.820512,4533.846153,4538.974358,4264.102564,4543.589743,4169.743589,4458.974358,4248.717948,4248.205128,4504.615384,4212.307692,4647.179487,3988.717949,3926.666667
38,4455.897435,4536.923076,4533.846153,4263.589743,4546.153846,4172.307692,4464.102564,4249.743589,4247.179487,4495.897435,4198.974358,4644.615384,3988.205129,3925.128206
39,4454.358974,4532.307692,4525.641025,4258.461538,4552.820512,4176.410256,4472.307692,4248.717948,4244.615384,4487.179487,4195.897435,4640.512820,3984.102565,3928.205129
40,4445.128205,4526.666666,4529.230769,4260.512820,4555.384615,4175.384615,4473.846153,4248.717948,4248.717948,4491.282051,4209.230769,4639.487179,3989.743590,3928.205129
41,4451.282051,4532.820512,4538.461538,4268.205128,4550.769230,4170.769230,4465.128205,4248.205128,4255.897435,4505.128205,4217.435897,4646.153846,3994.358975,3926.666667
42,4464.615384,4542.564102,4537.948717,4269.743589,4543.076923,4169.743589,4457.948717,4249.743589,4254.871794,4512.820512,4215.897435,4654.871794,3987.179488,3930.769231
43,4463.076923,4540.000000,4536.923076,4268.717948,4542.051282,4168.717948,4457.948717,4249.743589,4247.179487,4507.179487,4217.435897,4657.948717,3990.769231,3937.948718
44,4458.461538,4533.846153,4541.538461,4274.358974,4548.717948,4168.205128,4458.461538,4249.743589,4248.717948,4502.051282,4220.000000,4656.923076,4001.025641,3945.641026
45,4461.025641,4536.410256,4542.564102,4274.358974,4551.794871,4170.769230,4455.384615,4249.230769,4252.307692,4504.102564,4214.871794,4652.307692,3994.358975,3944.615385
46,4463.076923,4540.512820,4536.410256,4267.179487,4549.743589,4170.256410,4454.358974,4246.666666,4249.230769,4509.230769,4213.846153,4649.230769,3990.256411,3940.512821
47,4461.025641,4535.897435,4534.358974,4260.512820,4550.769230,4168.717948,4457.948717,4241.025641,4248.205128,4505.641025,4217.435897,4646.153846,3995.384616,3934.871795
48,4447.692307,4522.564102,4529.743589,4253.846153,4550.769230,4171.794871,4464.615384,4237.948717,4249.743589,4497.435897,4207.692307,4636.410256,3982.564103,3925.128206
49,4441.025641,4521.025641,4523.076923,4254.358974,4551.282051,4173.846153,4472.307692,4244.102564,4249.230769,4498.974358,4197.948717,4629.743589,3970.769231,3921.538462
50,4452.820512,4535.897435,4527.692307,4267.179487,4554.871794,4171.282051,4475.384615,4249.230769,4247.179487,4507.179487,4200.512820,4634.358974,3983.589744,3927.692308
51,4462.051282,4540.512820,4537.435897,4277.435897,4553.846153,4174.358974,4473.846153,4247.179487,4252.820512,4512.820512,4205.128205,4643.076923,3997.948718,3936.923077
52,4462.564102,4536.410256,4540.512820,4275.897435,4553.333333,4184.615384,4473.333333,4247.179487,4263.076923,4521.025641,4208.717948,4648.205128,4002.051282,3942.051283
53,4465.128205,4541.025641,4540.000000,4269.743589,4556.410256,4184.615384,4476.923076,4251.794871,4262.564102,4524.615384,4215.897435,4649.230769,4001.025641,3937.435898
54,4458.461538,4539.487179,4534.871794,4264.102564,4552.307692,4170.769230,4472.820512,4246.153846,4248.205128,4512.820512,4221.538461,4641.538461,3985.641026,3925.128206
55,4445.641025,4525.128205,4530.769230,4263.589743,4543.076923,4166.153846,4467.179487,4238.461538,4238.974358,4503.589743,4214.871794,4634.358974,3975.897436,3924.615385
56,4453.333333,4524.102564,4532.820512,4265.128205,4545.641025,4172.820512,4470.769230,4245.128205,4249.230769,4509.743589,4203.076923,4638.974358,3989.743590,3939.487180
57,4461.538461,4536.410256,4536.923076,4264.615384,4553.846153,4170.256410,4474.871794,4257.948717,4261.538461,4519.487179,4199.487179,4641.025641,3996.923077,3941.538462
58,4461.538461,4542.051282,4542.051282,4273.333333,4553.846153,4170.769230,4470.256410,4264.615384,4266.666666,4525.641025,4207.692307,4642.564102,3989.743590,3929.743590
59,4469.230769,4540.000000,4547.179487,4281.538461,4552.307692,4181.538461,4471.794871,4266.153846,4266.153846,4525.128205,4222.051282,4653.333333,3995.384616,3934.358975
60,4473.846153,4538.974358,4549.230769,4275.384615,4555.384615,4182.564102,4483.589743,4264.102564,4262.564102,4515.897435,4227.692307,4660.512820,4001.025641,3951.794872
61,4464.615384,4535.384615,4544.102564,4266.666666,4556.923076,4179.487179,4486.666666,4262.051282,4262.051282,4508.205128,4222.051282,4651.794871,3993.333334,3951.282052
62,4451.794871,4524.615384,4531.282051,4263.076923,4550.256410,4178.461538,4476.410256,4258.974358,4255.384615,4506.153846,4207.692307,4637.948717,3985.641026,3935.384616
63,4448.205128,4518.461538,4525.641025,4262.051282,4544.102564,4172.307692,4471.282051,4251.794871,4249.230769,4505.128205,4200.000000,4633.846153,3978.974359,3925.128206
64,4455.897435,4526.666666,4536.410256,4264.102564,4547.179487,4174.871794,4477.435897,4253.846153,4254.871794,4506.666666,4209.230769,4638.974358,3976.923077,3922.564103
65,4462.051282,4535.897435,4540.512820,4267.692307,4554.871794,4183.076923,4475.897435,4261.538461,4256.410256,4505.641025,4210.256410,4646.153846,3987.692308,3926.666667
66,4459.487179,4537.435897,4533.333333,4265.641025,4554.871794,4180.000000,4472.820512,4261.538461,4251.282051,4503.589743,4201.025641,4646.153846,3992.820513,3937.948718
67,4460.000000,4534.871794,4537.435897,4263.076923,4552.307692,4177.948717,4486.153846,4267.692307,4258.461538,4512.307692,4208.205128,4647.179487,3987.179488,3949.743590
68,4467.692307,4528.717948,4543.076923,4267.179487,4553.846153,4187.692307,4493.333333,4277.435897,4269.230769,4520.000000,4224.102564,4655.897435,3988.205129,3950.769231
69,4461.538461,4524.615384,4537.435897,4266.666666,4554.358974,4183.589743,4478.461538,4269.230769,4262.051282,4510.256410,4219.487179,4654.871794,3994.871795,3935.384616
70,4457.435897,4529.743589,4536.410256,4263.076923,4550.769230,4172.307692,4468.717948,4258.461538,4257.948717,4506.666666,4213.846153,4647.179487,3993.333334,3927.692308
71,4471.794871,4543.076923,4545.641025,4270.256410,4555.384615,4176.923076,4473.846153,4263.076923,4264.102564,4522.564102,4222.564102,4650.769230,3995.384616,3946.153847
72,4478.974358,4543.076923,4546.666666,4277.435897,4563.589743,4187.179487,4481.025641,4266.153846,4263.589743,4525.128205,4220.512820,4657.948717,3998.974359,3957.948718
73,4466.666666,4529.743589,4537.435897,4273.333333,4561.538461,4188.205128,4485.641025,4263.589743,4258.974358,4507.692307,4212.307692,4651.282051,3993.846154,3944.615385
74,4462.051282,4527.692307,4535.384615,4272.307692,4559.487179,4184.615384,4489.230769,4268.717948,4260.512820,4507.692307,4219.487179,4644.615384,3992.307693,3937.435898
75,4472.307692,4540.000000,4546.153846,4278.974358,4563.589743,4186.666666,4490.256410,4275.384615,4266.153846,4524.615384,4232.307692,4650.769230,4005.128205,3941.025642
76,4475.384615,4546.153846,4550.256410,4281.025641,4561.025641,4186.666666,4486.666666,4276.410256,4269.230769,4529.743589,4231.282051,4655.897435,4009.743589,3943.589744
77,4472.820512,4539.487179,4544.615384,4278.974358,4557.948717,4184.615384,4478.974358,4274.358974,4272.820512,4525.641025,4229.743589,4659.487179,4005.128205,3953.846154
78,4477.435897,4536.923076,4550.256410,4279.487179,4561.025641,4186.153846,4475.384615,4277.948717,4275.897435,4528.717948,4235.384615,4664.615384,4013.846153,3967.179488
79,4478.461538,4541.538461,4555.384615,4275.897435,4559.487179,4186.666666,4477.435897,4281.538461,4272.820512,4529.743589,4233.333333,4664.615384,4018.461538,3963.076924
80,4473.333333,4540.512820,4547.179487,4274.358974,4554.871794,4183.589743,4474.358974,4270.769230,4268.717948,4515.897435,4228.205128,4658.974358,4002.564102,3943.076924
81,4473.333333,4538.461538,4543.589743,4279.487179,4557.435897,4182.564102,4472.820512,4264.615384,4266.666666,4506.666666,4228.717948,4658.974358,3999.487180,3943.076924
82,4478.974358,4543.076923,4549.230769,4278.974358,4561.025641,4185.641025,4476.923076,4273.846153,4262.564102,4517.948717,4232.307692,4662.051282,4010.769230,3962.564103
83,4482.564102,4546.666666,4552.820512,4280.000000,4562.564102,4185.641025,4476.410256,4276.410256,4262.051282,4523.589743,4233.333333,4660.512820,4011.282051,3970.256411
84,4479.487179,4541.538461,4549.230769,4279.487179,4558.974358,4183.589743,4473.333333,4265.128205,4264.615384,4510.769230,4226.666666,4654.871794,4005.641025,3957.948718
85,4469.230769,4533.333333,4540.512820,4268.205128,4552.820512,4178.461538,4472.307692,4254.358974,4255.897435,4504.615384,4216.923076,4645.128205,4000.000000,3940.000000
86,4460.000000,4525.128205,4527.692307,4259.487179,4551.794871,4172.820512,4465.641025,4247.692307,4245.128205,4504.615384,4209.230769,4634.358974,3983.076924,3924.102565
87,4456.923076,4521.025641,4522.564102,4262.564102,4552.820512,4175.897435,4460.512820,4245.641025,4243.589743,4493.333333,4201.538461,4631.282051,3971.282052,3922.051283
88,4457.435897,4523.076923,4527.179487,4263.589743,4554.871794,4185.128205,4467.179487,4246.666666,4247.692307,4486.153846,4195.897435,4632.820512,3977.948718,3935.384616
89,4463.076923,4528.205128,4530.769230,4262.051282,4555.384615,4185.641025,4471.282051,4247.179487,4248.205128,4497.948717,4204.102564,4632.820512,3986.666667,3945.641026
90,4472.307692,4532.820512,4534.358974,4269.230769,4553.846153,4182.564102,4471.794871,4249.230769,4247.179487,4508.717948,4215.384615,4634.358974,3990.769231,3942.051283
91,4471.794871,4537.435897,4532.307692,4271.794871,4554.358974,4184.615384,4469.230769,4250.256410,4244.102564,4501.538461,4208.717948,4632.820512,3991.794872,3928.717949
92,4469.230769,4538.461538,4524.615384,4265.641025,4557.435897,4185.128205,4465.641025,4255.384615,4249.230769,4496.410256,4201.025641,4632.820512,3985.128206,3926.153847
93,4472.307692,4536.410256,4523.589743,4262.051282,4555.897435,4183.076923,4467.692307,4264.102564,4263.589743,4504.615384,4212.307692,4640.512820,3983.076924,3939.487180
94,4476.923076,4541.025641,4534.358974,4269.230769,4555.384615,4184.615384,4475.384615,4267.179487,4267.179487,4515.384615,4222.051282,4648.205128,3997.435898,3952.307693
95,4481.025641,4550.769230,4542.564102,4282.564102,4562.564102,4186.153846,4472.820512,4272.820512,4263.589743,4518.461538,4217.435897,4651.794871,4013.333333,3955.897436
96,4481.538461,4548.205128,4538.461538,4280.512820,4563.076923,4184.615384,4460.512820,4276.923076,4263.589743,4514.871794,4219.487179,4652.307692,4010.256410,3947.179488
97,4476.923076,4536.410256,4537.435897,4267.179487,4554.358974,4181.538461,4461.025641,4269.230769,4263.589743,4509.230769,4224.102564,4650.256410,4001.538461,3941.025642
98,4475.897435,4541.538461,4538.974358,4263.589743,4553.846153,4184.102564,4472.307692,4260.000000,4256.923076,4507.179487,4217.948717,4649.230769,4003.589743,3947.179488
99,4477.948717,4556.923076,4537.948717,4266.153846,4559.487179,4189.230769,4477.948717,4264.102564,4260.000000,4507.692307,4216.410256,4653.333333,4007.179487,3955.897436
100,4474.358974,4553.333333,4534.358974,4264.102564,4558.461538,4188.205128,4473.846153,4263.589743,4262.051282,4510.256410,4216.410256,4653.846153,4002.564102,3951.282052
101,4471.794871,4541.025641,4533.333333,4263.076923,4553.333333,4183.589743,4470.769230,4252.307692,4244.102564,4508.717948,4208.205128,4648.717948,3996.410257,3940.000000
102,4472.307692,4540.000000,4531.794871,4263.589743,4552.307692,4184.102564,4474.358974,4250.769230,4233.333333,4498.974358,4196.923076,4642.564102,3989.743590,3926.153847
103,4471.282051,4543.589743,4528.205128,4263.589743,4553.333333,4182.564102,4472.307692,4258.974358,4244.102564,4498.461538,4194.871794,4642.564102,3986.666667,3922.051283
104,4472.307692,4540.000000,4530.256410,4261.025641,4552.820512,4177.948717,4463.589743,4262.564102,4249.230769,4504.102564,4204.102564,4647.692307,3992.820513,3935.897436
105,4471.282051,4541.025641,4534.871794,4260.512820,4550.769230,4178.461538,4458.461538,4258.974358,4249.743589,4507.692307,4215.897435,4650.256410,4000.512820,3953.333334
106,4475.897435,4552.307692,4543.076923,4271.282051,4553.846153,4183.589743,4462.564102,4262.564102,4258.461538,4516.923076,4221.538461,4656.923076,4006.153846,3956.923077
107,4483.076923,4557.435897,4548.205128,4282.564102,4556.923076,4182.564102,4461.025641,4266.666666,4257.948717,4518.461538,4218.974358,4663.589743,4008.205128,3948.717949
108,4481.538461,4552.820512,4547.179487,4277.435897,4554.358974,4179.487179,4458.461538,4264.102564,4251.282051,4504.615384,4216.923076,4663.589743,4004.102564,3945.128206
109,4475.897435,4544.615384,4546.666666,4266.153846,4553.333333,4182.051282,4466.666666,4264.102564,4254.358974,4502.564102,4211.794871,4662.051282,4003.589743,3945.641026
110,4476.923076,4538.974358,4545.641025,4264.102564,4554.871794,4186.153846,4477.435897,4266.666666,4261.538461,4510.256410,4207.179487,4658.974358,4004.615384,3944.102565
111,4471.794871,4543.076923,4538.974358,4266.153846,4555.384615,4187.179487,4478.974358,4264.615384,4262.564102,4510.769230,4211.282051,4649.743589,3995.897436,3944.102565
112,4467.179487,4551.794871,4534.358974,4268.717948,4555.384615,4185.641025,4471.282051,4253.846153,4253.333333,4508.717948,4211.794871,4645.128205,3987.692308,3940.000000
113,4469.743589,4550.256410,4537.948717,4268.717948,4554.871794,4183.589743,4463.589743,4244.102564,4240.000000,4503.076923,4203.076923,4648.205128,3990.256411,3932.820513
114,4463.589743,4541.025641,4536.410256,4266.666666,4551.794871,4181.538461,4458.974358,4244.615384,4241.025641,4501.538461,4197.435897,4646.666666,3992.307693,3932.307693
115,4460.512820,4535.384615,4534.358974,4263.589743,4552.307692,4181.025641,4460.000000,4247.692307,4248.717948,4507.179487,4207.692307,4645.641025,3994.358975,3940.512821
116,4470.769230,4537.435897,4536.923076,4258.461538,4555.384615,4183.076923,4465.128205,4249.230769,4242.564102,4502.051282,4214.358974,4648.205128,3997.435898,3945.641026
117,4477.435897,4544.615384,4536.410256,4266.153846,4555.384615,4184.102564,4467.692307,4247.179487,4235.897435,4492.307692,4206.666666,4646.666666,3995.384616,3944.102565
118,4481.025641,4552.307692,4540.000000,4278.461538,4554.871794,4183.076923,4465.128205,4247.692307,4246.153846,4503.076923,4205.128205,4653.333333,4003.076923,3947.692308
119,4492.820512,4565.128205,4550.256410,4280.512820,4556.923076,4184.102564,4461.538461,4258.974358,4264.615384,4524.615384,4222.051282,4669.743589,4025.641025,3963.589744
120,4500.000000,4575.384615,4558.461538,4286.666666,4558.461538,4188.717948,4461.538461,4269.230769,4269.743589,4531.282051,4237.948717,4676.410256,4033.846153,3976.923077
121,4492.307692,4567.692307,4557.948717,4290.256410,4555.384615,4185.128205,4459.487179,4263.589743,4259.487179,4519.487179,4233.846153,4668.717948,4019.487179,3969.743590
122,4482.051282,4551.282051,4547.692307,4274.871794,4551.282051,4176.410256,4457.435897,4250.769230,4251.282051,4509.743589,4221.025641,4660.000000,4004.615384,3952.820513
123,4482.564102,4549.230769,4539.487179,4265.128205,4552.307692,4178.461538,4458.974358,4246.666666,4247.692307,4506.666666,4214.358974,4655.897435,4003.076923,3952.307693
124,4486.153846,4554.358974,4543.076923,4272.820512,4555.384615,4185.128205,4460.512820,4247.179487,4240.512820,4497.948717,4215.384615,4658.461538,4005.128205,3956.923077
125,4480.512820,4550.769230,4545.128205,4276.923076,4557.435897,4184.615384,4460.000000,4245.641025,4236.923076,4490.769230,4211.282051,4660.000000,4001.538461,3947.692308
126,4474.871794,4545.641025,4541.538461,4274.871794,4554.871794,4181.025641,4459.487179,4243.589743,4244.615384,4501.025641,4208.717948,4658.974358,4000.000000,3939.487180
127,4475.384615,4544.102564,4543.076923,4272.307692,4552.307692,4182.564102,4462.051282,4247.692307,4249.743589,4510.769230,4216.923076,4660.000000,4002.564102,3942.051283
128,4474.871794,4542.051282,4542.564102,4265.641025,4553.333333,4185.128205,4464.102564,4258.461538,4251.282051,4506.666666,4220.000000,4660.000000,4005.128205,3945.128206
129,4472.307692,4535.897435,4536.923076,4263.076923,4553.333333,4181.538461,4462.564102,4266.666666,4261.025641,4510.769230,4214.871794,4658.461538,4007.179487,3949.230770
130,4475.384615,4536.410256,4536.923076,4269.743589,4550.256410,4176.923076,4459.487179,4265.128205,4266.666666,4522.564102,4218.461538,4663.076923,4008.717948,3954.358975
131,4483.589743,4546.153846,4544.102564,4278.461538,4551.282051,4180.000000,4456.923076,4260.000000,4256.923076,4521.025641,4228.717948,4665.128205,4008.205128,3955.384616
132,4490.769230,4552.820512,4551.794871,4283.076923,4556.410256,4187.179487,4457.948717,4263.076923,4252.307692,4512.820512,4230.256410,4664.102564,4011.282051,3956.923077
133,4492.307692,4550.769230,4555.897435,4283.589743,4556.923076,4187.179487,4459.487179,4264.615384,4259.487179,4509.230769,4226.666666,4668.717948,4017.948717,3960.000000
134,4487.692307,4545.641025,4547.692307,4278.974358,4554.358974,4185.128205,4460.000000,4254.871794,4257.948717,4508.717948,4222.051282,4667.692307,4010.769230,3956.410257
135,4477.948717,4539.487179,4533.846153,4268.205128,4553.333333,4186.153846,4459.487179,4245.128205,4247.179487,4507.179487,4211.794871,4652.820512,3993.333334,3949.230770
136,4468.717948,4534.358974,4527.692307,4261.538461,4553.846153,4186.153846,4458.461538,4242.564102,4241.025641,4499.487179,4198.461538,4643.589743,3987.179488,3939.487180
137,4470.769230,4534.871794,4531.282051,4269.743589,4554.358974,4189.230769,4460.000000,4241.538461,4241.025641,4490.256410,4197.435897,4646.666666,3994.871795,3933.333334
138,4480.000000,4537.435897,4537.948717,4279.487179,4560.000000,4196.923076,4463.076923,4248.205128,4248.717948,4497.435897,4212.820512,4654.358974,4002.564102,3940.000000
139,4482.564102,4540.512820,4542.051282,4274.871794,4567.692307,4202.051282,4463.589743,4262.051282,4261.025641,4512.307692,4224.102564,4659.487179,4004.615384,3952.820513
140,4475.897435,4540.000000,4540.512820,4266.153846,4565.641025,4200.512820,4460.000000,4264.615384,4266.666666,4511.282051,4214.358974,4658.974358,4001.538461,3958.461539
141,4471.282051,4535.384615,4536.923076,4271.282051,4557.948717,4196.923076,4458.974358,4259.487179,4261.538461,4503.589743,4204.615384,4653.846153,3996.923077,3953.846154
142,4485.641025,4546.153846,4544.615384,4283.589743,4560.512820,4198.461538,4462.051282,4264.615384,4261.538461,4507.179487,4213.333333,4661.025641,4005.641025,3948.205129
143,4492.820512,4556.410256,4554.358974,4284.615384,4570.769230,4200.512820,4461.025641,4267.692307,4262.564102,4512.820512,4224.615384,4669.230769,4009.743589,3945.128206
144,4476.923076,4541.025641,4545.641025,4274.358974,4568.205128,4200.000000,4459.487179,4254.358974,4253.846153,4507.692307,4218.974358,4657.435897,3993.333334,3942.051283
145,4471.282051,4529.230769,4534.358974,4275.897435,4561.025641,4201.025641,4468.717948,4245.128205,4247.179487,4502.051282,4205.641025,4649.230769,3986.153847,3943.076924
146,4477.948717,4542.051282,4538.974358,4281.025641,4560.512820,4203.076923,4474.871794,4249.230769,4246.666666,4505.641025,4199.487179,4654.358974,3993.846154,3945.128206
147,4466.153846,4540.512820,4541.025641,4272.307692,4558.461538,4195.384615,4464.615384,4250.769230,4248.205128,4503.076923,4199.487179,4651.282051,3985.641026,3936.923077
148,4455.384615,4525.128205,4532.307692,4262.051282,4553.846153,4191.282051,4458.974358,4249.230769,4252.820512,4496.923076,4201.025641,4644.615384,3975.897436,3931.282052
149,4464.615384,4529.230769,4529.743589,4263.076923,4553.846153,4191.282051,4462.564102,4251.794871,4256.410256,4502.051282,4201.025641,4651.282051,3984.102565,3937.435898
150,4469.230769,4538.974358,4535.384615,4264.615384,4554.871794,4188.717948,4459.487179,4251.282051,4250.769230,4507.692307,4202.564102,4654.358974,3995.897436,3946.153847
151,4469.230769,4536.410256,4539.487179,4267.179487,4553.846153,4191.282051,4456.923076,4248.717948,4251.282051,4502.564102,4209.230769,4647.692307,3994.358975,3950.769231
152,4472.307692,4532.820512,4537.435897,4274.871794,4555.897435,4193.846153,4462.051282,4250.769230,4264.615384,4501.025641,4214.871794,4651.282051,3987.179488,3948.205129
153,4476.923076,4536.410256,4537.435897,4280.512820,4558.461538,4189.230769,4461.538461,4252.820512,4266.153846,4511.282051,4220.000000,4658.974358,3994.871795,3943.076924
154,4477.435897,4540.512820,4543.589743,4277.435897,4556.923076,4185.641025,4459.487179,4250.769230,4252.820512,4511.282051,4215.897435,4654.871794,4005.128205,3943.589744
155,4465.128205,4532.307692,4537.948717,4267.692307,4551.282051,4186.153846,4459.487179,4247.692307,4244.615384,4497.948717,4202.564102,4640.512820,3992.307693,3944.102565
156,4456.410256,4522.564102,4524.102564,4261.025641,4550.256410,4184.615384,4458.974358,4248.205128,4246.153846,4497.948717,4195.897435,4635.384615,3976.923077,3941.538462
157,4470.256410,4526.666666,4528.717948,4264.102564,4554.871794,4185.641025,4459.487179,4252.820512,4248.717948,4504.102564,4202.564102,4644.102564,3981.538462,3943.589744
158,4478.461538,4527.692307,4536.923076,4267.179487,4555.384615,4186.153846,4462.051282,4252.820512,4248.205128,4501.538461,4205.128205,4647.179487,3985.641026,3939.487180
159,4462.051282,4521.538461,4528.205128,4263.589743,4552.307692,4183.589743,4461.538461,4248.205128,4247.692307,4496.410256,4197.435897,4637.435897,3979.487180,3928.717949
160,4455.384615,4524.102564,4520.000000,4262.564102,4551.282051,4185.641025,4460.512820,4246.153846,4247.179487,4494.871794,4197.948717,4634.871794,3978.974359,3925.641026
161,4466.666666,4526.666666,4520.512820,4261.538461,4553.333333,4184.615384,4460.512820,4245.641025,4238.974358,4491.282051,4205.128205,4637.435897,3975.384616,3927.179488
162,4474.358974,4523.589743,4523.589743,4263.589743,4553.846153,4183.589743,4461.025641,4246.666666,4229.743589,4489.743589,4198.461538,4633.846153,3968.717949,3933.846154
163,4475.897435,4523.589743,4527.179487,4268.205128,4553.333333,4184.615384,4461.025641,4246.666666,4233.846153,4492.820512,4188.205128,4634.871794,3977.948718,3942.564103
164,4474.358974,4526.153846,4526.666666,4264.102564,4549.743589,4183.076923,4458.461538,4245.641025,4245.128205,4495.897435,4200.000000,4641.538461,3991.282052,3941.538462
165,4475.897435,4526.153846,4529.743589,4262.051282,4549.230769,4183.589743,4456.923076,4248.205128,4248.205128,4503.076923,4219.487179,4645.641025,3992.307693,3938.974359
166,4477.948717,4529.230769,4534.871794,4268.205128,4554.358974,4187.692307,4460.000000,4250.769230,4246.666666,4502.564102,4218.461538,4647.179487,3989.230770,3945.128206
167,4476.410256,4534.358974,4531.282051,4270.769230,4556.923076,4187.179487,4461.538461,4248.717948,4246.153846,4487.179487,4209.230769,4643.589743,3984.102565,3945.641026
168,4472.820512,4537.948717,4529.230769,4270.769230,4554.871794,4184.102564,4459.487179,4247.179487,4247.692307,4490.769230,4213.846153,4641.025641,3981.025642,3939.487180
169,4473.846153,4536.923076,4533.333333,4277.948717,4555.384615,4186.153846,4461.025641,4250.256410,4250.769230,4508.717948,4218.461538,4646.666666,3989.230770,3941.025642
170,4475.384615,4527.692307,4528.717948,4280.000000,4555.897435,4186.153846,4464.615384,4250.769230,4244.102564,4503.076923,4206.153846,4646.153846,3993.846154,3945.641026
171,4473.333333,4519.487179,4520.512820,4269.230769,4551.794871,4182.564102,4466.666666,4247.179487,4236.410256,4490.256410,4197.948717,4636.923076,3985.641026,3942.564103
172,4474.871794,4523.589743,4524.102564,4261.025641,4552.307692,4182.051282,4470.769230,4247.179487,4242.564102,4498.974358,4209.230769,4637.948717,3984.102565,3939.487180
173,4477.435897,4528.205128,4528.717948,4267.179487,4557.948717,4186.153846,4475.384615,4250.256410,4245.641025,4504.102564,4218.461538,4647.179487,3991.282052,3943.076924
174,4477.435897,4525.128205,4526.153846,4278.974358,4557.435897,4186.666666,4475.897435,4250.256410,4241.025641,4491.794871,4214.871794,4647.692307,3991.794872,3944.615385
175,4480.000000,4526.153846,4528.717948,4278.974358,4553.333333,4185.641025,4473.333333,4250.256410,4242.051282,4488.717948,4211.794871,4646.153846,3984.615385,3943.589744
176,4480.512820,4530.256410,4533.846153,4270.256410,4554.871794,4185.128205,4474.871794,4251.794871,4248.717948,4500.512820,4207.692307,4647.179487,3981.025642,3943.589744
177,4474.358974,4524.615384,4529.743589,4264.102564,4550.256410,4177.948717,4471.794871,4249.230769,4246.666666,4507.692307,4197.948717,4641.538461,3986.666667,3944.102565
178,4472.820512,4520.512820,4520.000000,4264.615384,4543.589743,4173.333333,4462.564102,4246.153846,4237.948717,4500.512820,4197.948717,4635.384615,3989.743590,3945.641026
179,4477.948717,4530.256410,4522.564102,4271.794871,4550.256410,4179.487179,4457.948717,4248.205128,4237.948717,4488.717948,4211.794871,4642.051282,3985.641026,3946.153847
180,4480.512820,4537.435897,4531.794871,4280.000000,4556.923076,4184.615384,4463.076923,4250.769230,4244.102564,4489.743589,4214.358974,4650.256410,3994.871795,3949.230770
181,4486.153846,4533.846153,4535.384615,4279.487179,4554.358974,4182.051282,4472.307692,4251.282051,4249.743589,4503.076923,4207.179487,4648.717948,4008.205128,3959.487180
182,4493.333333,4537.948717,4537.435897,4278.461538,4554.871794,4185.641025,4477.435897,4250.256410,4248.205128,4509.230769,4213.333333,4647.692307,4001.025641,3961.025642
183,4484.615384,4537.948717,4537.948717,4278.461538,4556.923076,4185.128205,4473.846153,4248.205128,4241.538461,4498.974358,4219.487179,4646.153846,3987.179488,3947.692308
184,4473.333333,4524.615384,4530.256410,4270.256410,4552.820512,4173.333333,4463.589743,4245.641025,4233.333333,4488.205128,4203.076923,4638.974358,3985.128206,3939.487180
185,4478.461538,4525.128205,4525.128205,4268.717948,4551.282051,4172.820512,4456.923076,4244.102564,4232.820512,4496.410256,4191.794871,4638.974358,3988.717949,3943.589744
186,4490.256410,4540.512820,4533.846153,4280.000000,4554.871794,4183.589743,4460.512820,4249.230769,4244.615384,4511.282051,4208.717948,4650.256410,3991.282052,3954.871795
187,4491.282051,4538.461538,4543.076923,4284.615384,4554.358974,4184.615384,4468.717948,4257.948717,4250.769230,4514.871794,4222.564102,4654.358974,3990.256411,3962.564103
188,4488.205128,4532.307692,4539.487179,4283.076923,4553.846153,4180.000000,4472.820512,4255.897435,4249.230769,4510.256410,4216.410256,4649.230769,3986.666667,3950.256411
189,4489.230769,4540.000000,4532.820512,4282.564102,4553.846153,4182.564102,4470.256410,4249.743589,4248.717948,4504.615384,4213.333333,4645.128205,3987.692308,3943.076924
190,4490.256410,4536.923076,4532.820512,4280.000000,4554.358974,4185.641025,4469.230769,4248.717948,4249.743589,4505.128205,4215.897435,4644.102564,3992.307693,3951.282052
191,4488.205128,4526.153846,4531.282051,4275.384615,4551.794871,4181.538461,4470.769230,4247.692307,4246.666666,4506.666666,4207.692307,4641.025641,3992.820513,3950.256411
192,4487.692307,4531.794871,4528.205128,4277.948717,4551.794871,4180.000000,4471.794871,4247.692307,4243.076923,4506.153846,4204.102564,4639.487179,3993.846154,3950.256411
193,4489.230769,4538.974358,4531.282051,4278.974358,4554.358974,4183.589743,4473.846153,4249.230769,4246.666666,4504.102564,4215.897435,4643.076923,3992.307693,3955.897436
194,4490.769230,4537.435897,4537.435897,4274.871794,4554.871794,4186.153846,4476.410256,4253.846153,4247.692307,4506.153846,4220.512820,4644.102564,3985.641026,3949.230770
195,4492.820512,4537.948717,4538.461538,4280.512820,4556.410256,4185.128205,4476.923076,4257.948717,4245.128205,4512.307692,4215.897435,4644.102564,3991.282052,3946.666667
196,4491.794871,4541.538461,4535.384615,4287.179487,4556.923076,4185.641025,4476.923076,4254.358974,4247.179487,4513.333333,4213.846153,4644.615384,4001.538461,3957.948718
197,4490.769230,4545.128205,4535.897435,4280.512820,4555.897435,4187.179487,4476.410256,4252.820512,4250.256410,4509.743589,4213.846153,4645.128205,3996.410257,3960.512821
198,4494.358974,4550.256410,4537.435897,4280.000000,4556.410256,4187.179487,4473.846153,4258.461538,4248.717948,4509.230769,4214.358974,4649.230769,3993.333334,3958.974359
199,4495.384615,4552.307692,4537.435897,4286.666666,4555.897435,4185.128205,4472.307692,4262.564102,4247.179487,4511.794871,4217.435897,4654.871794,4008.205128,3964.102565
200,4491.794871,4553.846153,4537.435897,4283.589743,4552.307692,4182.051282,4473.333333,4259.487179,4247.692307,4509.743589,4215.897435,4652.820512,4007.692307,3956.923077
201,4491.282051,4551.794871,4536.923076,4277.435897,4551.282051,4181.538461,4470.769230,4254.871794,4246.666666,4508.205128,4212.307692,4646.153846,3990.256411,3952.820513
202,4492.307692,4545.641025,4537.435897,4278.461538,4553.333333,4183.589743,4465.128205,4253.846153,4244.615384,4512.820512,4210.769230,4650.769230,3991.282052,3963.076924
203,4493.846153,4546.666666,4538.974358,4277.435897,4552.820512,4183.076923,4463.589743,4255.897435,4249.230769,4520.512820,4211.282051,4658.461538,4004.615384,3967.179488
204,4494.358974,4556.923076,4541.025641,4277.948717,4553.846153,4184.615384,4466.153846,4253.846153,4251.282051,4521.025641,4214.871794,4656.923076,4009.743589,3963.589744
205,4490.769230,4551.794871,4538.461538,4275.897435,4554.871794,4185.641025,4462.564102,4245.641025,4244.102564,4509.230769,4213.846153,4651.282051,4001.025641,3956.410257
206,4487.692307,4538.974358,4535.897435,4271.282051,4552.307692,4179.487179,4458.461538,4245.128205,4242.051282,4505.641025,4203.589743,4650.256410,3992.820513,3952.307693
207,4488.205128,4546.153846,4535.384615,4273.846153,4550.769230,4176.923076,4461.538461,4249.743589,4247.179487,4509.230769,4199.487179,4653.846153,3994.358975,3954.871795
208,4491.282051,4560.512820,4538.461538,4280.000000,4552.820512,4182.564102,4463.589743,4249.743589,4247.179487,4510.256410,4209.743589,4655.384615,3995.384616,3960.000000
209,4493.846153,4557.948717,4543.589743,4280.512820,4552.820512,4184.615384,4461.025641,4251.282051,4246.666666,4512.820512,4219.487179,4658.461538,3999.487180,3968.717949
210,4494.871794,4550.769230,4543.589743,4281.025641,4552.820512,4182.564102,4461.538461,4256.410256,4248.205128,4509.743589,4217.948717,4664.102564,4011.794871,3972.307693
211,4492.307692,4552.820512,4539.487179,4276.410256,4550.256410,4180.512820,4462.564102,4255.897435,4247.692307,4506.153846,4218.974358,4665.128205,4014.871794,3966.153847
212,4488.717948,4547.692307,4536.923076,4265.128205,4546.666666,4177.948717,4461.025641,4249.743589,4248.205128,4509.743589,4223.076923,4655.897435,4002.564102,3958.461539
213,4487.179487,4536.410256,4537.948717,4267.692307,4549.230769,4178.974358,4466.153846,4248.205128,4244.615384,4504.102564,4213.846153,4649.230769,3993.846154,3956.410257
214,4488.205128,4542.051282,4538.974358,4278.461538,4554.871794,4185.641025,4472.307692,4249.230769,4240.000000,4492.820512,4200.512820,4652.820512,3992.820513,3958.974359
215,4488.717948,4553.333333,4538.461538,4277.435897,4554.358974,4185.128205,4468.205128,4248.205128,4243.589743,4498.461538,4204.615384,4656.410256,3991.794872,3955.897436
216,4489.743589,4550.256410,4544.102564,4274.358974,4550.769230,4180.000000,4468.205128,4249.230769,4247.179487,4507.179487,4215.897435,4658.461538,3995.384616,3953.846154
217,4493.846153,4547.692307,4551.282051,4284.102564,4553.846153,4183.076923,4473.846153,4249.743589,4247.179487,4504.615384,4221.025641,4664.102564,4000.000000,3962.564103
218,4490.769230,4550.769230,4547.692307,4284.615384,4552.307692,4185.128205,4467.179487,4249.743589,4247.692307,4503.589743,4218.461538,4662.051282,3998.461539,3966.666667
219,4476.923076,4544.615384,4537.948717,4269.230769,4542.564102,4175.384615,4457.435897,4249.743589,4248.205128,4506.666666,4204.615384,4650.256410,3990.769231,3952.820513
220,4472.820512,4536.410256,4536.923076,4261.538461,4538.461538,4168.717948,4458.461538,4243.076923,4244.102564,4505.128205,4202.051282,4647.179487,3990.256411,3940.512821
221,4478.974358,4536.410256,4540.512820,4264.102564,4540.000000,4170.256410,4458.974358,4233.846153,4235.897435,4504.615384,4215.384615,4651.794871,3996.923077,3941.538462
222,4478.461538,4539.487179,4538.974358,4267.179487,4544.615384,4174.358974,4455.897435,4236.923076,4237.948717,4506.153846,4211.794871,4650.256410,3992.307693,3950.256411
223,4476.410256,4543.076923,4540.000000,4269.743589,4550.256410,4174.871794,4456.923076,4245.128205,4244.615384,4507.179487,4201.025641,4647.692307,3985.641026,3957.948718
224,4481.538461,4542.564102,4544.102564,4279.487179,4552.820512,4174.358974,4459.487179,4244.615384,4237.435897,4500.512820,4209.743589,4652.307692,3996.923077,3952.820513
225,4482.564102,4542.564102,4544.102564,4280.000000,4551.282051,4177.435897,4459.487179,4245.128205,4235.384615,4497.435897,4222.051282,4654.871794,4006.153846,3944.102565
226,4478.974358,4548.717948,4540.000000,4268.205128,4551.794871,4179.487179,4457.435897,4246.666666,4248.717948,4502.051282,4216.923076,4650.256410,3996.923077,3942.051283
227,4477.435897,4546.153846,4535.897435,4268.717948,4550.769230,4174.358974,4455.384615,4238.461538,4243.076923,4495.897435,4202.564102,4646.153846,3987.179488,3942.564103
228,4475.384615,4537.435897,4534.358974,4278.974358,4550.256410,4171.794871,4455.897435,4234.871794,4226.666666,4485.641025,4200.000000,4648.205128,3990.256411,3949.230770
229,4477.948717,4544.615384,4536.923076,4279.487179,4552.820512,4174.871794,4458.461538,4245.641025,4236.410256,4493.333333,4215.384615,4649.743589,3996.410257,3955.897436
230,4488.205128,4553.846153,4537.948717,4276.923076,4553.846153,4174.871794,4461.538461,4252.820512,4251.794871,4511.282051,4222.051282,4649.743589,4002.051282,3952.820513
231,4487.692307,4545.641025,4537.948717,4276.923076,4551.794871,4172.307692,4461.025641,4249.743589,4246.153846,4508.205128,4213.846153,4650.769230,4003.076923,3948.205129
232,4475.897435,4535.384615,4538.461538,4268.205128,4544.615384,4170.256410,4458.974358,4246.666666,4242.564102,4494.358974,4213.846153,4650.769230,3997.948718,3946.666667
233,4473.333333,4531.282051,4533.846153,4260.512820,4538.461538,4166.666666,4456.923076,4247.692307,4248.205128,4498.461538,4215.384615,4648.717948,3994.871795,3942.564103
234,4477.435897,4533.333333,4531.282051,4265.641025,4538.461538,4169.230769,4455.897435,4246.666666,4243.076923,4505.128205,4212.820512,4644.615384,3989.230770,3944.102565
235,4475.897435,4541.025641,4533.846153,4269.230769,4540.000000,4172.307692,4457.948717,4244.615384,4240.000000,4501.538461,4216.410256,4642.051282,3984.615385,3944.615385
236,4472.820512,4535.897435,4532.820512,4266.153846,4538.461538,4169.743589,4459.487179,4245.128205,4242.564102,4496.410256,4212.820512,4641.538461,3990.256411,3933.333334
237,4470.769230,4525.128205,4529.230769,4262.051282,4538.461538,4167.179487,4457.435897,4244.615384,4236.923076,4494.871794,4200.512820,4643.076923,3992.820513,3930.256411
238,4472.820512,4532.307692,4532.307692,4263.076923,4540.512820,4169.230769,4457.435897,4244.102564,4237.435897,4500.000000,4202.564102,4643.076923,3988.205129,3941.538462
239,4472.820512,4536.410256,4531.794871,4262.051282,4541.538461,4170.769230,4455.897435,4242.564102,4246.153846,4504.615384,4204.102564,4637.948717,3985.641026,3941.025642
240,4467.179487,4523.589743,4523.589743,4258.974358,4540.000000,4168.205128,4448.205128,4237.948717,4239.487179,4495.384615,4194.358974,4632.307692,3983.076924,3930.256411
241,4464.615384,4522.051282,4523.589743,4260.512820,4538.461538,4166.666666,4447.692307,4236.923076,4228.205128,4486.153846,4193.846153,4633.846153,3985.128206,3926.153847
242,4465.641025,4527.179487,4525.128205,4259.487179,4539.487179,4167.179487,4448.717948,4236.410256,4232.307692,4494.358974,4201.538461,4633.846153,3989.743590,3931.282052
243,4466.666666,4522.051282,4522.051282,4256.923076,4536.410256,4166.666666,4444.102564,4235.384615,4234.358974,4494.358974,4205.641025,4630.769230,3984.615385,3935.384616
244,4470.769230,4529.743589,4526.153846,4262.051282,4536.923076,4166.153846,4450.769230,4241.538461,4230.769230,4489.743589,4208.717948,4635.384615,3986.153847,3941.025642
245,4482.051282,4549.743589,4533.846153,4269.230769,4542.051282,4170.769230,4461.025641,4251.282051,4235.384615,4497.948717,4213.333333,4645.128205,4001.025641,3950.256411
246,4486.153846,4548.717948,4534.871794,4268.205128,4541.538461,4171.794871,4454.358974,4243.589743,4240.000000,4502.564102,4211.794871,4647.692307,4005.128205,3954.871795
247,4482.564102,4535.384615,4535.384615,4268.205128,4538.461538,4168.717948,4447.692307,4235.897435,4238.461538,4505.128205,4213.846153,4648.717948,4002.051282,3949.743590
248,4479.487179,4534.358974,4535.384615,4269.230769,4541.025641,4168.717948,4448.205128,4240.512820,4236.410256,4508.717948,4218.974358,4650.769230,4001.538461,3946.153847
249,4474.358974,4537.948717,4526.153846,4260.512820,4540.000000,4168.717948,4444.102564,4235.384615,4230.256410,4497.948717,4213.333333,4643.589743,3989.743590,3942.051283
250,4476.923076,4537.435897,4526.153846,4264.615384,4542.564102,4169.230769,4449.743589,4233.333333,4227.179487,4488.717948,4209.743589,4640.000000,3984.102565,3942.051283
251,4488.717948,4538.974358,4538.974358,4283.076923,4551.282051,4172.820512,4462.564102,4246.153846,4241.538461,4502.564102,4215.384615,4653.333333,4001.538461,3955.897436
252,4492.820512,4541.025641,4541.538461,4288.205128,4547.692307,4172.307692,4462.051282,4252.307692,4251.282051,4506.666666,4222.564102,4661.025641,4008.717948,3956.410257
253,4487.179487,4540.512820,4535.384615,4277.435897,4540.512820,4170.256410,4454.871794,4245.128205,4243.589743,4493.333333,4221.538461,4651.794871,4000.512820,3944.615385
254,4490.256410,4540.000000,4535.897435,4276.410256,4549.230769,4173.333333,4456.410256,4244.102564,4237.948717,4494.358974,4213.333333,4646.153846,4002.564102,3952.307693
255,4491.794871,4540.000000,4540.512820,4284.102564,4557.948717,4175.897435,4458.974358,4247.179487,4238.974358,4498.974358,4211.794871,4649.743589,4001.025641,3957.948718
256,4481.025641,4536.410256,4537.948717,4278.974358,4551.282051,4172.307692,4460.000000,4241.025641,4232.307692,4493.333333,4213.333333,4649.743589,3991.282052,3944.102565
