,AF3,F7,F3,FC5,T7,P7,O1,O2,P8,T8,FC6,F4,F8,AF4
0,4466.153846,4542.564102,4544.615384,4273.846153,4492.307692,4196.923076,4459.487179,4207.179487,4223.589743,4508.717948,4227.692307,4686.153846,3983.589744,4067.179487
1,4468.717948,4543.589743,4544.615384,4274.871794,4492.307692,4196.410256,4464.615384,4210.769230,4225.128205,4498.461538,4225.641025,4683.589743,3985.641026,4069.743589
2,4466.153846,4544.615384,4548.205128,4276.923076,4494.358974,4201.538461,4466.153846,4214.358974,4225.641025,4503.589743,4225.128205,4684.102564,3982.564103,4065.641025
3,4464.615384,4545.641025,4545.641025,4278.974358,4498.974358,4207.692307,4468.717948,4214.871794,4227.692307,4512.820512,4229.743589,4683.589743,3980.512821,4066.666666
4,4473.846153,4550.256410,4545.641025,4280.000000,4502.051282,4210.256410,4474.871794,4217.948717,4232.820512,4511.794871,4241.025641,4685.128205,3982.564103,4072.820512
5,4477.435897,4552.307692,4553.333333,4281.025641,4500.512820,4209.230769,4477.948717,4222.564102,4232.820512,4507.179487,4240.512820,4689.230769,3989.743590,4074.358974
6,4472.307692,4550.256410,4554.871794,4282.051282,4503.589743,4211.794871,4476.410256,4223.076923,4229.230769,4509.743589,4230.256410,4689.743589,3990.256411,4073.333333
7,4475.897435,4554.871794,4553.333333,4284.102564,4510.256410,4218.974358,4479.487179,4220.512820,4233.333333,4514.358974,4231.794871,4687.692307,3985.128206,4076.410256
8,4479.487179,4557.948717,4555.897435,4286.666666,4510.256410,4220.000000,4488.717948,4216.410256,4236.410256,4511.282051,4235.384615,4689.230769,3982.564103,4076.923076
9,4471.794871,4550.256410,4553.846153,4285.128205,4501.025641,4211.794871,4485.128205,4215.897435,4228.717948,4501.538461,4227.179487,4687.692307,3980.512821,4073.333333
10,4467.179487,4547.179487,4548.205128,4280.512820,4495.897435,4206.666666,4477.948717,4216.923076,4224.102564,4501.025641,4223.076923,4683.589743,3982.051283,4072.307692
11,4470.769230,4551.282051,4546.153846,4278.461538,4497.435897,4211.794871,4478.974358,4212.307692,4226.666666,4503.589743,4224.615384,4682.564102,3981.538462,4071.794871
12,4472.820512,4552.307692,4549.743589,4282.564102,4501.025641,4216.923076,4481.025641,4213.333333,4224.615384,4498.974358,4224.615384,4686.666666,3977.948718,4072.820512
13,4471.282051,4548.717948,4554.358974,4289.743589,4503.076923,4214.871794,4481.538461,4221.538461,4221.538461,4504.102564,4228.205128,4688.717948,3982.564103,4073.846153
14,4472.307692,4547.692307,4554.358974,4292.307692,4505.128205,4212.307692,4487.179487,4222.564102,4226.153846,4515.897435,4233.846153,4688.717948,3993.846154,4074.871794
15,4479.487179,4555.384615,4554.358974,4294.358974,4511.794871,4218.974358,4491.282051,4222.564102,4235.384615,4519.487179,4241.025641,4695.897435,4002.564102,4081.538461
16,4487.179487,4569.230769,4563.076923,4302.564102,4519.487179,4225.641025,4490.256410,4229.230769,4242.564102,4524.102564,4252.820512,4704.102564,4006.666666,4090.769230
17,4491.282051,4576.923076,4570.256410,4308.717948,4524.102564,4224.615384,4491.282051,4233.846153,4240.512820,4529.743589,4258.461538,4706.153846,4007.692307,4094.358974
18,4492.307692,4572.307692,4565.128205,4305.641025,4524.102564,4221.538461,4490.769230,4230.769230,4239.487179,4528.205128,4249.230769,4704.102564,4011.282051,4094.871794
19,4490.256410,4567.692307,4564.615384,4301.025641,4519.487179,4222.051282,4491.794871,4230.256410,4245.641025,4527.692307,4243.076923,4702.564102,4015.384615,4096.923076
20,4486.666666,4567.179487,4567.692307,4298.461538,4514.358974,4220.000000,4492.307692,4232.820512,4242.564102,4524.102564,4243.589743,4701.538461,4005.641025,4093.333333
21,4485.641025,4565.128205,4562.051282,4293.333333,4510.769230,4213.846153,4487.179487,4229.743589,4233.846153,4514.871794,4240.000000,4700.512820,3995.384616,4084.615384
22,4488.205128,4566.153846,4558.461538,4291.794871,4509.743589,4213.846153,4482.564102,4228.205128,4241.538461,4520.000000,4240.512820,4700.512820,4004.615384,4086.666666
23,4492.820512,4573.333333,4564.102564,4302.051282,4516.923076,4219.487179,4485.641025,4238.461538,4253.333333,4532.307692,4248.717948,4705.128205,4017.948717,4100.000000
24,4498.461538,4575.897435,4571.282051,4308.717948,4521.538461,4218.461538,4487.692307,4247.692307,4254.358974,4534.871794,4253.846153,4712.820512,4016.410256,4103.589743
25,4497.435897,4569.743589,4569.230769,4304.102564,4517.435897,4210.256410,4480.512820,4238.974358,4253.333333,4531.282051,4254.358974,4710.769230,4007.692307,4094.871794
26,4487.692307,4565.128205,4562.051282,4300.000000,4515.384615,4206.153846,4477.948717,4229.230769,4248.717948,4526.666666,4250.769230,4702.564102,4002.051282,4087.179487
27,4486.666666,4565.641025,4562.051282,4300.000000,4519.487179,4206.666666,4481.538461,4234.358974,4241.538461,4516.923076,4241.025641,4701.538461,4002.051282,4087.692307
28,4491.794871,4568.717948,4564.615384,4301.025641,4521.538461,4204.102564,4482.051282,4236.923076,4241.538461,4513.846153,4232.307692,4703.076923,4007.179487,4092.307692
29,4488.205128,4566.153846,4563.589743,4302.051282,4519.487179,4200.512820,4482.564102,4231.282051,4245.128205,4523.589743,4234.358974,4701.538461,4009.230769,4094.358974
30,4488.205128,4561.538461,4566.666666,4302.564102,4522.051282,4202.564102,4489.230769,4233.846153,4249.230769,4531.794871,4244.102564,4704.615384,4011.282051,4097.435897
31,4501.025641,4567.179487,4575.897435,4306.666666,4530.256410,4210.256410,4492.307692,4244.102564,4255.384615,4530.769230,4251.282051,4711.282051,4011.794871,4103.589743
32,4502.564102,4571.282051,4577.435897,4306.666666,4535.384615,4211.282051,4492.820512,4246.153846,4255.897435,4522.564102,4248.717948,4711.282051,4008.717948,4102.051282
33,4494.358974,4566.153846,4572.820512,4303.076923,4531.794871,4207.692307,4494.358974,4243.589743,4252.307692,4515.897435,4245.128205,4708.717948,4007.179487,4097.948717
34,4495.384615,4566.153846,4576.410256,4304.102564,4532.307692,4207.179487,4491.282051,4244.102564,4250.769230,4512.820512,4252.820512,4713.333333,4010.256410,4100.512820
35,4497.948717,4575.384615,4577.948717,4306.153846,4540.000000,4205.128205,4489.743589,4240.000000,4249.743589,4504.102564,4260.512820,4715.384615,4011.794871,4101.025641
36,4491.282051,4575.384615,4572.820512,4303.589743,4540.512820,4204.102564,4490.256410,4237.435897,4250.256410,4494.358974,4253.333333,4708.717948,4009.230769,4097.435897
37,4484.102564,4568.717948,4571.794871,4304.102564,4535.897435,4206.153846,4488.717948,4236.410256,4250.256410,4494.358974,4244.615384,4707.692307,4007.692307,4096.410256
38,4484.102564,4572.820512,4578.461538,4310.256410,4543.076923,4208.205128,4491.282051,4238.461538,4254.358974,4502.564102,4252.820512,4715.384615,4012.820512,4097.948717
39,4490.256410,4583.076923,4585.641025,4313.333333,4556.410256,4212.307692,4504.102564,4250.256410,4265.641025,4503.076923,4269.230769,4721.025641,4022.051282,4104.615384
40,4490.769230,4583.589743,4586.666666,4310.769230,4561.538461,4220.512820,4506.666666,4260.000000,4274.358974,4501.025641,4276.923076,4721.538461,4027.692307,4111.282051
41,4477.435897,4576.410256,4581.538461,4303.076923,4555.384615,4216.923076,4495.384615,4253.333333,4271.794871,4499.487179,4271.282051,4719.487179,4022.564102,4104.102564
42,4470.256410,4574.358974,4580.000000,4301.025641,4549.743589,4210.256410,4495.384615,4247.692307,4266.153846,4494.871794,4265.128205,4716.923076,4018.974358,4098.461538
43,4477.948717,4580.512820,4588.717948,4310.256410,4556.923076,4217.435897,4509.743589,4259.487179,4266.153846,4492.820512,4271.282051,4721.025641,4027.179487,4106.153846
44,4476.923076,4581.025641,4595.384615,4312.820512,4566.153846,4225.128205,4510.769230,4265.128205,4271.282051,4492.307692,4277.948717,4726.666666,4028.205128,4104.615384
45,4469.230769,4574.358974,4594.358974,4308.717948,4561.538461,4223.076923,4503.076923,4260.000000,4275.384615,4495.897435,4280.512820,4728.205128,4018.974358,4101.025641
46,4475.897435,4581.025641,4597.435897,4316.410256,4561.538461,4223.076923,4512.307692,4265.128205,4282.051282,4505.128205,4289.230769,4731.282051,4026.153846,4109.743589
47,4483.589743,4591.794871,4607.692307,4323.076923,4571.282051,4229.230769,4518.461538,4273.333333,4286.153846,4510.769230,4292.820512,4734.871794,4044.102564,4114.871794
48,4481.538461,4592.820512,4612.820512,4319.487179,4574.871794,4232.307692,4512.820512,4270.256410,4285.641025,4510.256410,4291.794871,4735.897435,4047.179487,4113.333333
49,4483.589743,4593.846153,4610.769230,4321.538461,4575.897435,4231.794871,4513.846153,4266.666666,4284.102564,4512.820512,4292.820512,4737.435897,4041.538461,4117.948717
50,4483.076923,4594.358974,4608.205128,4328.205128,4577.948717,4227.692307,4512.820512,4269.230769,4286.666666,4515.897435,4290.256410,4736.923076,4036.410256,4120.000000
51,4480.512820,4589.230769,4610.256410,4325.641025,4573.333333,4224.102564,4508.717948,4270.256410,4289.743589,4512.307692,4288.717948,4732.820512,4037.948717,4115.384615
52,4485.641025,4591.282051,4613.846153,4325.128205,4570.256410,4228.717948,4513.333333,4272.820512,4289.230769,4514.358974,4293.333333,4738.974358,4051.282051,4119.487179
53,4492.307692,4602.051282,4613.846153,4331.794871,4578.461538,4236.410256,4518.974358,4272.307692,4286.153846,4522.564102,4296.923076,4749.230769,4061.538461,4127.179487
54,4488.205128,4604.615384,4612.820512,4331.282051,4581.538461,4233.333333,4514.358974,4269.743589,4283.589743,4522.564102,4298.974358,4746.153846,4055.384615,4125.641025
55,4481.025641,4596.410256,4610.769230,4328.205128,4572.820512,4225.641025,4509.743589,4268.205128,4281.025641,4516.923076,4296.410256,4736.410256,4043.076923,4115.384615
56,4476.923076,4593.333333,4606.153846,4328.205128,4572.307692,4227.179487,4510.769230,4265.641025,4276.923076,4513.846153,4284.615384,4732.820512,4039.487179,4109.743589
57,4473.333333,4594.358974,4606.153846,4329.230769,4578.461538,4231.282051,4516.923076,4266.153846,4276.410256,4516.410256,4276.923076,4733.333333,4041.025641,4110.769230
58,4474.871794,4593.333333,4610.256410,4330.769230,4576.923076,4233.333333,4525.128205,4272.307692,4282.564102,4520.512820,4281.538461,4733.333333,4042.051282,4110.256410
59,4474.358974,4592.307692,4610.256410,4327.179487,4576.410256,4237.948717,4524.615384,4274.358974,4286.666666,4517.435897,4288.205128,4734.358974,4040.000000,4104.615384
60,4473.846153,4594.871794,4609.230769,4324.102564,4580.512820,4239.487179,4524.102564,4276.410256,4286.666666,4518.461538,4288.717948,4735.897435,4037.948717,4103.589743
61,4475.384615,4592.307692,4609.743589,4325.128205,4576.410256,4234.358974,4526.153846,4281.538461,4290.769230,4528.205128,4281.538461,4736.923076,4040.000000,4107.692307
62,4475.897435,4587.179487,4611.794871,4326.666666,4569.230769,4233.846153,4524.102564,4281.025641,4295.897435,4531.282051,4281.538461,4740.000000,4041.538461,4110.769230
63,4476.923076,4588.205128,4616.410256,4328.717948,4574.358974,4238.974358,4526.153846,4281.538461,4294.358974,4525.641025,4290.256410,4742.564102,4042.051282,4110.256410
64,4473.333333,4582.564102,4616.410256,4329.230769,4575.897435,4235.384615,4527.179487,4283.076923,4288.205128,4524.615384,4283.076923,4737.435897,4039.487179,4106.666666
65,4471.282051,4581.025641,4611.794871,4328.205128,4565.128205,4229.743589,4523.076923,4277.948717,4289.230769,4532.307692,4273.846153,4732.820512,4035.897435,4104.102564
66,4474.358974,4586.153846,4611.794871,4328.205128,4556.923076,4231.282051,4523.076923,4278.461538,4294.358974,4536.410256,4285.128205,4737.435897,4038.461538,4107.179487
67,4476.410256,4585.128205,4614.871794,4329.743589,4558.974358,4233.333333,4529.230769,4286.666666,4295.384615,4534.358974,4293.846153,4742.564102,4042.564102,4111.282051
68,4475.384615,4589.743589,4614.358974,4331.794871,4569.230769,4233.846153,4529.230769,4287.692307,4292.307692,4535.384615,4286.666666,4742.564102,4044.102564,4114.871794
69,4479.487179,4596.923076,4610.256410,4329.743589,4571.794871,4231.794871,4521.538461,4280.000000,4289.743589,4535.384615,4278.974358,4738.461538,4038.461538,4115.384615
70,4486.666666,4596.923076,4608.205128,4328.717948,4568.205128,4229.743589,4520.000000,4274.871794,4288.205128,4532.820512,4277.435897,4734.358974,4036.923076,4114.871794
71,4490.256410,4601.538461,4611.282051,4334.871794,4570.769230,4233.846153,4523.589743,4280.000000,4292.820512,4540.000000,4282.051282,4739.487179,4048.205128,4118.974358
72,4488.717948,4607.692307,4616.410256,4340.512820,4578.461538,4237.435897,4523.076923,4283.076923,4298.974358,4548.717948,4288.717948,4745.641025,4052.307692,4123.076923
73,4487.179487,4602.051282,4616.923076,4334.358974,4577.948717,4233.846153,4523.589743,4279.487179,4299.487179,4540.512820,4287.692307,4737.435897,4041.538461,4119.487179
74,4490.769230,4604.102564,4615.897435,4333.846153,4575.897435,4237.435897,4527.179487,4277.948717,4296.410256,4535.897435,4283.589743,4732.307692,4040.512820,4118.461538
75,4493.333333,4612.307692,4616.410256,4341.538461,4583.076923,4244.615384,4525.641025,4277.435897,4295.384615,4542.051282,4284.615384,4742.051282,4054.358974,4124.102564
76,4492.820512,4610.769230,4621.538461,4343.076923,4590.769230,4241.538461,4524.615384,4281.538461,4298.461538,4543.076923,4292.820512,4749.743589,4055.384615,4128.205128
77,4493.846153,4608.717948,4626.153846,4344.102564,4589.230769,4241.025641,4530.256410,4288.717948,4304.102564,4544.102564,4302.564102,4750.256410,4043.589743,4126.153846
78,4491.794871,4607.179487,4623.589743,4343.589743,4587.692307,4243.589743,4532.307692,4286.666666,4303.076923,4542.051282,4293.846153,4747.179487,4038.461538,4120.000000
79,4483.589743,4599.487179,4614.358974,4332.820512,4587.692307,4237.435897,4525.128205,4278.461538,4291.282051,4530.769230,4273.333333,4737.948717,4037.435897,4115.897435
80,4475.384615,4594.358974,4607.179487,4325.641025,4580.000000,4229.230769,4520.512820,4273.846153,4282.564102,4524.102564,4265.641025,4732.307692,4038.974358,4112.820512
81,4476.410256,4599.487179,4608.205128,4328.205128,4575.384615,4231.282051,4522.051282,4272.307692,4285.128205,4529.230769,4269.230769,4732.820512,4041.025641,4113.333333
82,4484.615384,4605.641025,4616.410256,4329.743589,4580.000000,4238.461538,4529.743589,4276.410256,4289.743589,4531.794871,4273.333333,4733.846153,4035.897435,4116.410256
83,4491.282051,4605.128205,4623.589743,4331.282051,4582.564102,4242.564102,4534.871794,4284.615384,4296.410256,4536.923076,4281.025641,4740.512820,4035.897435,4121.538461
84,4491.282051,4603.589743,4620.512820,4334.871794,4583.076923,4239.487179,4530.769230,4285.128205,4302.564102,4547.179487,4285.641025,4745.641025,4048.205128,4125.128205
85,4488.205128,4601.025641,4614.871794,4333.846153,4583.589743,4233.333333,4524.102564,4280.000000,4294.871794,4540.512820,4280.512820,4739.487179,4053.333333,4123.076923
86,4481.538461,4594.358974,4611.282051,4328.205128,4576.923076,4230.769230,4522.564102,4274.358974,4280.512820,4526.153846,4276.410256,4729.230769,4035.384615,4112.820512
87,4475.897435,4591.282051,4607.179487,4327.179487,4575.897435,4230.769230,4520.512820,4271.282051,4280.512820,4529.743589,4275.897435,4727.179487,4023.589743,4107.179487
88,4474.358974,4595.897435,4606.666666,4329.230769,4580.000000,4229.743589,4520.000000,4275.897435,4289.230769,4538.461538,4269.743589,4730.256410,4032.307692,4110.769230
89,4476.410256,4601.025641,4610.256410,4328.205128,4578.461538,4232.307692,4523.076923,4281.538461,4292.820512,4541.538461,4269.743589,4732.820512,4042.051282,4112.307692
90,4483.076923,4600.000000,4611.282051,4330.256410,4579.487179,4236.410256,4522.564102,4282.051282,4292.307692,4547.692307,4276.410256,4736.923076,4043.076923,4115.384615
91,4487.692307,4600.000000,4612.307692,4334.871794,4588.717948,4236.923076,4523.589743,4283.076923,4296.923076,4552.307692,4282.051282,4743.589743,4041.538461,4122.564102
92,4484.102564,4608.205128,4613.846153,4337.435897,4590.256410,4238.461538,4526.666666,4280.512820,4296.410256,4547.692307,4280.000000,4743.589743,4047.179487,4121.025641
93,4484.102564,4611.794871,4612.820512,4335.897435,4585.641025,4238.461538,4524.102564,4274.358974,4290.769230,4546.153846,4271.794871,4736.923076,4052.307692,4115.897435
94,4490.256410,4610.256410,4613.333333,4335.897435,4588.205128,4237.435897,4523.076923,4278.974358,4295.384615,4553.846153,4274.358974,4735.384615,4051.794871,4118.461538
95,4491.282051,4611.282051,4614.358974,4335.897435,4590.256410,4238.461538,4526.666666,4283.076923,4297.948717,4554.871794,4282.051282,4736.923076,4044.615384,4120.000000
96,4487.692307,4608.205128,4610.256410,4334.358974,4583.076923,4235.897435,4520.512820,4271.794871,4289.743589,4545.128205,4275.384615,4733.846153,4039.487179,4116.923076
97,4487.692307,4606.153846,4607.179487,4332.820512,4576.410256,4228.205128,4511.282051,4268.717948,4288.205128,4540.512820,4269.230769,4733.846153,4045.128205,4116.410256
98,4489.743589,4609.230769,4609.743589,4330.256410,4580.512820,4227.692307,4515.897435,4274.871794,4291.794871,4549.743589,4272.820512,4736.923076,4051.282051,4118.461538
99,4491.282051,4610.256410,4610.256410,4332.307692,4586.153846,4234.358974,4522.564102,4273.333333,4288.205128,4557.948717,4271.282051,4736.410256,4048.205128,4120.512820
100,4489.230769,4605.641025,4607.692307,4338.974358,4582.051282,4233.333333,4520.512820,4271.282051,4286.666666,4555.384615,4266.153846,4735.897435,4039.487179,4120.512820
101,4484.615384,4604.102564,4607.179487,4338.461538,4582.564102,4231.282051,4520.512820,4275.897435,4289.230769,4548.717948,4268.717948,4738.461538,4036.923076,4115.897435
102,4484.615384,4605.641025,4609.230769,4331.794871,4588.717948,4233.846153,4522.564102,4274.871794,4289.230769,4546.153846,4269.230769,4737.435897,4039.487179,4114.871794
103,4490.769230,4608.717948,4614.358974,4333.846153,4584.102564,4234.871794,4521.538461,4274.358974,4293.333333,4554.358974,4272.820512,4738.461538,4044.615384,4122.051282
104,4495.897435,4611.282051,4613.333333,4336.923076,4578.461538,4236.410256,4524.102564,4282.051282,4297.435897,4563.076923,4277.435897,4742.051282,4047.692307,4125.641025
105,4492.820512,4602.564102,4608.205128,4329.230769,4582.051282,4235.897435,4524.102564,4281.538461,4296.923076,4556.923076,4268.205128,4736.923076,4042.564102,4119.487179
106,4483.589743,4595.384615,4604.615384,4326.153846,4582.564102,4232.820512,4522.051282,4278.974358,4298.461538,4551.282051,4261.538461,4730.256410,4040.000000,4112.820512
107,4480.000000,4598.974358,4605.128205,4328.205128,4578.461538,4232.820512,4523.589743,4283.076923,4298.974358,4557.948717,4267.692307,4732.820512,4041.025641,4112.307692
108,4486.153846,4602.564102,4607.179487,4325.641025,4581.025641,4231.794871,4524.102564,4282.051282,4295.897435,4565.641025,4273.846153,4735.897435,4037.435897,4115.897435
109,4491.282051,4602.564102,4610.769230,4328.717948,4586.153846,4229.230769,4522.564102,4277.948717,4295.384615,4566.153846,4272.820512,4737.435897,4038.461538,4120.000000
110,4492.307692,4604.615384,4615.897435,4336.923076,4582.564102,4236.923076,4523.589743,4278.974358,4294.871794,4561.538461,4273.333333,4740.512820,4047.692307,4122.564102
111,4491.794871,4604.615384,4616.923076,4333.846153,4581.538461,4245.641025,4526.153846,4280.512820,4293.333333,4560.000000,4272.307692,4739.487179,4050.256410,4119.487179
112,4487.179487,4603.589743,4612.307692,4326.666666,4587.179487,4241.025641,4523.589743,4275.384615,4291.282051,4560.000000,4264.615384,4735.384615,4040.512820,4113.846153
113,4483.076923,4602.564102,4604.615384,4325.128205,4584.102564,4230.769230,4521.025641,4269.230769,4285.128205,4550.769230,4253.846153,4731.794871,4032.307692,4110.769230
114,4489.230769,4604.102564,4604.102564,4330.769230,4578.974358,4232.307692,4523.589743,4270.256410,4285.128205,4549.230769,4255.897435,4733.333333,4040.000000,4118.461538
115,4497.435897,4610.256410,4616.923076,4342.051282,4590.256410,4245.128205,4527.179487,4279.487179,4298.461538,4564.102564,4274.871794,4740.000000,4054.358974,4127.179487
116,4492.820512,4606.666666,4618.974358,4337.948717,4594.871794,4244.102564,4524.102564,4278.461538,4297.948717,4566.666666,4280.000000,4738.461538,4049.743589,4122.051282
117,4488.205128,4598.974358,4607.179487,4328.717948,4580.512820,4232.820512,4520.000000,4268.205128,4284.615384,4553.333333,4269.230769,4731.282051,4037.435897,4115.897435
118,4492.820512,4606.666666,4603.589743,4332.307692,4574.871794,4237.948717,4523.076923,4271.282051,4286.153846,4551.794871,4268.205128,4733.333333,4041.538461,4122.564102
119,4496.923076,4613.846153,4605.641025,4334.358974,4576.410256,4243.076923,4523.589743,4273.333333,4289.230769,4553.333333,4270.256410,4736.410256,4048.205128,4124.615384
120,4493.846153,4605.641025,4602.564102,4328.717948,4566.666666,4234.871794,4520.512820,4267.179487,4284.615384,4550.256410,4264.102564,4730.256410,4041.538461,4115.897435
121,4490.769230,4602.564102,4600.512820,4331.282051,4561.025641,4234.871794,4522.051282,4272.820512,4286.153846,4557.435897,4265.641025,4731.794871,4036.923076,4115.384615
122,4491.282051,4607.692307,4600.512820,4334.871794,4571.282051,4241.538461,4524.102564,4280.000000,4291.794871,4565.641025,4266.666666,4736.410256,4038.974358,4121.538461
123,4490.256410,4603.589743,4593.333333,4326.153846,4570.256410,4233.846153,4519.487179,4267.179487,4281.538461,4554.358974,4253.333333,4727.692307,4034.358974,4113.846153
124,4483.589743,4595.384615,4584.615384,4322.051282,4554.871794,4228.205128,4516.923076,4257.435897,4271.794871,4540.512820,4246.153846,4716.923076,4026.153846,4103.589743
125,4479.487179,4594.871794,4583.589743,4324.615384,4557.435897,4238.461538,4520.512820,4270.769230,4283.589743,4549.230769,4255.897435,4718.461538,4026.666666,4108.205128
126,4486.666666,4598.461538,4593.333333,4324.102564,4572.307692,4245.641025,4524.615384,4281.025641,4298.974358,4562.564102,4263.589743,4726.666666,4031.282051,4115.897435
127,4487.179487,4595.897435,4596.923076,4321.025641,4575.384615,4240.000000,4523.589743,4274.358974,4293.333333,4555.897435,4258.461538,4726.666666,4030.769230,4112.307692
128,4482.051282,4591.794871,4588.717948,4323.076923,4568.205128,4232.307692,4521.025641,4267.692307,4276.410256,4542.564102,4251.794871,4721.538461,4028.205128,4110.256410
129,4486.666666,4597.435897,4589.743589,4331.282051,4567.692307,4232.820512,4521.538461,4268.205128,4275.384615,4546.153846,4253.333333,4726.153846,4027.179487,4114.871794
130,4487.179487,4601.538461,4594.871794,4332.820512,4572.307692,4235.897435,4522.051282,4268.717948,4283.076923,4556.923076,4257.948717,4732.307692,4026.153846,4115.384615
131,4482.564102,4601.025641,4595.897435,4329.230769,4578.461538,4242.051282,4522.564102,4269.230769,4284.615384,4559.487179,4256.923076,4730.256410,4029.743589,4113.333333
132,4487.179487,4604.615384,4595.384615,4328.717948,4581.538461,4246.153846,4524.102564,4270.256410,4285.128205,4557.948717,4253.846153,4728.717948,4036.410256,4115.897435
133,4494.358974,4609.230769,4593.846153,4331.282051,4577.948717,4243.076923,4524.615384,4271.794871,4285.128205,4558.461538,4257.948717,4733.333333,4035.384615,4120.000000
134,4495.384615,4613.846153,4595.897435,4335.384615,4573.846153,4243.076923,4523.076923,4273.846153,4284.102564,4561.538461,4264.615384,4734.871794,4036.923076,4127.179487
135,4498.461538,4622.051282,4600.512820,4336.923076,4577.435897,4249.743589,4522.564102,4271.794871,4284.102564,4564.102564,4272.307692,4734.871794,4047.692307,4131.282051
136,4498.974358,4620.000000,4599.487179,4336.410256,4582.564102,4248.717948,4523.076923,4267.179487,4285.641025,4558.461538,4272.820512,4734.358974,4047.692307,4126.666666
137,4495.384615,4606.666666,4593.846153,4333.846153,4577.435897,4238.974358,4517.948717,4267.179487,4286.153846,4555.897435,4262.564102,4728.717948,4041.538461,4120.000000
138,4492.307692,4603.589743,4590.769230,4326.666666,4570.769230,4235.384615,4514.358974,4265.641025,4281.538461,4562.051282,4255.384615,4724.102564,4039.487179,4118.461538
139,4489.230769,4609.230769,4590.256410,4319.487179,4571.794871,4234.358974,4515.897435,4259.487179,4274.358974,4558.974358,4255.384615,4722.051282,4032.820512,4117.435897
140,4490.769230,4607.692307,4592.820512,4324.102564,4571.794871,4233.846153,4517.435897,4262.051282,4277.435897,4555.897435,4260.000000,4724.102564,4029.230769,4117.435897
141,4491.794871,4602.051282,4596.410256,4332.307692,4570.769230,4238.461538,4521.025641,4268.717948,4286.666666,4566.153846,4262.051282,4730.256410,4037.435897,4121.538461
142,4485.641025,4602.051282,4593.333333,4329.743589,4570.769230,4240.000000,4520.000000,4268.717948,4283.076923,4564.615384,4254.871794,4729.743589,4037.435897,4120.000000
143,4485.641025,4603.589743,4587.179487,4325.641025,4566.153846,4234.358974,4511.794871,4262.051282,4272.820512,4545.641025,4249.743589,4721.538461,4023.589743,4112.820512
144,4489.743589,4597.948717,4588.717948,4325.128205,4561.025641,4228.205128,4505.128205,4258.461538,4270.256410,4537.435897,4258.461538,4718.461538,4017.948717,4109.743589
145,4485.128205,4592.820512,4592.820512,4322.051282,4560.512820,4231.282051,4509.230769,4263.076923,4273.333333,4545.128205,4260.000000,4723.076923,4023.589743,4114.871794
146,4482.051282,4594.871794,4591.282051,4318.974358,4562.564102,4236.923076,4516.923076,4264.615384,4280.000000,4550.256410,4249.743589,4725.641025,4025.641025,4113.846153
147,4484.102564,4597.435897,4589.230769,4320.000000,4564.102564,4237.435897,4518.974358,4262.564102,4282.051282,4544.102564,4254.358974,4724.102564,4019.487179,4106.153846
148,4483.589743,4598.461538,4592.820512,4322.051282,4567.179487,4237.948717,4520.000000,4263.076923,4275.384615,4530.769230,4263.076923,4721.538461,4022.564102,4107.179487
149,4474.871794,4597.948717,4588.205128,4320.000000,4566.666666,4240.000000,4516.923076,4258.461538,4264.102564,4518.974358,4253.846153,4717.948717,4028.717948,4107.692307
150,4464.102564,4594.358974,4579.487179,4313.846153,4560.000000,4237.435897,4509.743589,4248.205128,4257.948717,4511.282051,4249.230769,4715.897435,4017.948717,4097.435897
151,4464.615384,4594.871794,4584.615384,4315.384615,4560.000000,4237.948717,4511.282051,4251.794871,4263.589743,4507.179487,4261.025641,4717.435897,4015.897435,4094.358974
152,4467.692307,4596.923076,4593.333333,4322.051282,4567.179487,4241.538461,4518.461538,4261.538461,4272.307692,4510.256410,4266.666666,4720.512820,4032.307692,4101.538461
153,4460.000000,4597.435897,4590.769230,4317.435897,4567.692307,4241.025641,4514.871794,4255.384615,4270.769230,4512.307692,4260.000000,4717.435897,4032.307692,4097.948717
154,4453.333333,4597.948717,4586.153846,4312.820512,4562.051282,4241.025641,4505.641025,4246.666666,4265.641025,4506.666666,4256.410256,4713.846153,4018.974358,4089.230769
155,4452.307692,4596.923076,4586.153846,4316.923076,4558.461538,4240.512820,4508.205128,4246.666666,4261.538461,4500.512820,4256.923076,4709.743589,4019.487179,4090.769230
156,4447.179487,4588.717948,4584.615384,4315.384615,4552.820512,4237.435897,4509.743589,4246.153846,4259.487179,4501.025641,4255.384615,4706.153846,4021.538461,4090.256410
157,4444.615384,4581.025641,4584.102564,4310.769230,4550.256410,4236.923076,4504.615384,4247.179487,4265.641025,4505.128205,4257.435897,4710.256410,4018.974358,4088.205128
158,4448.717948,4584.615384,4588.717948,4314.358974,4556.923076,4242.051282,4510.769230,4254.358974,4272.307692,4509.230769,4265.128205,4717.948717,4026.153846,4095.384615
159,4452.820512,4593.333333,4594.358974,4317.435897,4559.487179,4244.102564,4518.461538,4259.487179,4271.282051,4513.333333,4272.307692,4722.051282,4036.410256,4105.641025
160,4454.358974,4596.410256,4596.410256,4316.923076,4556.923076,4241.538461,4513.846153,4254.871794,4269.230769,4513.846153,4275.897435,4721.025641,4035.897435,4105.641025
161,4447.179487,4590.769230,4591.794871,4311.794871,4556.410256,4233.846153,4505.128205,4251.282051,4269.743589,4505.641025,4266.666666,4713.846153,4027.179487,4099.487179
162,4438.974358,4587.692307,4590.256410,4307.692307,4552.307692,4229.743589,4505.641025,4251.282051,4268.205128,4498.974358,4257.435897,4710.256410,4023.076923,4095.384615
163,4444.615384,4591.794871,4593.333333,4313.333333,4547.692307,4235.384615,4508.717948,4252.820512,4268.717948,4506.153846,4265.641025,4716.923076,4031.282051,4098.461538
164,4448.717948,4592.307692,4592.307692,4314.871794,4550.769230,4235.384615,4506.666666,4254.358974,4272.307692,4517.948717,4270.256410,4717.948717,4031.282051,4103.589743
165,4437.948717,4586.666666,4590.256410,4307.692307,4549.230769,4230.769230,4506.153846,4252.307692,4267.179487,4512.307692,4263.076923,4712.307692,4021.538461,4101.538461
166,4433.846153,4581.538461,4591.282051,4310.769230,4543.076923,4234.871794,4506.666666,4247.692307,4260.000000,4500.512820,4259.487179,4713.333333,4023.589743,4098.461538
167,4440.000000,4584.102564,4593.333333,4313.846153,4545.641025,4240.512820,4506.153846,4245.641025,4267.179487,4505.128205,4261.025641,4713.333333,4029.230769,4099.487179
168,4437.948717,4588.717948,4593.333333,4305.641025,4552.820512,4241.025641,4507.692307,4249.230769,4275.897435,4515.897435,4257.948717,4709.743589,4025.641025,4097.435897
169,4430.769230,4585.641025,4590.256410,4305.641025,4548.717948,4237.435897,4507.692307,4247.179487,4262.564102,4506.666666,4253.333333,4706.666666,4020.512820,4093.846153
170,4432.820512,4581.538461,4586.666666,4313.333333,4537.435897,4235.384615,4506.153846,4244.615384,4254.358974,4498.974358,4252.307692,4706.666666,4023.589743,4096.923076
171,4441.538461,4585.641025,4594.358974,4314.871794,4541.538461,4242.051282,4508.205128,4252.820512,4267.692307,4516.410256,4259.487179,4714.871794,4035.897435,4106.153846
172,4440.000000,4586.153846,4597.948717,4313.333333,4551.282051,4247.179487,4511.282051,4257.948717,4270.769230,4525.641025,4264.102564,4720.512820,4034.871794,4104.615384
173,4430.769230,4580.512820,4586.666666,4311.282051,4547.179487,4241.025641,4504.615384,4251.282051,4261.538461,4511.282051,4255.897435,4712.820512,4017.948717,4095.384615
174,4426.153846,4577.948717,4581.538461,4306.153846,4537.435897,4235.897435,4500.000000,4244.615384,4260.512820,4508.205128,4254.871794,4704.615384,4014.358974,4090.769230
175,4425.128205,4578.974358,4585.128205,4305.128205,4535.384615,4235.384615,4501.025641,4246.666666,4262.051282,4516.410256,4261.025641,4703.589743,4021.538461,4089.230769
176,4426.666666,4582.051282,4583.589743,4311.794871,4538.974358,4237.435897,4502.051282,4249.230769,4258.974358,4516.410256,4255.897435,4704.615384,4019.487179,4086.666666
177,4426.666666,4582.564102,4581.025641,4314.358974,4543.589743,4241.538461,4503.589743,4247.692307,4256.923076,4513.846153,4245.641025,4702.051282,4017.948717,4086.153846
178,4425.128205,4575.897435,4582.564102,4312.820512,4545.128205,4240.000000,4501.025641,4245.128205,4260.512820,4516.410256,4238.461538,4701.538461,4018.461538,4087.692307
179,4424.615384,4575.897435,4581.538461,4312.820512,4538.974358,4237.948717,4500.512820,4247.179487,4266.153846,4521.538461,4238.974358,4704.102564,4014.358974,4088.205128
180,4425.128205,4582.564102,4576.923076,4312.307692,4535.897435,4241.538461,4501.538461,4247.692307,4263.076923,4522.564102,4243.076923,4701.025641,4012.307692,4084.615384
181,4424.102564,4580.512820,4571.282051,4310.769230,4531.282051,4240.512820,4498.461538,4238.461538,4251.794871,4511.794871,4240.512820,4691.794871,4011.282051,4082.564102
182,4426.153846,4579.487179,4572.820512,4313.333333,4523.589743,4238.974358,4498.461538,4239.487179,4252.307692,4509.743589,4243.076923,4695.897435,4013.846153,4085.128205
183,4433.333333,4583.076923,4578.461538,4315.897435,4526.666666,4241.538461,4502.051282,4248.717948,4262.051282,4527.179487,4256.410256,4705.128205,4025.641025,4090.256410
184,4432.820512,4582.051282,4574.871794,4312.820512,4527.179487,4237.435897,4494.358974,4243.589743,4261.538461,4531.794871,4252.307692,4698.974358,4027.179487,4089.230769
185,4427.692307,4577.948717,4571.794871,4310.769230,4520.512820,4233.333333,4486.666666,4237.435897,4257.435897,4519.487179,4239.487179,4695.384615,4016.410256,4086.153846
186,4426.666666,4576.923076,4576.923076,4313.333333,4517.948717,4237.435897,4496.410256,4246.666666,4259.487179,4515.897435,4245.128205,4700.512820,4013.333333,4089.230769
187,4432.820512,4579.487179,4576.923076,4312.820512,4525.128205,4242.051282,4507.179487,4250.769230,4260.512820,4518.461538,4250.769230,4701.538461,4020.512820,4091.794871
188,4436.923076,4583.589743,4569.743589,4312.820512,4532.307692,4241.538461,4503.589743,4241.538461,4260.000000,4515.384615,4242.564102,4698.974358,4024.615384,4090.256410
189,4429.743589,4584.102564,4568.205128,4314.358974,4526.666666,4238.461538,4494.358974,4238.461538,4258.461538,4508.717948,4241.025641,4696.923076,4020.000000,4088.717948
190,4424.615384,4577.435897,4571.282051,4309.230769,4517.948717,4237.435897,4491.282051,4244.102564,4257.948717,4511.794871,4243.589743,4694.871794,4010.769230,4085.128205
191,4430.769230,4572.820512,4567.692307,4302.051282,4521.025641,4240.000000,4494.871794,4248.205128,4264.615384,4523.076923,4239.487179,4696.923076,4013.333333,4083.076923
192,4432.820512,4571.794871,4563.076923,4304.615384,4525.128205,4241.538461,4493.846153,4249.743589,4267.692307,4527.692307,4235.384615,4700.000000,4018.974358,4087.692307
193,4425.641025,4569.743589,4564.102564,4305.641025,4518.974358,4240.000000,4492.820512,4244.102564,4257.435897,4517.435897,4236.923076,4693.846153,4007.692307,4086.153846
194,4420.512820,4568.717948,4562.564102,4301.025641,4518.461538,4238.461538,4494.871794,4237.435897,4249.230769,4507.692307,4236.923076,4687.692307,3996.410257,4077.948717
195,4421.538461,4570.769230,4556.923076,4301.025641,4518.461538,4233.333333,4489.230769,4236.410256,4251.794871,4511.282051,4230.256410,4685.641025,4000.512820,4072.820512
196,4427.692307,4576.410256,4560.000000,4310.769230,4512.820512,4235.897435,4488.717948,4241.538461,4256.923076,4518.974358,4229.743589,4690.256410,4009.743589,4076.410256
197,4430.256410,4575.384615,4566.153846,4314.871794,4519.487179,4245.641025,4503.589743,4248.205128,4259.487179,4516.923076,4238.461538,4698.461538,4011.794871,4086.153846
198,4425.641025,4567.179487,4564.615384,4304.102564,4526.666666,4247.692307,4506.153846,4249.230769,4260.512820,4513.333333,4238.974358,4696.410256,4007.692307,4086.666666
199,4425.641025,4568.205128,4561.025641,4298.461538,4522.564102,4246.153846,4496.923076,4248.717948,4264.102564,4526.153846,4240.512820,4692.307692,4007.179487,4079.487179
200,4431.282051,4576.410256,4563.076923,4306.153846,4521.025641,4247.692307,4497.948717,4252.820512,4269.743589,4536.410256,4245.641025,4695.897435,4009.743589,4083.076923
201,4431.282051,4577.435897,4565.128205,4308.717948,4523.076923,4244.102564,4500.512820,4254.358974,4266.153846,4524.615384,4237.948717,4696.410256,4009.230769,4090.769230
202,4430.256410,4573.333333,4565.128205,4305.128205,4520.512820,4239.487179,4491.794871,4247.179487,4258.974358,4521.025641,4230.769230,4693.846153,4010.769230,4088.205128
203,4433.333333,4571.282051,4564.615384,4304.102564,4515.897435,4238.974358,4488.717948,4241.538461,4255.384615,4528.717948,4242.051282,4694.871794,4013.333333,4085.641025
204,4433.333333,4571.282051,4564.102564,4303.076923,4514.871794,4242.051282,4492.307692,4246.666666,4255.897435,4528.205128,4252.820512,4696.410256,4015.897435,4090.769230
205,4427.179487,4569.743589,4562.051282,4300.512820,4515.384615,4242.564102,4489.743589,4248.717948,4257.948717,4526.153846,4246.666666,4693.333333,4019.487179,4090.769230
206,4422.051282,4568.205128,4554.358974,4298.461538,4512.307692,4238.461538,4488.205128,4242.051282,4256.410256,4528.205128,4236.410256,4688.205128,4015.897435,4083.076923
207,4423.589743,4573.846153,4551.282051,4302.564102,4513.333333,4241.025641,4491.282051,4242.051282,4256.410256,4532.307692,4237.948717,4690.256410,4009.230769,4080.512820
208,4426.666666,4579.487179,4558.974358,4309.743589,4521.538461,4246.153846,4492.820512,4247.692307,4259.487179,4532.820512,4245.128205,4696.410256,4010.256410,4085.641025
209,4429.230769,4577.435897,4562.564102,4308.205128,4519.487179,4242.564102,4490.256410,4243.076923,4257.948717,4529.743589,4243.589743,4691.794871,4013.846153,4085.128205
210,4432.307692,4571.282051,4557.948717,4302.051282,4515.897435,4240.000000,4487.179487,4235.897435,4252.820512,4526.666666,4230.769230,4685.128205,4011.282051,4082.051282
211,4429.743589,4569.743589,4551.794871,4302.051282,4517.948717,4243.589743,4489.230769,4235.897435,4248.717948,4520.512820,4222.564102,4685.641025,4007.179487,4083.076923
212,4425.641025,4570.256410,4551.794871,4306.666666,4513.846153,4243.589743,4490.256410,4233.333333,4242.051282,4514.871794,4224.102564,4683.589743,4003.589743,4081.025641
213,4433.333333,4569.230769,4553.846153,4304.615384,4508.205128,4242.051282,4488.205128,4229.743589,4240.512820,4522.051282,4227.692307,4682.564102,4005.641025,4080.000000
214,4440.512820,4570.256410,4554.871794,4301.538461,4512.820512,4241.538461,4488.717948,4235.384615,4250.769230,4534.358974,4229.230769,4688.205128,4013.846153,4085.641025
215,4437.948717,4568.205128,4557.435897,4301.538461,4508.717948,4233.846153,4488.717948,4236.410256,4250.769230,4527.692307,4231.794871,4689.230769,4010.256410,4087.692307
216,4438.461538,4567.179487,4559.487179,4303.076923,4499.487179,4231.282051,4487.179487,4232.820512,4247.179487,4521.538461,4235.897435,4690.256410,4001.538461,4088.717948
217,4443.076923,4569.230769,4561.538461,4300.512820,4503.589743,4241.538461,4488.205128,4235.384615,4252.820512,4532.820512,4235.384615,4694.871794,4004.102564,4090.769230
218,4438.461538,4568.205128,4556.923076,4298.461538,4507.179487,4243.589743,4490.769230,4233.333333,4252.307692,4532.820512,4227.692307,4688.717948,4004.615384,4081.538461
219,4433.846153,4569.230769,4550.769230,4302.564102,4505.641025,4237.435897,4486.666666,4229.743589,4247.179487,4522.564102,4221.538461,4683.076923,3995.897436,4073.846153
220,4437.948717,4571.282051,4551.794871,4303.589743,4506.666666,4236.923076,4481.025641,4231.794871,4248.717948,4521.025641,4222.564102,4685.128205,3994.871795,4079.487179
221,4436.410256,4566.666666,4553.333333,4296.923076,4504.102564,4238.461538,4478.461538,4231.282051,4246.153846,4521.538461,4221.538461,4683.589743,3997.435898,4080.000000
222,4424.102564,4556.410256,4543.589743,4287.179487,4492.820512,4229.743589,4471.794871,4223.589743,4237.435897,4513.333333,4208.205128,4674.358974,3990.769231,4068.717948
223,4418.974358,4550.769230,4539.487179,4284.102564,4482.564102,4222.564102,4467.179487,4223.589743,4236.410256,4511.282051,4201.538461,4671.282051,3987.179488,4064.615384
224,4429.230769,4553.846153,4548.717948,4288.717948,4489.230769,4233.846153,4473.846153,4230.256410,4241.538461,4523.589743,4215.897435,4680.000000,3994.871795,4072.820512
225,4432.820512,4558.461538,4547.179487,4290.769230,4496.410256,4238.974358,4477.948717,4229.743589,4242.051282,4525.641025,4228.205128,4683.589743,4000.000000,4075.897435
226,4423.589743,4557.948717,4540.512820,4288.717948,4490.256410,4229.743589,4472.307692,4226.666666,4242.564102,4519.487179,4223.589743,4675.897435,3992.820513,4070.769230
227,4427.179487,4561.025641,4546.153846,4294.358974,4486.666666,4231.794871,4473.846153,4231.282051,4249.743589,4523.076923,4220.512820,4676.923076,3995.384616,4076.410256
228,4439.487179,4570.256410,4551.794871,4301.538461,4497.435897,4241.025641,4482.051282,4237.435897,4252.307692,4529.743589,4226.153846,4688.717948,4008.717948,4090.256410
229,4437.948717,4567.692307,4545.128205,4296.923076,4496.410256,4233.846153,4475.897435,4229.230769,4242.051282,4523.589743,4227.692307,4683.589743,4002.564102,4085.641025
230,4429.743589,4556.923076,4538.461538,4290.256410,4479.487179,4223.076923,4466.153846,4218.974358,4235.384615,4515.897435,4219.487179,4671.282051,3988.717949,4074.358974
231,4435.897435,4561.025641,4544.615384,4292.820512,4479.487179,4229.743589,4471.794871,4222.564102,4240.000000,4523.589743,4213.333333,4680.000000,3996.923077,4081.538461
232,4445.641025,4573.846153,4550.256410,4301.025641,4493.333333,4235.897435,4476.410256,4226.153846,4242.564102,4532.820512,4220.000000,4690.769230,4005.641025,4090.769230
233,4440.512820,4568.717948,4543.076923,4296.923076,4493.846153,4230.769230,4465.641025,4217.435897,4234.871794,4522.564102,4220.512820,4678.461538,3985.128206,4080.000000
234,4430.769230,4549.230769,4536.410256,4284.615384,4485.128205,4227.179487,4456.410256,4211.282051,4225.128205,4502.051282,4204.615384,4663.076923,3970.256411,4068.717948
235,4435.897435,4552.820512,4545.128205,4287.179487,4483.589743,4232.307692,4466.153846,4217.948717,4226.666666,4508.205128,4203.589743,4673.846153,3991.794872,4080.000000
236,4449.743589,4568.205128,4555.897435,4297.435897,4488.205128,4234.358974,4476.410256,4225.641025,4240.512820,4529.743589,4222.051282,4689.743589,4017.435897,4093.333333
237,4451.794871,4563.076923,4551.794871,4295.897435,4489.743589,4227.692307,4465.641025,4225.641025,4244.615384,4531.794871,4227.179487,4685.641025,4011.794871,4091.794871
238,4443.076923,4555.897435,4542.564102,4293.333333,4484.615384,4223.076923,4456.923076,4219.487179,4233.333333,4518.461538,4217.948717,4675.897435,3994.871795,4087.179487
239,4442.051282,4564.102564,4542.051282,4297.948717,4477.435897,4229.743589,4465.128205,4214.358974,4227.692307,4517.948717,4211.282051,4673.846153,3996.923077,4085.128205
240,4446.666666,4567.179487,4546.153846,4300.000000,4478.974358,4233.846153,4469.743589,4220.512820,4234.871794,4528.717948,4208.205128,4671.794871,4000.000000,4082.564102
241,4445.641025,4567.692307,4545.128205,4296.923076,4486.666666,4230.769230,4467.179487,4226.153846,4239.487179,4530.769230,4213.333333,4674.871794,3993.846154,4084.102564
242,4444.615384,4571.282051,4546.153846,4298.461538,4485.128205,4234.358974,4474.871794,4223.589743,4241.025641,4525.128205,4215.384615,4680.512820,3994.871795,4087.692307
243,4441.025641,4562.564102,4547.692307,4295.384615,4480.512820,4237.948717,4478.974358,4223.076923,4238.974358,4522.564102,4203.589743,4674.358974,3998.461539,4081.538461
244,4433.846153,4547.692307,4540.000000,4283.076923,4480.512820,4232.820512,4473.333333,4221.538461,4229.743589,4518.974358,4200.512820,4666.666666,3992.307693,4073.333333
245,4434.871794,4547.179487,4533.846153,4282.051282,4481.025641,4230.769230,4473.846153,4222.051282,4231.794871,4518.461538,4213.846153,4670.256410,3991.794872,4076.923076
246,4443.076923,4556.410256,4543.076923,4291.794871,4480.000000,4233.333333,4476.410256,4229.743589,4249.743589,4534.871794,4223.076923,4675.384615,3998.974359,4085.641025
247,4443.589743,4560.512820,4548.717948,4291.282051,4480.512820,4233.846153,4474.871794,4229.743589,4253.846153,4545.128205,4226.153846,4675.897435,3996.410257,4087.692307
248,4441.025641,4558.974358,4542.564102,4288.205128,4484.102564,4232.307692,4474.358974,4224.102564,4242.564102,4533.846153,4220.000000,4674.358974,3995.897436,4086.153846
249,4441.538461,4555.384615,4541.538461,4292.307692,4484.615384,4231.282051,4472.820512,4224.615384,4237.435897,4524.615384,4206.153846,4671.794871,4000.512820,4085.128205
250,4438.974358,4555.384615,4543.589743,4290.769230,4482.564102,4231.282051,4468.205128,4222.564102,4238.974358,4525.641025,4206.153846,4671.282051,3997.948718,4080.512820
251,4437.948717,4557.948717,4541.538461,4287.692307,4482.051282,4231.282051,4469.743589,4218.974358,4235.897435,4526.666666,4217.435897,4674.358974,4000.000000,4080.512820
252,4445.128205,4556.923076,4540.000000,4289.230769,4485.641025,4233.333333,4473.333333,4224.102564,4236.410256,4527.692307,4220.000000,4673.846153,4007.179487,4087.179487
253,4447.179487,4556.923076,4541.025641,4287.179487,4488.205128,4233.333333,4469.743589,4223.589743,4242.564102,4531.794871,4216.923076,4671.794871,4004.102564,4089.230769
254,4442.564102,4560.000000,4540.512820,4287.179487,4482.564102,4230.769230,4464.102564,4215.384615,4240.512820,4531.282051,4218.974358,4673.846153,3999.487180,4087.692307
255,4444.615384,4563.589743,4542.051282,4295.384615,4476.923076,4229.230769,4463.076923,4216.923076,4237.435897,4528.717948,4224.102564,4679.487179,4006.153846,4091.794871
256,4449.230769,4562.051282,4543.589743,4298.461538,4481.025641,4231.794871,4463.076923,4220.000000,4241.025641,4533.333333,4221.538461,4679.487179,4006.666666,4094.358974
257,4444.615384,4556.923076,4538.974358,4288.717948,4485.128205,4228.205128,4461.025641,4213.333333,4237.435897,4531.282051,4210.769230,4673.333333,3995.384616,4086.666666
258,4438.974358,4551.794871,4532.307692,4280.512820,4476.923076,4220.000000,4458.974358,4206.666666,4227.179487,4518.974358,4203.589743,4670.256410,3991.282052,4078.974358
259,4437.948717,4549.230769,4531.794871,4284.615384,4465.641025,4221.025641,4455.897435,4209.230769,4225.641025,4515.384615,4209.230769,4670.256410,3995.384616,4081.025641
260,4444.102564,4553.333333,4542.051282,4292.307692,4470.769230,4231.282051,4459.487179,4217.435897,4234.871794,4524.102564,4216.410256,4676.410256,3998.974359,4086.666666
261,4453.846153,4560.512820,4554.358974,4295.897435,4483.076923,4236.923076,4469.743589,4224.102564,4243.589743,4531.282051,4217.948717,4686.153846,4002.564102,4091.794871
262,4456.923076,4565.128205,4554.871794,4301.538461,4483.589743,4234.871794,4474.358974,4228.717948,4250.256410,4530.769230,4218.974358,4688.205128,4006.153846,4095.897435
263,4457.948717,4570.256410,4553.333333,4308.717948,4483.076923,4236.410256,4477.435897,4234.358974,4254.358974,4532.820512,4228.205128,4688.205128,4012.307692,4102.564102
