,AF3,F7,F3,FC5,T7,P7,O1,O2,P8,T8,FC6,F4,F8,AF4
0,4389.230769,4526.153846,4550.256410,4253.333333,4495.897435,4194.358974,4445.128205,4215.897435,4234.871794,4513.333333,4208.717948,4648.205128,4007.692307,4076.410256
1,4386.153846,4528.205128,4549.743589,4244.615384,4490.256410,4195.384615,4450.769230,4220.512820,4236.410256,4514.871794,4212.820512,4645.128205,4010.769230,4079.487179
2,4391.282051,4532.820512,4550.256410,4244.102564,4490.256410,4195.384615,4454.358974,4221.025641,4244.615384,4515.384615,4217.948717,4647.692307,4020.512820,4074.871794
3,4393.333333,4530.256410,4550.256410,4250.256410,4492.820512,4190.256410,4449.230769,4218.974358,4246.666666,4516.410256,4221.538461,4652.820512,4026.153846,4069.743589
4,4390.769230,4526.666666,4552.820512,4256.410256,4490.256410,4192.307692,4444.615384,4216.923076,4244.102564,4516.923076,4215.897435,4653.333333,4022.051282,4072.307692
5,4386.153846,4525.128205,4551.282051,4256.410256,4490.256410,4192.820512,4446.153846,4211.794871,4239.487179,4520.000000,4209.230769,4648.717948,4018.974358,4075.897435
6,4385.128205,4525.641025,4542.051282,4252.307692,4493.846153,4189.743589,4446.153846,4207.179487,4235.897435,4516.923076,4211.282051,4646.153846,4021.025641,4078.974358
7,4387.692307,4529.230769,4542.564102,4246.666666,4490.256410,4190.769230,4441.025641,4210.256410,4236.410256,4514.871794,4219.487179,4652.307692,4019.487179,4078.461538
8,4388.205128,4533.846153,4552.820512,4248.717948,4490.256410,4196.410256,4445.128205,4216.410256,4244.102564,4523.076923,4229.743589,4657.948717,4018.974358,4077.948717
9,4390.769230,4535.384615,4552.820512,4257.948717,4500.512820,4200.000000,4456.923076,4224.102564,4247.692307,4523.589743,4229.743589,4657.948717,4023.076923,4087.692307
10,4389.743589,4533.846153,4546.666666,4258.974358,4503.076923,4197.435897,4454.358974,4224.615384,4240.000000,4518.461538,4216.923076,4655.897435,4022.051282,4088.717948
11,4378.461538,4525.641025,4543.589743,4246.666666,4494.871794,4195.897435,4444.102564,4218.461538,4237.948717,4523.076923,4208.717948,4654.871794,4016.410256,4070.769230
12,4376.410256,4523.589743,4546.666666,4244.102564,4495.897435,4197.435897,4451.794871,4221.025641,4243.076923,4523.589743,4224.102564,4656.410256,4015.384615,4067.179487
13,4384.102564,4527.692307,4548.717948,4252.307692,4497.948717,4194.871794,4457.435897,4225.128205,4240.512820,4517.435897,4230.769230,4654.358974,4014.358974,4080.512820
14,4378.461538,4520.000000,4544.615384,4248.717948,4489.743589,4189.743589,4448.205128,4218.461538,4234.871794,4516.410256,4209.743589,4647.692307,4009.743589,4078.974358
15,4372.820512,4517.948717,4541.538461,4245.128205,4487.179487,4191.282051,4449.230769,4214.871794,4236.923076,4515.384615,4204.615384,4646.153846,4009.230769,4071.794871
16,4379.487179,4527.179487,4545.641025,4254.358974,4491.794871,4192.820512,4454.871794,4220.000000,4237.435897,4510.256410,4225.641025,4649.743589,4012.307692,4071.794871
17,4377.435897,4526.153846,4544.615384,4258.974358,4490.769230,4190.769230,4448.717948,4217.948717,4232.820512,4508.717948,4223.589743,4649.230769,4012.307692,4067.692307
18,4370.256410,4520.000000,4536.923076,4253.333333,4489.230769,4191.282051,4444.615384,4207.179487,4225.128205,4501.025641,4196.410256,4645.641025,4009.230769,4062.051282
19,4371.794871,4517.948717,4534.358974,4248.205128,4488.717948,4188.205128,4442.564102,4201.025641,4218.974358,4489.230769,4189.743589,4637.948717,4001.538461,4066.666666
20,4374.358974,4521.025641,4537.435897,4246.666666,4488.205128,4184.102564,4441.025641,4206.153846,4223.076923,4496.410256,4212.307692,4639.487179,3997.435898,4077.948717
21,4373.846153,4525.128205,4540.512820,4250.769230,4491.282051,4189.743589,4446.666666,4215.384615,4231.794871,4514.358974,4228.717948,4649.230769,4008.717948,4077.948717
22,4366.666666,4522.051282,4532.820512,4252.820512,4491.794871,4192.820512,4444.615384,4210.769230,4226.153846,4510.256410,4216.410256,4642.564102,4011.282051,4063.589743
23,4359.487179,4518.461538,4525.128205,4248.717948,4489.230769,4187.179487,4441.025641,4202.564102,4218.461538,4495.897435,4198.974358,4631.282051,3996.923077,4056.410256
24,4364.102564,4522.051282,4533.333333,4256.923076,4489.743589,4189.230769,4448.717948,4209.743589,4228.205128,4495.897435,4204.102564,4642.051282,3993.846154,4068.717948
25,4368.205128,4525.128205,4542.051282,4264.102564,4492.307692,4194.358974,4447.692307,4214.871794,4233.846153,4503.076923,4211.794871,4651.794871,4000.000000,4071.282051
26,4365.128205,4521.025641,4537.948717,4256.923076,4492.820512,4192.307692,4445.641025,4210.769230,4228.205128,4507.179487,4211.282051,4645.641025,3996.410257,4065.128205
27,4365.128205,4520.512820,4536.923076,4252.820512,4491.282051,4191.282051,4455.897435,4212.820512,4224.615384,4508.205128,4213.333333,4642.564102,3996.923077,4070.256410
28,4365.641025,4521.025641,4538.461538,4253.846153,4489.743589,4190.256410,4452.307692,4214.871794,4225.641025,4501.538461,4211.282051,4641.538461,4002.051282,4071.282051
29,4365.128205,4521.538461,4538.461538,4255.384615,4490.769230,4191.282051,4444.102564,4212.307692,4232.307692,4499.487179,4201.025641,4644.615384,4002.051282,4066.666666
30,4366.666666,4523.076923,4547.179487,4260.512820,4492.820512,4195.384615,4450.256410,4215.384615,4236.923076,4507.179487,4200.000000,4648.717948,3998.461539,4069.230769
31,4363.589743,4522.564102,4552.307692,4263.076923,4490.256410,4192.307692,4450.256410,4217.948717,4232.820512,4501.538461,4209.743589,4645.128205,3992.307693,4068.205128
32,4365.128205,4524.102564,4555.384615,4260.512820,4487.692307,4190.256410,4448.717948,4219.487179,4233.333333,4494.871794,4226.666666,4648.717948,3994.358975,4074.871794
33,4369.743589,4525.128205,4563.076923,4262.564102,4490.256410,4196.923076,4458.974358,4223.589743,4243.589743,4507.179487,4230.256410,4656.923076,4004.615384,4086.666666
34,4361.538461,4518.974358,4560.000000,4262.051282,4493.846153,4192.307692,4460.000000,4217.948717,4240.512820,4511.794871,4209.230769,4649.743589,4001.538461,4072.820512
35,4361.538461,4513.846153,4556.410256,4256.410256,4489.743589,4185.128205,4452.820512,4213.846153,4234.871794,4508.205128,4211.794871,4646.666666,3994.871795,4065.128205
36,4378.974358,4524.102564,4570.769230,4262.564102,4488.717948,4197.435897,4459.487179,4227.179487,4248.205128,4523.076923,4240.512820,4661.538461,4006.666666,4091.282051
37,4382.564102,4537.948717,4581.538461,4272.307692,4501.025641,4205.128205,4463.076923,4233.846153,4257.948717,4535.384615,4231.282051,4667.692307,4018.974358,4101.025641
38,4371.794871,4535.384615,4572.820512,4272.307692,4504.102564,4196.923076,4453.846153,4222.564102,4248.717948,4520.000000,4206.666666,4663.589743,4016.410256,4081.538461
39,4373.333333,4530.769230,4567.692307,4265.128205,4494.871794,4196.923076,4448.205128,4215.384615,4241.025641,4513.333333,4223.589743,4662.051282,4014.871794,4079.487179
40,4374.358974,4531.794871,4571.282051,4260.512820,4494.871794,4199.487179,4446.153846,4214.871794,4244.102564,4521.025641,4238.461538,4653.333333,4008.717948,4082.564102
41,4365.641025,4529.743589,4568.717948,4263.589743,4498.974358,4194.358974,4446.153846,4215.897435,4240.000000,4512.820512,4224.615384,4646.153846,3997.435898,4075.384615
42,4364.102564,4526.153846,4561.025641,4267.692307,4496.410256,4193.846153,4450.256410,4213.333333,4234.871794,4502.564102,4214.871794,4648.717948,3996.923077,4073.333333
43,4366.666666,4524.615384,4554.871794,4264.615384,4491.794871,4195.897435,4456.410256,4212.307692,4242.051282,4508.205128,4207.692307,4647.692307,4003.589743,4071.794871
44,4364.102564,4525.128205,4554.358974,4261.025641,4493.846153,4192.820512,4457.948717,4215.897435,4241.538461,4514.871794,4204.615384,4642.564102,4005.641025,4070.256410
45,4368.205128,4528.205128,4554.358974,4263.076923,4496.923076,4194.871794,4457.435897,4217.435897,4235.897435,4517.435897,4215.384615,4643.589743,4004.615384,4074.871794
46,4371.794871,4530.769230,4553.333333,4263.589743,4494.358974,4203.076923,4458.461538,4216.410256,4244.615384,4521.025641,4215.384615,4646.153846,4008.205128,4076.410256
47,4368.717948,4525.128205,4553.846153,4261.538461,4496.410256,4201.538461,4459.487179,4222.051282,4249.230769,4521.025641,4205.641025,4647.692307,4006.153846,4068.717948
48,4369.743589,4520.000000,4555.384615,4261.025641,4498.974358,4196.410256,4459.487179,4227.692307,4243.076923,4514.358974,4212.307692,4647.692307,3997.435898,4068.205128
49,4369.230769,4519.487179,4551.794871,4254.871794,4496.410256,4198.974358,4457.948717,4227.179487,4245.641025,4511.794871,4222.051282,4641.538461,3993.333334,4074.871794
50,4364.102564,4518.461538,4547.179487,4251.282051,4496.410256,4200.000000,4462.564102,4229.230769,4249.230769,4515.897435,4217.948717,4640.512820,3996.410257,4075.384615
51,4364.615384,4522.564102,4551.794871,4253.846153,4501.025641,4202.564102,4467.179487,4228.717948,4239.487179,4514.871794,4209.230769,4643.589743,3997.435898,4068.717948
52,4365.641025,4524.102564,4553.333333,4251.794871,4502.051282,4204.615384,4467.179487,4220.512820,4235.897435,4511.794871,4210.769230,4643.589743,3993.333334,4058.974358
53,4356.923076,4509.230769,4545.641025,4244.615384,4496.410256,4199.487179,4467.692307,4214.871794,4243.076923,4510.256410,4212.820512,4639.487179,3992.820513,4054.871794
54,4351.794871,4497.435897,4546.153846,4244.102564,4493.333333,4194.358974,4465.128205,4215.897435,4243.589743,4503.589743,4208.205128,4635.897435,3994.871795,4058.461538
55,4360.000000,4511.794871,4555.384615,4257.435897,4500.000000,4197.435897,4467.692307,4224.615384,4241.538461,4501.538461,4211.282051,4641.538461,4000.512820,4069.230769
56,4365.128205,4524.102564,4556.923076,4265.128205,4503.076923,4203.076923,4471.794871,4224.615384,4238.461538,4506.666666,4207.692307,4648.717948,4009.230769,4069.230769
57,4360.000000,4514.871794,4554.871794,4253.333333,4497.948717,4202.051282,4465.128205,4218.461538,4237.435897,4502.051282,4191.794871,4643.589743,4007.179487,4059.487179
58,4355.384615,4513.333333,4556.410256,4244.102564,4493.846153,4197.948717,4461.538461,4221.538461,4243.076923,4496.410256,4194.871794,4638.461538,3997.435898,4057.948717
59,4357.948717,4524.615384,4556.410256,4252.820512,4497.948717,4201.025641,4472.307692,4230.256410,4244.615384,4508.205128,4212.820512,4642.564102,3993.846154,4061.025641
60,4358.974358,4524.615384,4555.384615,4254.358974,4503.076923,4207.692307,4477.435897,4230.256410,4240.000000,4511.282051,4211.282051,4642.051282,3996.410257,4057.948717
61,4356.410256,4518.974358,4553.333333,4246.666666,4500.000000,4206.666666,4467.692307,4229.743589,4244.102564,4504.615384,4200.000000,4640.512820,3999.487180,4055.897435
62,4357.948717,4521.025641,4554.871794,4248.205128,4497.435897,4203.076923,4467.179487,4234.871794,4252.307692,4508.717948,4201.025641,4645.641025,4003.076923,4060.512820
63,4355.384615,4522.051282,4553.846153,4250.256410,4497.435897,4202.051282,4472.307692,4233.846153,4247.692307,4507.179487,4199.487179,4642.564102,3996.923077,4058.974358
64,4346.666666,4516.410256,4544.615384,4244.615384,4494.871794,4200.512820,4469.743589,4226.153846,4241.025641,4496.923076,4192.820512,4633.333333,3986.153847,4055.897435
65,4344.615384,4511.282051,4536.923076,4243.076923,4492.820512,4201.025641,4461.538461,4218.461538,4236.410256,4491.794871,4184.615384,4629.743589,3985.128206,4049.743589
66,4344.102564,4507.692307,4536.923076,4245.641025,4493.846153,4198.461538,4458.974358,4212.820512,4227.179487,4487.692307,4175.384615,4626.666666,3981.025642,4034.871794
67,4341.538461,4509.230769,4538.974358,4246.666666,4493.846153,4194.871794,4460.000000,4210.256410,4224.102564,4478.461538,4176.410256,4625.641025,3972.307693,4035.384615
68,4343.076923,4511.282051,4536.923076,4246.666666,4496.410256,4197.948717,4458.461538,4210.256410,4230.769230,4481.538461,4187.179487,4628.205128,3973.333334,4051.794871
69,4348.717948,4510.769230,4537.948717,4252.820512,4501.025641,4204.615384,4463.076923,4218.461538,4240.512820,4500.512820,4201.025641,4632.820512,3982.564103,4058.461538
70,4353.846153,4515.897435,4541.025641,4261.025641,4496.923076,4204.102564,4467.179487,4228.205128,4246.153846,4513.333333,4205.641025,4637.435897,3991.282052,4055.384615
71,4356.923076,4518.974358,4542.051282,4258.974358,4494.358974,4196.923076,4463.589743,4232.820512,4248.205128,4507.179487,4198.461538,4640.512820,3992.307693,4054.871794
72,4357.435897,4513.333333,4543.076923,4253.846153,4497.948717,4195.384615,4461.538461,4234.358974,4251.794871,4499.487179,4199.487179,4644.102564,3988.205129,4057.435897
73,4358.974358,4515.384615,4543.589743,4258.461538,4496.923076,4199.487179,4466.153846,4235.384615,4253.846153,4505.641025,4212.820512,4647.179487,3988.717949,4061.538461
74,4358.461538,4518.461538,4542.564102,4256.923076,4494.358974,4195.897435,4464.102564,4229.743589,4244.615384,4508.717948,4216.410256,4640.000000,3988.205129,4062.051282
75,4350.769230,4507.692307,4536.923076,4245.641025,4493.846153,4191.282051,4456.923076,4221.538461,4235.897435,4498.461538,4202.051282,4630.256410,3978.461539,4052.820512
76,4348.717948,4505.641025,4528.205128,4244.102564,4488.205128,4192.820512,4454.358974,4216.923076,4238.461538,4492.820512,4189.743589,4632.307692,3975.384616,4050.256410
77,4352.307692,4515.384615,4523.076923,4248.205128,4481.025641,4189.743589,4447.692307,4210.256410,4235.384615,4495.897435,4189.743589,4635.897435,3981.538462,4055.897435
78,4345.641025,4508.717948,4522.051282,4242.564102,4481.538461,4182.051282,4444.615384,4204.102564,4223.589743,4491.794871,4187.692307,4631.794871,3977.948718,4053.333333
79,4343.589743,4503.076923,4522.564102,4239.487179,4488.717948,4182.564102,4450.769230,4209.743589,4226.153846,4485.641025,4183.589743,4630.256410,3970.256411,4047.692307
80,4355.384615,4514.871794,4524.615384,4248.205128,4490.769230,4192.307692,4453.846153,4218.461538,4235.897435,4494.358974,4193.333333,4635.897435,3974.871795,4048.717948
81,4361.025641,4524.102564,4527.179487,4256.410256,4487.692307,4195.897435,4454.358974,4222.564102,4243.589743,4504.615384,4206.666666,4641.538461,3983.589744,4057.948717
82,4356.410256,4524.102564,4526.153846,4257.948717,4492.307692,4191.282051,4456.410256,4224.615384,4247.179487,4501.538461,4208.205128,4642.051282,3982.564103,4066.666666
83,4354.358974,4520.000000,4524.102564,4259.487179,4494.358974,4191.794871,4449.230769,4220.000000,4236.923076,4495.384615,4203.589743,4636.923076,3980.512821,4063.589743
84,4353.333333,4519.487179,4525.128205,4261.538461,4490.769230,4194.871794,4444.102564,4214.358974,4229.230769,4492.820512,4198.461538,4633.333333,3981.538462,4050.769230
85,4353.846153,4525.128205,4523.589743,4256.923076,4492.307692,4194.358974,4451.282051,4217.948717,4234.358974,4498.461538,4193.846153,4634.358974,3974.358975,4047.179487
86,4352.820512,4522.051282,4514.358974,4248.717948,4491.282051,4190.769230,4450.769230,4216.410256,4234.358974,4501.538461,4189.230769,4631.282051,3964.102565,4051.282051
87,4345.128205,4507.692307,4506.153846,4245.641025,4484.102564,4187.692307,4442.051282,4203.589743,4226.666666,4487.692307,4181.538461,4621.538461,3961.538462,4045.128205
88,4343.076923,4508.717948,4508.205128,4244.102564,4484.615384,4188.717948,4443.076923,4199.487179,4226.153846,4476.923076,4184.102564,4619.487179,3963.076924,4041.538461
89,4350.769230,4516.923076,4513.333333,4245.128205,4487.692307,4191.794871,4447.692307,4210.769230,4226.666666,4484.102564,4200.512820,4629.743589,3964.615385,4046.153846
90,4352.820512,4512.307692,4508.717948,4248.717948,4482.564102,4189.230769,4447.692307,4217.948717,4226.153846,4487.179487,4207.179487,4632.307692,3964.615385,4047.179487
91,4348.717948,4509.743589,4509.230769,4247.179487,4484.102564,4186.666666,4447.179487,4216.923076,4233.333333,4484.615384,4201.538461,4631.282051,3961.538462,4050.256410
92,4348.717948,4515.384615,4515.384615,4246.153846,4490.256410,4189.230769,4447.692307,4215.897435,4241.025641,4491.282051,4196.923076,4632.820512,3959.487180,4057.435897
93,4350.256410,4512.820512,4508.717948,4249.230769,4486.153846,4190.256410,4446.666666,4213.333333,4237.948717,4489.230769,4189.743589,4626.666666,3960.000000,4049.743589
94,4347.692307,4504.615384,4504.615384,4246.666666,4484.102564,4189.230769,4445.128205,4210.769230,4228.205128,4472.820512,4182.564102,4620.512820,3957.948718,4035.897435
95,4349.230769,4507.692307,4514.871794,4248.717948,4491.282051,4190.769230,4447.179487,4214.871794,4227.692307,4474.358974,4183.076923,4628.205128,3962.051283,4044.615384
96,4355.897435,4516.410256,4516.923076,4261.025641,4493.333333,4194.358974,4452.307692,4218.461538,4233.333333,4494.358974,4192.307692,4632.307692,3968.717949,4055.897435
97,4358.461538,4522.051282,4511.282051,4258.461538,4489.743589,4193.846153,4451.282051,4214.358974,4235.897435,4493.333333,4200.512820,4629.230769,3963.589744,4055.384615
98,4357.435897,4523.589743,4516.410256,4247.179487,4486.666666,4187.692307,4445.641025,4210.769230,4238.461538,4479.487179,4193.846153,4632.307692,3960.512821,4054.871794
99,4357.948717,4518.461538,4524.102564,4255.897435,4486.666666,4185.641025,4445.128205,4210.769230,4237.435897,4481.538461,4191.282051,4635.897435,3964.615385,4054.871794
100,4358.461538,4516.410256,4522.051282,4267.179487,4491.794871,4191.794871,4447.692307,4211.794871,4233.333333,4488.205128,4201.538461,4633.333333,3966.153847,4054.358974
101,4358.974358,4518.974358,4518.974358,4262.051282,4493.333333,4194.871794,4448.717948,4213.333333,4228.717948,4483.589743,4201.025641,4632.820512,3966.153847,4058.461538
102,4369.230769,4523.589743,4525.641025,4261.025641,4489.743589,4193.846153,4449.743589,4218.974358,4230.769230,4486.153846,4200.512820,4642.051282,3971.794872,4065.128205
103,4384.102564,4535.897435,4537.435897,4271.282051,4494.871794,4196.410256,4455.384615,4221.538461,4242.564102,4499.487179,4220.512820,4655.384615,3979.487180,4070.256410
104,4381.025641,4538.461538,4535.897435,4267.179487,4499.487179,4195.384615,4452.820512,4215.897435,4245.641025,4496.923076,4220.000000,4653.333333,3978.461539,4071.282051
105,4368.717948,4526.153846,4522.564102,4260.512820,4492.307692,4193.333333,4446.666666,4213.333333,4235.384615,4491.794871,4199.487179,4645.128205,3978.461539,4070.769230
106,4368.717948,4528.717948,4522.051282,4271.282051,4494.358974,4197.435897,4453.333333,4219.487179,4232.307692,4496.410256,4205.128205,4646.666666,3985.128206,4073.846153
107,4372.820512,4538.461538,4528.205128,4275.897435,4503.076923,4202.051282,4457.435897,4216.923076,4232.307692,4488.205128,4212.307692,4648.205128,3983.589744,4073.333333
108,4373.846153,4535.384615,4530.769230,4269.743589,4502.051282,4201.025641,4450.769230,4208.205128,4224.615384,4478.974358,4202.051282,4645.128205,3977.948718,4067.692307
109,4379.487179,4537.435897,4530.769230,4273.846153,4499.487179,4198.974358,4453.846153,4210.769230,4231.794871,4491.794871,4206.666666,4648.205128,3980.000000,4070.256410
110,4380.000000,4542.564102,4525.128205,4274.358974,4497.435897,4196.923076,4456.410256,4211.794871,4241.538461,4502.564102,4217.948717,4649.743589,3978.974359,4074.358974
111,4374.358974,4536.410256,4521.538461,4270.256410,4496.923076,4193.846153,4450.769230,4207.179487,4235.897435,4498.974358,4213.333333,4645.641025,3975.384616,4073.333333
112,4372.820512,4533.333333,4525.641025,4275.384615,4500.000000,4196.923076,4453.333333,4211.794871,4235.897435,4497.435897,4209.230769,4645.641025,3980.512821,4070.769230
113,4373.333333,4532.820512,4522.564102,4274.358974,4501.025641,4198.461538,4455.384615,4217.435897,4240.512820,4500.000000,4208.205128,4646.666666,3981.538462,4066.153846
114,4373.846153,4530.769230,4521.538461,4265.128205,4495.897435,4194.871794,4449.230769,4216.923076,4237.435897,4502.051282,4203.589743,4644.615384,3972.307693,4064.615384
115,4377.948717,4538.461538,4531.794871,4269.230769,4495.384615,4197.948717,4456.410256,4219.487179,4240.512820,4502.564102,4212.820512,4646.153846,3973.333334,4075.384615
116,4375.384615,4542.051282,4532.820512,4278.974358,4502.564102,4202.051282,4463.076923,4222.051282,4246.153846,4500.000000,4222.564102,4647.692307,3979.487180,4079.487179
117,4371.794871,4533.333333,4524.615384,4275.384615,4502.051282,4198.974358,4455.897435,4214.871794,4237.435897,4495.897435,4213.333333,4642.564102,3974.358975,4066.153846
118,4377.948717,4532.307692,4523.076923,4267.179487,4495.897435,4195.384615,4456.923076,4215.384615,4232.820512,4494.871794,4198.974358,4639.487179,3967.179488,4060.000000
119,4381.538461,4539.487179,4525.641025,4267.692307,4496.410256,4196.410256,4462.051282,4222.051282,4241.538461,4497.948717,4199.487179,4643.076923,3967.179488,4066.153846
120,4377.948717,4537.435897,4530.256410,4278.461538,4502.051282,4200.512820,4461.025641,4222.051282,4243.589743,4506.153846,4215.384615,4647.692307,3973.333334,4073.846153
121,4377.435897,4529.230769,4531.794871,4284.102564,4501.025641,4203.589743,4461.538461,4223.076923,4241.025641,4508.205128,4224.615384,4649.743589,3979.487180,4075.384615
122,4380.000000,4527.692307,4530.769230,4276.923076,4499.487179,4201.538461,4463.076923,4227.179487,4242.564102,4502.051282,4210.769230,4649.230769,3978.974359,4068.717948
123,4377.948717,4530.256410,4530.769230,4276.923076,4506.666666,4201.025641,4462.051282,4224.615384,4244.102564,4497.435897,4196.410256,4645.641025,3970.769231,4062.564102
124,4374.871794,4535.897435,4534.358974,4283.589743,4507.692307,4203.076923,4462.051282,4224.615384,4242.564102,4496.923076,4207.179487,4645.128205,3966.666667,4069.230769
125,4373.846153,4536.923076,4536.410256,4278.461538,4501.025641,4200.512820,4462.564102,4227.179487,4244.102564,4503.589743,4218.461538,4650.256410,3972.307693,4074.358974
126,4373.333333,4529.743589,4531.794871,4265.641025,4497.948717,4196.410256,4458.461538,4221.538461,4243.589743,4509.230769,4208.205128,4650.769230,3975.384616,4063.076923
127,4375.384615,4529.230769,4530.256410,4268.205128,4498.461538,4197.435897,4456.923076,4221.538461,4246.666666,4505.641025,4202.564102,4648.717948,3974.358975,4060.512820
128,4380.512820,4539.487179,4535.384615,4278.974358,4497.435897,4195.897435,4462.051282,4231.282051,4251.794871,4506.153846,4217.435897,4651.794871,3976.410257,4076.410256
129,4382.051282,4541.025641,4533.333333,4279.487179,4493.846153,4194.358974,4462.564102,4229.230769,4248.205128,4507.692307,4219.487179,4653.846153,3976.923077,4081.538461
130,4378.974358,4532.307692,4523.589743,4277.948717,4491.794871,4195.897435,4457.948717,4221.538461,4242.051282,4501.025641,4196.923076,4647.692307,3967.179488,4068.205128
131,4373.333333,4528.717948,4523.589743,4284.615384,4493.333333,4197.435897,4457.948717,4218.974358,4238.974358,4495.897435,4188.205128,4641.025641,3952.820513,4054.871794
132,4365.641025,4527.179487,4524.615384,4281.538461,4495.384615,4196.923076,4458.461538,4213.846153,4229.230769,4493.846153,4189.743589,4635.897435,3947.692308,4047.692307
133,4363.076923,4525.641025,4520.512820,4271.282051,4496.410256,4195.384615,4457.435897,4213.333333,4230.256410,4491.282051,4186.666666,4632.820512,3957.948718,4048.717948
134,4367.692307,4522.564102,4518.461538,4271.794871,4495.384615,4196.923076,4456.923076,4219.487179,4245.641025,4495.384615,4193.333333,4632.307692,3963.589744,4058.461538
135,4364.102564,4520.000000,4510.769230,4269.230769,4490.769230,4192.307692,4448.717948,4215.897435,4243.076923,4496.923076,4197.948717,4631.794871,3951.794872,4053.846153
136,4358.461538,4521.538461,4509.743589,4263.589743,4490.256410,4188.205128,4441.538461,4208.717948,4229.230769,4489.743589,4184.102564,4631.282051,3950.769231,4046.153846
137,4367.179487,4522.564102,4521.025641,4271.794871,4494.358974,4193.846153,4451.282051,4213.333333,4236.410256,4496.923076,4181.025641,4639.487179,3968.205129,4060.000000
138,4376.410256,4522.564102,4524.102564,4275.384615,4497.435897,4197.948717,4458.461538,4219.487179,4243.589743,4512.820512,4199.487179,4649.230769,3976.410257,4075.384615
139,4371.794871,4523.589743,4518.974358,4264.102564,4492.820512,4193.846153,4450.256410,4214.871794,4238.461538,4502.051282,4209.230769,4647.692307,3967.179488,4068.205128
140,4363.589743,4521.025641,4520.512820,4265.641025,4487.179487,4189.230769,4449.743589,4211.282051,4237.435897,4483.076923,4198.974358,4639.487179,3952.820513,4048.717948
141,4365.641025,4521.025641,4523.589743,4281.025641,4490.769230,4192.820512,4458.974358,4216.410256,4240.000000,4488.205128,4182.564102,4640.000000,3950.769231,4047.692307
142,4375.897435,4530.769230,4524.615384,4281.538461,4501.538461,4196.923076,4461.025641,4218.974358,4238.974358,4498.461538,4189.230769,4649.230769,3965.128206,4064.102564
143,4382.564102,4534.358974,4531.794871,4278.461538,4502.051282,4201.025641,4457.435897,4215.384615,4237.948717,4503.589743,4216.923076,4655.384615,3978.974359,4078.461538
144,4381.538461,4530.769230,4537.435897,4282.564102,4498.461538,4200.000000,4456.923076,4212.307692,4237.435897,4509.743589,4223.589743,4655.897435,3982.564103,4078.974358
145,4381.025641,4530.769230,4537.435897,4284.102564,4499.487179,4197.948717,4456.410256,4213.846153,4242.051282,4512.307692,4211.794871,4654.871794,3981.538462,4066.153846
146,4380.512820,4531.282051,4536.410256,4282.051282,4501.025641,4201.025641,4457.435897,4216.923076,4251.794871,4511.794871,4210.769230,4656.923076,3977.435898,4060.512820
147,4375.897435,4530.769230,4536.410256,4278.461538,4500.000000,4200.512820,4457.948717,4215.897435,4249.230769,4508.717948,4210.769230,4656.410256,3975.897436,4068.717948
148,4377.948717,4528.717948,4536.923076,4275.897435,4500.512820,4198.974358,4457.948717,4217.435897,4240.512820,4501.025641,4199.487179,4649.230769,3983.076924,4077.948717
149,4382.051282,4526.153846,4537.948717,4279.487179,4505.128205,4202.051282,4458.974358,4220.000000,4242.564102,4503.076923,4203.589743,4649.743589,3984.102565,4072.820512
150,4377.948717,4526.153846,4538.974358,4281.025641,4505.641025,4202.564102,4460.000000,4217.948717,4244.615384,4510.769230,4212.820512,4654.871794,3977.948718,4064.102564
151,4371.282051,4523.589743,4535.897435,4273.333333,4499.487179,4194.358974,4456.923076,4217.435897,4242.564102,4503.589743,4192.820512,4645.641025,3976.923077,4061.538461
152,4364.615384,4511.794871,4527.692307,4265.641025,4494.358974,4191.282051,4447.692307,4215.384615,4238.461538,4492.307692,4169.743589,4632.307692,3969.230770,4052.820512
153,4356.923076,4502.564102,4520.512820,4262.564102,4492.820512,4195.384615,4440.000000,4201.025641,4227.179487,4485.128205,4174.871794,4629.230769,3955.384616,4040.512820
154,4358.974358,4511.794871,4524.102564,4264.615384,4494.871794,4195.897435,4442.051282,4193.846153,4216.923076,4477.435897,4187.692307,4631.282051,3963.076924,4039.487179
155,4369.743589,4522.564102,4537.435897,4270.769230,4498.461538,4195.897435,4450.769230,4206.153846,4223.589743,4482.564102,4187.179487,4637.948717,3982.051283,4054.358974
156,4368.205128,4514.358974,4542.051282,4271.282051,4496.410256,4193.333333,4447.692307,4208.717948,4228.717948,4489.230769,4188.717948,4642.051282,3985.128206,4057.948717
157,4357.435897,4497.435897,4531.282051,4261.025641,4485.641025,4186.153846,4435.897435,4203.589743,4224.615384,4484.615384,4190.256410,4633.333333,3972.820513,4046.153846
158,4357.948717,4500.512820,4526.153846,4257.948717,4486.153846,4184.102564,4435.897435,4210.256410,4229.230769,4486.153846,4180.000000,4633.846153,3969.230770,4045.128205
159,4360.512820,4510.256410,4534.358974,4265.128205,4494.358974,4187.692307,4441.538461,4213.846153,4235.384615,4488.717948,4172.820512,4639.487179,3974.871795,4045.128205
160,4358.974358,4506.153846,4540.000000,4266.666666,4491.794871,4189.230769,4440.000000,4209.743589,4228.717948,4480.000000,4178.461538,4638.461538,3976.923077,4041.538461
161,4361.538461,4503.589743,4537.948717,4266.153846,4489.230769,4188.717948,4440.000000,4210.769230,4218.974358,4475.384615,4187.692307,4641.025641,3979.487180,4048.717948
162,4362.564102,4507.692307,4538.461538,4266.666666,4492.820512,4187.692307,4443.589743,4214.358974,4220.000000,4478.974358,4186.153846,4642.051282,3978.974359,4055.897435
163,4357.948717,4506.666666,4541.025641,4263.589743,4491.282051,4184.615384,4442.051282,4210.256410,4225.128205,4481.538461,4177.435897,4635.384615,3972.820513,4047.692307
164,4355.897435,4507.179487,4537.948717,4264.615384,4490.256410,4187.692307,4441.538461,4209.230769,4228.717948,4489.230769,4187.179487,4635.897435,3975.384616,4040.512820
165,4360.000000,4511.794871,4542.051282,4273.846153,4497.948717,4195.897435,4447.692307,4213.846153,4230.256410,4498.461538,4200.512820,4644.102564,3986.153847,4050.769230
166,4361.025641,4511.282051,4550.769230,4270.769230,4502.051282,4197.435897,4448.205128,4209.230769,4228.205128,4492.307692,4194.358974,4641.538461,3985.128206,4057.948717
167,4357.948717,4505.641025,4545.128205,4266.666666,4493.846153,4188.205128,4443.076923,4202.564102,4226.153846,4484.102564,4180.512820,4634.358974,3974.358975,4048.717948
168,4360.000000,4507.692307,4542.051282,4271.794871,4488.717948,4183.076923,4440.512820,4205.128205,4226.153846,4485.641025,4176.923076,4635.384615,3971.282052,4040.000000
169,4366.666666,4514.358974,4550.769230,4269.230769,4491.282051,4188.205128,4443.589743,4210.256410,4226.153846,4489.230769,4185.641025,4643.589743,3976.923077,4049.230769
170,4368.717948,4515.897435,4548.205128,4267.692307,4494.358974,4189.743589,4444.615384,4209.743589,4226.666666,4489.743589,4197.948717,4649.230769,3985.128206,4060.000000
171,4362.564102,4509.230769,4543.589743,4273.846153,4494.871794,4184.615384,4442.051282,4209.230769,4226.153846,4486.666666,4195.897435,4644.615384,3986.666667,4054.358974
172,4363.589743,4510.256410,4551.794871,4274.871794,4494.358974,4185.641025,4442.051282,4208.205128,4226.153846,4486.666666,4182.564102,4640.000000,3980.000000,4051.794871
173,4365.641025,4514.358974,4550.769230,4269.230769,4491.794871,4188.205128,4446.153846,4202.564102,4229.230769,4489.743589,4179.487179,4638.974358,3977.435898,4051.794871
174,4349.743589,4504.102564,4535.897435,4265.641025,4486.666666,4179.487179,4437.435897,4191.794871,4221.538461,4478.974358,4177.435897,4631.282051,3971.282052,4037.435897
175,4340.512820,4496.923076,4534.358974,4262.051282,4484.102564,4171.794871,4428.205128,4183.589743,4207.692307,4467.179487,4175.384615,4625.128205,3963.589744,4033.846153
176,4356.410256,4505.128205,4542.051282,4262.564102,4488.717948,4181.025641,4436.923076,4190.769230,4210.769230,4476.923076,4186.666666,4631.794871,3971.794872,4053.846153
177,4364.615384,4512.307692,4542.051282,4269.743589,4494.358974,4190.769230,4447.692307,4201.025641,4222.564102,4488.717948,4190.256410,4636.410256,3981.025642,4058.461538
178,4352.820512,4511.282051,4536.923076,4269.743589,4492.820512,4188.205128,4444.615384,4198.461538,4221.025641,4481.538461,4182.564102,4630.256410,3972.307693,4038.974358
179,4350.769230,4509.230769,4536.410256,4266.153846,4489.743589,4180.512820,4441.538461,4198.974358,4215.897435,4478.974358,4186.666666,4629.230769,3968.205129,4034.871794
180,4360.512820,4504.615384,4535.384615,4265.128205,4489.230769,4177.435897,4441.538461,4202.564102,4216.923076,4485.641025,4186.153846,4631.794871,3969.230770,4043.076923
181,4357.948717,4502.564102,4529.230769,4262.051282,4489.230769,4182.051282,4440.512820,4198.974358,4217.435897,4481.025641,4177.435897,4628.717948,3960.000000,4043.076923
182,4354.358974,4510.256410,4531.282051,4264.102564,4490.769230,4186.666666,4444.615384,4201.538461,4221.538461,4477.948717,4184.615384,4630.256410,3964.615385,4044.615384
183,4357.435897,4510.769230,4538.461538,4269.743589,4489.743589,4185.128205,4446.666666,4208.717948,4224.102564,4483.076923,4188.205128,4634.871794,3978.461539,4049.230769
184,4356.923076,4506.153846,4537.435897,4271.282051,4488.717948,4185.128205,4442.564102,4205.128205,4222.051282,4481.538461,4172.307692,4632.307692,3974.871795,4048.205128
185,4357.948717,4511.794871,4536.923076,4276.410256,4490.769230,4186.666666,4442.564102,4202.564102,4224.615384,4479.487179,4174.358974,4630.256410,3969.230770,4051.282051
186,4361.538461,4516.923076,4540.512820,4281.025641,4492.307692,4184.102564,4444.102564,4201.538461,4224.102564,4486.666666,4197.435897,4633.333333,3970.256411,4054.358974
187,4359.487179,4508.205128,4533.333333,4270.769230,4490.769230,4185.128205,4444.102564,4195.897435,4216.410256,4487.179487,4196.923076,4632.307692,3966.666667,4045.128205
188,4355.897435,4506.666666,4525.641025,4265.641025,4489.230769,4187.179487,4444.102564,4195.384615,4220.512820,4481.025641,4182.051282,4629.230769,3963.589744,4034.358974
189,4358.974358,4515.384615,4530.256410,4274.871794,4492.307692,4186.666666,4442.564102,4200.512820,4227.179487,4486.666666,4184.102564,4631.794871,3967.179488,4040.512820
190,4360.512820,4517.435897,4536.410256,4278.974358,4493.333333,4185.128205,4438.461538,4197.435897,4219.487179,4490.256410,4191.794871,4634.871794,3974.871795,4055.384615
191,4360.512820,4513.846153,4535.897435,4274.871794,4488.717948,4182.051282,4439.487179,4194.871794,4213.333333,4485.128205,4192.307692,4638.461538,3981.538462,4058.974358
192,4364.615384,4513.846153,4535.897435,4274.358974,4485.641025,4182.051282,4444.615384,4201.025641,4222.051282,4490.769230,4191.794871,4644.102564,3978.461539,4051.794871
193,4366.666666,4514.871794,4537.435897,4274.358974,4487.692307,4184.615384,4443.076923,4203.076923,4227.692307,4494.871794,4186.153846,4644.615384,3974.358975,4051.282051
194,4369.743589,4519.487179,4538.974358,4277.948717,4490.256410,4185.641025,4438.974358,4199.487179,4220.512820,4493.846153,4182.564102,4643.589743,3982.051283,4060.512820
195,4371.794871,4525.641025,4540.000000,4285.641025,4491.282051,4185.641025,4442.051282,4202.051282,4223.076923,4499.487179,4190.769230,4645.641025,3985.641026,4064.615384
196,4363.589743,4519.487179,4531.794871,4276.410256,4490.769230,4184.102564,4443.589743,4202.564102,4228.205128,4488.205128,4187.179487,4640.000000,3969.743590,4052.820512
197,4351.794871,4508.717948,4518.461538,4264.102564,4488.717948,4182.564102,4441.538461,4190.256410,4215.384615,4466.153846,4171.794871,4627.179487,3956.410257,4036.923076
198,4354.871794,4511.794871,4516.923076,4272.307692,4488.205128,4184.615384,4441.538461,4184.102564,4203.589743,4470.769230,4175.384615,4625.128205,3961.025642,4038.974358
199,4365.641025,4520.512820,4522.564102,4283.076923,4490.769230,4186.153846,4443.589743,4193.333333,4215.897435,4490.256410,4185.641025,4632.820512,3970.256411,4053.333333
200,4365.641025,4520.512820,4523.589743,4274.871794,4493.333333,4186.666666,4443.076923,4200.000000,4230.256410,4489.743589,4176.410256,4634.358974,3972.307693,4057.435897
201,4358.461538,4517.948717,4520.512820,4269.743589,4494.358974,4190.769230,4442.051282,4195.384615,4224.102564,4485.128205,4167.179487,4630.769230,3971.282052,4047.179487
202,4361.538461,4521.538461,4520.512820,4280.000000,4493.333333,4191.282051,4444.102564,4196.410256,4215.897435,4489.743589,4181.538461,4633.333333,3972.307693,4042.564102
203,4371.282051,4521.025641,4524.615384,4279.487179,4490.769230,4185.641025,4444.615384,4203.076923,4215.384615,4488.717948,4190.769230,4641.025641,3976.410257,4051.794871
204,4373.846153,4514.871794,4525.128205,4272.820512,4488.717948,4183.076923,4442.564102,4203.076923,4218.974358,4489.743589,4181.025641,4643.076923,3981.025642,4063.076923
205,4375.384615,4516.923076,4522.051282,4281.025641,4492.307692,4187.179487,4444.102564,4203.589743,4223.589743,4502.051282,4188.717948,4645.641025,3985.641026,4065.128205
206,4378.974358,4521.025641,4524.615384,4285.641025,4494.871794,4190.256410,4449.230769,4208.205128,4225.128205,4506.666666,4204.102564,4650.256410,3992.307693,4061.025641
207,4367.692307,4511.282051,4521.025641,4272.820512,4486.153846,4184.102564,4446.153846,4201.538461,4220.512820,4490.769230,4187.179487,4642.564102,3985.641026,4052.307692
208,4355.897435,4502.564102,4505.641025,4263.589743,4480.000000,4176.410256,4441.025641,4191.794871,4218.461538,4476.923076,4165.641025,4628.717948,3964.102565,4044.615384
209,4363.589743,4510.256410,4507.692307,4271.794871,4487.179487,4178.974358,4443.589743,4193.846153,4224.102564,4479.487179,4173.846153,4633.846153,3960.000000,4048.205128
210,4371.282051,4516.410256,4521.538461,4283.076923,4493.333333,4186.666666,4444.615384,4194.358974,4220.512820,4485.641025,4190.769230,4645.641025,3977.948718,4055.384615
211,4366.153846,4512.820512,4515.384615,4283.589743,4490.769230,4187.692307,4443.589743,4191.794871,4215.384615,4485.641025,4193.846153,4641.025641,3985.641026,4055.897435
212,4365.128205,4513.846153,4507.692307,4277.435897,4489.743589,4184.615384,4443.589743,4198.461538,4224.615384,4485.128205,4188.717948,4633.333333,3976.410257,4055.384615
213,4370.769230,4520.512820,4517.948717,4279.487179,4493.846153,4187.692307,4449.230769,4212.820512,4235.897435,4498.974358,4191.794871,4640.000000,3976.410257,4059.487179
214,4373.846153,4523.076923,4524.615384,4285.128205,4496.923076,4190.769230,4453.846153,4218.974358,4240.000000,4508.205128,4196.410256,4645.128205,3981.538462,4060.000000
215,4370.769230,4518.461538,4516.923076,4280.000000,4492.820512,4186.666666,4446.666666,4211.282051,4237.435897,4496.923076,4188.717948,4639.487179,3979.487180,4055.384615
216,4368.717948,4514.871794,4516.410256,4276.410256,4489.743589,4184.615384,4441.025641,4202.051282,4233.846153,4491.282051,4186.153846,4638.461538,3982.564103,4054.358974
217,4373.846153,4521.538461,4523.076923,4282.564102,4491.282051,4185.641025,4447.179487,4203.076923,4231.282051,4503.076923,4192.307692,4643.589743,3989.230770,4061.538461
218,4376.410256,4526.153846,4520.000000,4286.153846,4495.384615,4188.205128,4449.743589,4205.128205,4228.717948,4497.948717,4189.743589,4643.589743,3982.564103,4064.102564
219,4371.794871,4519.487179,4514.871794,4287.179487,4497.948717,4190.256410,4449.230769,4206.666666,4229.743589,4487.692307,4189.743589,4642.564102,3975.897436,4057.435897
220,4375.384615,4522.564102,4521.025641,4288.205128,4497.435897,4191.282051,4456.923076,4217.435897,4239.487179,4504.102564,4207.179487,4648.717948,3989.230770,4058.974358
221,4383.076923,4533.333333,4523.076923,4286.153846,4503.076923,4195.897435,4463.589743,4222.051282,4239.487179,4512.820512,4218.461538,4652.307692,3996.410257,4066.666666
222,4376.923076,4527.692307,4515.384615,4282.564102,4503.589743,4193.846153,4453.333333,4208.717948,4228.717948,4495.897435,4204.102564,4643.589743,3985.641026,4067.179487
223,4369.230769,4518.461538,4512.307692,4281.538461,4495.897435,4187.692307,4445.128205,4203.589743,4233.846153,4496.410256,4187.692307,4640.512820,3980.000000,4062.051282
224,4376.923076,4527.179487,4515.897435,4284.102564,4498.974358,4191.282051,4452.820512,4215.897435,4246.666666,4515.384615,4200.000000,4647.179487,3987.692308,4057.948717
225,4385.641025,4534.358974,4519.487179,4294.358974,4507.179487,4195.384615,4458.974358,4216.410256,4241.025641,4515.384615,4216.923076,4650.769230,3991.282052,4060.000000
226,4384.615384,4526.153846,4517.435897,4295.897435,4505.128205,4192.307692,4455.384615,4207.179487,4225.641025,4502.051282,4200.000000,4647.179487,3989.230770,4065.128205
227,4381.025641,4525.128205,4513.333333,4284.102564,4497.948717,4190.769230,4455.384615,4208.205128,4227.179487,4498.974358,4194.871794,4646.666666,3990.256411,4067.692307
228,4375.897435,4528.205128,4511.794871,4280.512820,4496.923076,4190.256410,4454.358974,4210.769230,4234.871794,4499.487179,4208.205128,4646.153846,3985.641026,4059.487179
229,4370.256410,4521.538461,4511.282051,4280.512820,4496.410256,4184.102564,4445.128205,4206.153846,4232.307692,4497.948717,4193.333333,4637.948717,3973.333334,4049.230769
230,4371.282051,4515.384615,4507.179487,4280.512820,4494.871794,4184.615384,4443.589743,4205.128205,4230.769230,4497.435897,4177.435897,4636.410256,3967.692308,4050.256410
231,4372.307692,4518.461538,4502.564102,4281.538461,4496.410256,4188.717948,4448.717948,4205.641025,4227.179487,4492.820512,4190.769230,4641.538461,3969.230770,4052.307692
232,4367.179487,4517.948717,4501.538461,4279.487179,4494.358974,4184.102564,4448.717948,4202.051282,4215.897435,4486.153846,4196.410256,4637.435897,3967.179488,4048.717948
233,4367.692307,4512.820512,4501.538461,4279.487179,4494.358974,4180.512820,4445.641025,4201.025641,4214.358974,4487.692307,4193.846153,4632.307692,3970.256411,4048.205128
234,4377.435897,4520.512820,4507.692307,4287.692307,4498.974358,4188.717948,4447.692307,4205.641025,4225.128205,4493.846153,4209.743589,4646.153846,3985.128206,4061.025641
235,4384.102564,4532.307692,4516.923076,4294.358974,4505.128205,4196.410256,4455.384615,4213.333333,4230.769230,4503.076923,4215.897435,4658.974358,3994.871795,4071.794871
236,4387.179487,4534.358974,4521.538461,4297.435897,4510.256410,4196.410256,4461.025641,4218.974358,4239.487179,4510.769230,4206.666666,4653.846153,3994.871795,4072.820512
237,4387.692307,4530.256410,4515.897435,4297.948717,4508.205128,4195.384615,4458.461538,4216.410256,4246.666666,4507.179487,4212.820512,4648.717948,3991.282052,4068.205128
238,4381.538461,4526.153846,4506.153846,4288.717948,4498.461538,4192.307692,4449.230769,4215.897435,4241.025641,4500.000000,4215.384615,4650.256410,3987.692308,4057.948717
239,4376.923076,4520.000000,4505.128205,4282.564102,4496.923076,4186.666666,4444.615384,4216.410256,4234.358974,4497.948717,4198.974358,4649.230769,3983.589744,4051.282051
240,4376.923076,4519.487179,4508.717948,4286.153846,4503.589743,4184.102564,4444.615384,4208.205128,4227.692307,4490.769230,4193.333333,4642.051282,3976.410257,4056.410256
241,4375.897435,4524.102564,4503.589743,4285.641025,4501.025641,4189.230769,4444.615384,4203.076923,4224.615384,4483.076923,4203.076923,4637.948717,3977.948718,4063.076923
242,4373.846153,4522.564102,4495.384615,4278.974358,4496.923076,4192.820512,4446.666666,4210.769230,4234.358974,4494.358974,4197.435897,4638.461538,3984.102565,4055.384615
243,4375.384615,4521.538461,4493.333333,4277.948717,4505.641025,4189.743589,4452.820512,4217.948717,4240.000000,4509.230769,4195.897435,4638.974358,3981.025642,4049.230769
244,4380.000000,4524.102564,4497.435897,4286.153846,4510.769230,4190.769230,4458.974358,4217.948717,4235.897435,4511.794871,4214.871794,4643.589743,3981.538462,4061.025641
245,4380.512820,4523.589743,4495.384615,4285.641025,4501.538461,4194.358974,4456.923076,4213.846153,4232.307692,4502.051282,4214.358974,4646.666666,3986.666667,4067.179487
246,4375.897435,4518.974358,4487.692307,4277.435897,4492.820512,4191.794871,4448.717948,4206.153846,4229.230769,4487.692307,4193.333333,4639.487179,3977.435898,4053.333333
247,4377.435897,4518.974358,4493.846153,4280.512820,4499.487179,4189.230769,4451.282051,4206.666666,4227.179487,4486.666666,4197.948717,4638.461538,3973.333334,4048.205128
248,4383.589743,4524.102564,4506.153846,4291.282051,4506.666666,4193.333333,4458.974358,4216.923076,4229.743589,4501.538461,4216.923076,4649.230769,3987.692308,4063.076923
249,4376.410256,4517.435897,4500.000000,4278.974358,4496.410256,4187.692307,4451.794871,4216.923076,4227.179487,4502.051282,4204.615384,4643.589743,3983.076924,4064.102564
250,4364.102564,4502.051282,4485.641025,4261.538461,4485.641025,4177.948717,4437.435897,4207.179487,4223.076923,4483.589743,4175.384615,4628.205128,3964.102565,4044.615384
251,4371.282051,4504.102564,4492.820512,4266.153846,4492.820512,4183.589743,4442.051282,4209.230769,4228.717948,4482.564102,4180.000000,4632.820512,3972.307693,4043.076923
252,4384.102564,4518.974358,4509.230769,4272.820512,4501.025641,4189.743589,4455.384615,4218.461538,4231.794871,4500.000000,4209.743589,4643.589743,3990.256411,4060.512820
253,4382.051282,4520.512820,4507.692307,4265.641025,4498.461538,4188.205128,4452.307692,4220.000000,4233.846153,4506.153846,4209.743589,4642.051282,3986.153847,4059.487179
254,4373.846153,4511.794871,4502.564102,4267.179487,4493.846153,4185.641025,4442.564102,4217.948717,4235.897435,4502.564102,4187.179487,4637.435897,3979.487180,4047.692307
255,4373.333333,4506.153846,4505.641025,4275.897435,4493.846153,4183.076923,4440.000000,4213.333333,4228.717948,4496.923076,4186.666666,4635.897435,3982.051283,4052.307692
256,4372.820512,4505.128205,4506.666666,4273.333333,4494.358974,4182.051282,4440.000000,4205.128205,4220.000000,4489.743589,4193.846153,4634.871794,3984.615385,4055.897435
257,4365.128205,4505.641025,4502.051282,4263.589743,4491.282051,4183.076923,4437.435897,4196.923076,4213.333333,4477.435897,4183.076923,4631.794871,3983.076924,4045.128205
258,4358.974358,4501.025641,4500.512820,4258.461538,4488.205128,4178.461538,4436.923076,4190.769230,4210.256410,4470.769230,4173.333333,4627.179487,3976.923077,4037.435897
259,4358.461538,4495.897435,4501.538461,4257.435897,4486.666666,4172.307692,4439.487179,4187.692307,4212.307692,4478.461538,4172.307692,4627.692307,3973.333334,4040.000000
260,4361.025641,4494.871794,4501.025641,4260.512820,4486.666666,4175.384615,4436.923076,4193.333333,4213.333333,4482.564102,4166.666666,4631.282051,3975.897436,4036.923076
