,AF3,F7,F3,FC5,T7,P7,O1,O2,P8,T8,FC6,F4,F8,AF4
0,4404.102564,4498.461538,4524.102564,4266.666666,4543.076923,4205.128205,4449.743589,4198.461538,4216.923076,4494.358974,4195.384615,4647.692307,3994.358975,4108.205128
1,4410.769230,4503.589743,4521.025641,4270.769230,4534.871794,4203.589743,4449.743589,4198.974358,4212.307692,4484.102564,4195.384615,4652.307692,3998.461539,4111.794871
2,4412.820512,4498.461538,4531.282051,4272.820512,4532.307692,4201.538461,4453.333333,4201.538461,4215.897435,4479.487179,4205.641025,4658.461538,4001.025641,4115.897435
3,4417.435897,4500.000000,4538.461538,4273.846153,4537.435897,4208.205128,4459.487179,4209.743589,4228.205128,4497.435897,4214.358974,4660.000000,4005.128205,4122.564102
4,4425.128205,4509.230769,4540.512820,4278.974358,4541.025641,4216.923076,4460.000000,4216.923076,4236.410256,4513.846153,4219.487179,4664.102564,4019.487179,4134.871794
5,4426.666666,4510.769230,4536.410256,4278.974358,4537.948717,4214.871794,4457.948717,4218.974358,4234.358974,4512.820512,4219.487179,4666.153846,4025.128205,4132.820512
6,4423.589743,4505.128205,4532.307692,4275.897435,4535.897435,4209.230769,4457.948717,4214.871794,4228.205128,4497.435897,4210.256410,4663.076923,4012.307692,4120.512820
7,4420.000000,4505.128205,4529.743589,4283.076923,4540.000000,4211.794871,4456.923076,4206.153846,4222.564102,4487.179487,4200.000000,4657.435897,4003.076923,4118.974358
8,4421.538461,4516.410256,4525.641025,4294.871794,4552.307692,4221.025641,4458.974358,4204.102564,4227.179487,4499.487179,4207.179487,4655.384615,4012.820512,4123.589743
9,4423.589743,4522.051282,4526.666666,4300.000000,4553.846153,4219.487179,4459.487179,4205.641025,4230.256410,4505.641025,4215.384615,4655.897435,4022.051282,4118.461538
10,4418.461538,4510.256410,4527.179487,4297.948717,4540.000000,4207.179487,4455.897435,4201.538461,4217.948717,4476.923076,4209.743589,4652.820512,4014.358974,4111.794871
11,4413.846153,4505.128205,4529.230769,4305.641025,4542.564102,4207.692307,4458.461538,4198.461538,4215.897435,4471.282051,4209.743589,4651.282051,4013.846153,4113.333333
12,4416.410256,4512.307692,4531.794871,4314.871794,4549.743589,4219.487179,4461.538461,4202.564102,4230.769230,4507.179487,4218.461538,4656.410256,4023.589743,4112.820512
13,4417.435897,4508.717948,4528.717948,4314.358974,4536.410256,4219.487179,4458.974358,4208.205128,4232.307692,4513.846153,4217.948717,4656.410256,4022.051282,4109.230769
14,4417.948717,4503.076923,4528.717948,4315.897435,4534.358974,4216.410256,4466.153846,4217.435897,4229.230769,4492.820512,4213.846153,4656.410256,4016.923076,4115.384615
15,4419.487179,4508.717948,4533.333333,4323.589743,4544.615384,4220.000000,4471.794871,4221.025641,4233.846153,4489.743589,4213.333333,4656.923076,4012.820512,4115.897435
16,4411.794871,4507.179487,4528.717948,4324.615384,4534.358974,4215.897435,4458.461538,4210.256410,4227.692307,4489.743589,4210.769230,4649.743589,4003.589743,4101.025641
17,4408.717948,4503.076923,4520.000000,4326.666666,4537.948717,4212.307692,4455.384615,4209.230769,4223.076923,4491.282051,4213.333333,4649.230769,4001.538461,4098.974358
18,4418.461538,4512.820512,4524.102564,4331.794871,4560.512820,4219.487179,4469.230769,4218.974358,4231.794871,4498.461538,4219.487179,4658.461538,4010.256410,4112.307692
19,4421.538461,4519.487179,4527.179487,4331.282051,4548.717948,4221.538461,4467.692307,4213.333333,4231.794871,4486.666666,4218.974358,4654.871794,4012.307692,4112.820512
20,4412.307692,4513.333333,4521.025641,4329.230769,4526.153846,4216.410256,4457.435897,4198.974358,4221.538461,4475.384615,4217.948717,4647.692307,4009.743589,4103.589743
21,4400.512820,4503.076923,4512.820512,4322.051282,4532.307692,4215.384615,4460.000000,4194.358974,4215.897435,4488.205128,4215.384615,4648.717948,4012.820512,4095.897435
22,4396.410256,4498.461538,4505.128205,4311.794871,4543.589743,4217.948717,4463.076923,4199.487179,4215.897435,4495.384615,4208.205128,4644.102564,4011.794871,4091.794871
23,4400.000000,4497.435897,4504.102564,4309.230769,4542.051282,4218.461538,4462.051282,4201.025641,4221.025641,4492.820512,4210.256410,4644.102564,4006.666666,4094.871794
24,4403.589743,4494.871794,4509.743589,4311.282051,4536.410256,4217.435897,4461.025641,4200.512820,4226.666666,4489.743589,4213.846153,4653.846153,4006.153846,4100.512820
25,4403.589743,4496.410256,4512.820512,4307.179487,4531.794871,4212.307692,4460.000000,4205.128205,4224.615384,4477.435897,4208.717948,4654.358974,4008.717948,4100.000000
26,4406.666666,4504.102564,4513.846153,4310.256410,4534.358974,4208.205128,4459.487179,4210.256410,4217.435897,4474.358974,4205.641025,4647.692307,4001.538461,4094.358974
27,4412.820512,4510.256410,4518.974358,4318.974358,4543.076923,4212.307692,4458.974358,4206.666666,4216.410256,4487.692307,4205.128205,4648.717948,3994.358975,4092.307692
28,4413.846153,4509.743589,4523.589743,4317.435897,4544.615384,4217.435897,4460.000000,4201.538461,4223.076923,4490.769230,4202.051282,4655.897435,3998.974359,4099.487179
29,4411.282051,4507.692307,4527.692307,4316.410256,4536.410256,4217.948717,4462.051282,4205.128205,4226.666666,4482.564102,4205.641025,4657.948717,4000.512820,4107.179487
30,4414.871794,4507.692307,4530.769230,4321.025641,4532.307692,4215.897435,4460.000000,4211.282051,4226.666666,4484.102564,4215.897435,4657.948717,4006.666666,4106.666666
31,4424.102564,4515.897435,4532.307692,4326.153846,4546.153846,4215.384615,4458.461538,4215.897435,4231.282051,4498.461538,4223.589743,4664.615384,4023.589743,4107.692307
32,4426.666666,4524.615384,4531.282051,4324.615384,4561.025641,4218.461538,4461.538461,4213.846153,4234.358974,4509.230769,4226.666666,4669.230769,4028.717948,4112.820512
33,4419.487179,4516.923076,4529.743589,4318.974358,4544.102564,4216.923076,4458.461538,4205.641025,4228.717948,4504.615384,4224.102564,4664.102564,4014.871794,4113.846153
34,4408.717948,4503.076923,4523.589743,4308.717948,4514.871794,4206.153846,4446.666666,4199.487179,4216.923076,4486.153846,4207.179487,4651.282051,4002.051282,4104.615384
35,4399.487179,4496.923076,4514.871794,4298.974358,4514.871794,4200.000000,4444.615384,4194.358974,4206.666666,4470.769230,4187.179487,4640.512820,3992.307693,4087.692307
36,4402.051282,4502.051282,4517.435897,4305.128205,4538.974358,4209.743589,4455.384615,4197.948717,4207.692307,4473.846153,4188.717948,4641.025641,3989.743590,4085.641025
37,4409.743589,4506.666666,4525.641025,4313.846153,4548.717948,4222.051282,4463.076923,4214.358974,4219.487179,4491.282051,4203.076923,4650.769230,4002.051282,4101.538461
38,4404.102564,4498.974358,4521.538461,4306.153846,4528.717948,4217.948717,4460.000000,4221.538461,4227.692307,4494.871794,4204.102564,4651.282051,4006.666666,4101.025641
39,4393.333333,4494.871794,4513.333333,4294.871794,4508.717948,4206.153846,4455.897435,4211.794871,4220.512820,4484.102564,4195.384615,4643.589743,3997.948718,4085.641025
40,4395.897435,4502.564102,4517.435897,4298.461538,4523.076923,4209.230769,4458.461538,4210.256410,4217.435897,4492.820512,4200.512820,4644.615384,4001.538461,4092.307692
41,4405.641025,4513.846153,4525.128205,4307.179487,4547.179487,4220.000000,4462.051282,4219.487179,4228.205128,4509.743589,4212.820512,4652.307692,4014.358974,4108.205128
42,4412.820512,4517.948717,4529.743589,4307.692307,4544.102564,4219.487179,4461.538461,4221.025641,4234.358974,4503.589743,4218.461538,4658.974358,4017.435897,4107.179487
43,4414.871794,4513.333333,4532.820512,4302.051282,4538.974358,4215.897435,4460.000000,4216.410256,4231.282051,4492.820512,4216.410256,4664.102564,4016.410256,4111.794871
44,4411.282051,4508.205128,4530.769230,4296.410256,4537.948717,4219.487179,4461.538461,4214.871794,4230.256410,4490.256410,4212.820512,4662.564102,4017.948717,4121.025641
45,4408.717948,4505.128205,4530.769230,4296.923076,4510.769230,4218.461538,4462.051282,4216.410256,4230.769230,4489.743589,4208.717948,4657.435897,4012.307692,4111.282051
46,4409.743589,4502.564102,4534.358974,4297.435897,4498.461538,4214.871794,4460.512820,4215.897435,4228.205128,4502.051282,4202.564102,4655.897435,4005.128205,4101.538461
47,4406.666666,4500.000000,4534.871794,4293.333333,4528.205128,4217.435897,4459.487179,4214.358974,4226.153846,4511.794871,4197.435897,4652.307692,4002.051282,4102.564102
48,4400.512820,4496.923076,4529.743589,4292.820512,4544.615384,4216.923076,4459.487179,4212.820512,4221.025641,4485.641025,4197.435897,4647.179487,4000.000000,4096.923076
49,4398.461538,4490.769230,4526.666666,4292.820512,4535.384615,4214.358974,4460.512820,4213.846153,4217.435897,4466.666666,4202.564102,4650.769230,3998.974359,4097.435897
50,4397.948717,4488.717948,4522.564102,4287.179487,4526.666666,4213.846153,4461.538461,4215.897435,4217.948717,4487.692307,4198.461538,4654.358974,3998.974359,4106.153846
51,4397.948717,4495.384615,4522.051282,4287.692307,4506.153846,4211.282051,4457.948717,4213.333333,4220.512820,4503.589743,4190.769230,4647.692307,3998.974359,4102.564102
52,4404.102564,4503.589743,4529.230769,4296.410256,4502.051282,4210.769230,4462.564102,4213.846153,4225.641025,4499.487179,4201.025641,4652.820512,4008.205128,4103.589743
53,4416.410256,4511.282051,4537.435897,4300.512820,4536.923076,4222.564102,4474.358974,4224.615384,4235.384615,4504.102564,4224.102564,4672.307692,4025.641025,4122.564102
54,4421.025641,4510.769230,4541.538461,4300.000000,4557.435897,4234.871794,4476.923076,4234.358974,4245.128205,4511.282051,4233.846153,4677.948717,4030.256410,4132.307692
55,4417.948717,4508.205128,4539.487179,4300.000000,4544.615384,4233.333333,4480.512820,4232.307692,4242.564102,4505.641025,4221.025641,4667.692307,4020.512820,4121.538461
56,4415.897435,4508.205128,4533.846153,4296.923076,4531.282051,4228.717948,4488.205128,4231.794871,4239.487179,4513.846153,4211.794871,4659.487179,4015.897435,4112.820512
57,4409.743589,4503.589743,4528.717948,4292.307692,4526.666666,4232.820512,4483.076923,4235.384615,4242.564102,4520.512820,4211.282051,4655.897435,4016.410256,4112.820512
58,4402.051282,4497.435897,4521.538461,4286.666666,4526.153846,4232.307692,4474.358974,4227.692307,4240.000000,4497.435897,4198.974358,4648.717948,4012.307692,4108.205128
59,4394.358974,4491.794871,4511.282051,4277.948717,4521.025641,4220.512820,4474.358974,4213.846153,4227.692307,4478.974358,4186.153846,4636.410256,4001.025641,4092.307692
60,4388.205128,4489.230769,4507.179487,4275.384615,4523.076923,4218.974358,4473.846153,4212.307692,4220.512820,4487.692307,4187.692307,4628.717948,3990.769231,4083.076923
61,4390.769230,4493.846153,4514.358974,4278.974358,4537.435897,4229.743589,4473.846153,4213.333333,4222.051282,4492.307692,4193.846153,4630.256410,3990.769231,4086.666666
62,4397.435897,4492.820512,4520.512820,4278.974358,4541.025641,4231.282051,4477.435897,4214.871794,4227.692307,4490.769230,4194.358974,4636.923076,3997.948718,4088.205128
63,4404.102564,4489.230769,4527.179487,4277.948717,4540.512820,4230.256410,4478.974358,4225.128205,4234.871794,4507.179487,4203.589743,4646.666666,4007.179487,4096.410256
64,4411.282051,4501.538461,4535.384615,4285.128205,4540.000000,4232.820512,4477.948717,4228.205128,4234.871794,4509.230769,4210.256410,4656.410256,4012.307692,4109.743589
65,4413.333333,4513.333333,4536.410256,4293.333333,4525.128205,4224.102564,4470.256410,4218.974358,4226.666666,4486.666666,4204.102564,4654.871794,4005.641025,4104.615384
66,4409.230769,4509.230769,4535.384615,4292.820512,4517.948717,4213.846153,4461.538461,4217.948717,4224.102564,4489.230769,4201.538461,4650.256410,3997.948718,4095.384615
67,4408.717948,4509.230769,4537.948717,4290.769230,4532.820512,4216.923076,4462.051282,4221.025641,4228.717948,4506.666666,4205.641025,4652.307692,4000.512820,4104.615384
68,4412.820512,4522.051282,4538.461538,4294.871794,4541.538461,4218.974358,4463.589743,4217.948717,4228.717948,4501.538461,4207.692307,4652.820512,4007.179487,4114.358974
69,4414.871794,4524.102564,4533.333333,4296.923076,4540.000000,4216.410256,4460.000000,4216.410256,4222.051282,4497.948717,4206.666666,4653.846153,4007.179487,4109.743589
70,4412.307692,4514.871794,4530.769230,4292.307692,4531.282051,4214.358974,4457.435897,4211.794871,4221.538461,4503.076923,4206.153846,4654.871794,4001.025641,4103.076923
71,4405.641025,4509.230769,4530.256410,4287.692307,4525.128205,4214.358974,4456.410256,4201.538461,4220.000000,4485.128205,4203.076923,4649.743589,3994.358975,4098.461538
72,4404.102564,4508.717948,4529.743589,4286.666666,4540.000000,4215.897435,4456.923076,4198.461538,4214.871794,4470.769230,4198.461538,4644.102564,3996.410257,4099.487179
73,4408.717948,4508.205128,4532.820512,4286.153846,4547.179487,4217.948717,4458.461538,4203.076923,4217.948717,4489.230769,4196.410256,4646.666666,4002.051282,4102.564102
74,4404.615384,4507.179487,4535.384615,4282.051282,4527.179487,4216.410256,4459.487179,4203.589743,4220.000000,4502.051282,4195.384615,4647.692307,4000.000000,4101.538461
75,4396.923076,4505.128205,4529.230769,4277.435897,4514.358974,4214.358974,4459.487179,4200.512820,4213.846153,4489.743589,4193.846153,4643.076923,3995.384616,4097.948717
76,4396.923076,4497.948717,4523.076923,4278.461538,4520.000000,4214.358974,4456.923076,4200.000000,4214.358974,4477.948717,4190.769230,4642.051282,3990.256411,4092.820512
77,4398.974358,4489.743589,4526.666666,4280.000000,4533.333333,4215.897435,4461.025641,4207.179487,4220.512820,4481.538461,4189.743589,4646.153846,3987.179488,4090.769230
78,4397.435897,4490.769230,4525.641025,4275.897435,4539.487179,4218.974358,4471.282051,4215.384615,4220.512820,4490.256410,4198.461538,4649.230769,3993.846154,4097.435897
79,4395.897435,4503.076923,4522.564102,4275.384615,4533.333333,4218.461538,4468.205128,4217.435897,4222.051282,4492.307692,4204.102564,4649.230769,4005.128205,4104.615384
80,4396.410256,4504.615384,4525.128205,4275.897435,4526.153846,4214.871794,4458.461538,4216.410256,4229.743589,4498.461538,4201.538461,4651.794871,4005.641025,4101.538461
81,4400.512820,4497.435897,4524.102564,4271.282051,4533.846153,4216.410256,4461.025641,4211.794871,4228.717948,4505.128205,4202.051282,4654.871794,4002.564102,4101.025641
82,4400.000000,4499.487179,4521.025641,4267.692307,4531.282051,4216.410256,4459.487179,4204.615384,4218.461538,4494.358974,4201.025641,4648.717948,4001.025641,4100.512820
83,4388.205128,4500.512820,4520.512820,4267.179487,4508.717948,4205.128205,4444.102564,4192.820512,4211.282051,4480.000000,4191.794871,4637.435897,3992.307693,4089.230769
84,4384.615384,4491.794871,4522.051282,4264.615384,4508.205128,4196.923076,4439.487179,4187.179487,4211.282051,4487.179487,4186.153846,4640.000000,3988.717949,4087.179487
85,4395.897435,4490.769230,4523.589743,4262.564102,4528.205128,4201.538461,4446.153846,4191.794871,4212.820512,4488.717948,4190.256410,4647.692307,3996.410257,4096.410256
86,4397.435897,4493.846153,4522.564102,4260.512820,4519.487179,4203.589743,4443.589743,4192.820512,4213.846153,4470.256410,4191.794871,4642.564102,3996.410257,4094.871794
87,4389.230769,4488.205128,4521.538461,4257.948717,4502.564102,4200.512820,4441.025641,4194.358974,4215.897435,4471.282051,4186.153846,4641.025641,3986.666667,4088.717948
88,4389.743589,4486.666666,4524.102564,4257.948717,4515.897435,4204.615384,4449.230769,4200.000000,4216.923076,4495.384615,4185.641025,4646.666666,3989.230770,4093.846153
89,4395.897435,4494.358974,4522.564102,4260.000000,4533.846153,4212.820512,4456.923076,4200.512820,4216.923076,4498.974358,4188.717948,4644.102564,3993.333334,4095.384615
90,4397.435897,4503.076923,4521.025641,4265.128205,4530.256410,4215.384615,4457.948717,4198.974358,4217.948717,4485.641025,4191.282051,4640.512820,3986.666667,4093.846153
91,4401.025641,4510.256410,4532.307692,4277.948717,4525.128205,4214.871794,4460.000000,4204.102564,4224.102564,4492.820512,4199.487179,4650.769230,3997.435898,4105.128205
92,4409.743589,4513.333333,4537.435897,4284.615384,4529.743589,4217.948717,4463.076923,4206.153846,4227.692307,4506.153846,4205.641025,4656.923076,4012.307692,4112.307692
93,4408.717948,4506.666666,4527.179487,4273.846153,4536.923076,4217.435897,4461.025641,4200.512820,4223.076923,4500.512820,4204.102564,4649.743589,4007.692307,4104.615384
94,4396.923076,4495.897435,4520.512820,4262.564102,4534.358974,4206.153846,4456.410256,4191.794871,4216.923076,4489.743589,4200.512820,4644.615384,4000.512820,4096.923076
95,4390.256410,4492.307692,4522.564102,4260.000000,4521.538461,4200.000000,4455.897435,4187.179487,4213.333333,4490.256410,4198.974358,4645.641025,4003.589743,4091.794871
96,4391.282051,4495.384615,4521.538461,4254.871794,4513.333333,4203.589743,4457.948717,4194.358974,4212.820512,4487.692307,4202.051282,4648.717948,4006.153846,4090.769230
97,4392.820512,4493.846153,4520.000000,4254.871794,4503.589743,4204.102564,4457.435897,4201.538461,4216.410256,4476.923076,4203.589743,4652.820512,4004.102564,4096.410256
98,4392.820512,4489.743589,4522.564102,4258.974358,4502.051282,4199.487179,4457.435897,4198.974358,4220.000000,4486.666666,4199.487179,4653.846153,4000.512820,4100.000000
99,4392.307692,4492.307692,4521.538461,4256.410256,4520.512820,4201.025641,4460.000000,4200.000000,4221.538461,4509.230769,4198.974358,4653.846153,3999.487180,4097.948717
100,4392.820512,4500.000000,4521.025641,4255.384615,4532.307692,4207.692307,4462.051282,4205.128205,4223.589743,4515.384615,4203.076923,4653.333333,4002.051282,4097.435897
101,4394.358974,4500.512820,4523.076923,4257.948717,4523.076923,4204.615384,4460.000000,4197.948717,4221.025641,4500.512820,4195.384615,4650.256410,3994.871795,4091.794871
102,4392.307692,4492.307692,4520.512820,4257.948717,4515.384615,4200.512820,4458.461538,4189.230769,4210.769230,4481.025641,4185.641025,4645.641025,3989.230770,4085.128205
103,4391.282051,4488.205128,4520.512820,4256.410256,4520.512820,4207.179487,4460.512820,4194.358974,4209.230769,4478.461538,4195.897435,4649.743589,4003.589743,4093.846153
104,4394.871794,4495.897435,4529.230769,4254.871794,4517.435897,4209.743589,4460.512820,4201.538461,4217.948717,4491.282051,4205.128205,4657.948717,4010.769230,4108.717948
105,4403.589743,4503.589743,4536.410256,4254.871794,4518.461538,4205.641025,4457.948717,4199.487179,4217.948717,4503.076923,4202.051282,4661.025641,4003.589743,4109.230769
106,4411.794871,4507.692307,4540.000000,4261.025641,4534.358974,4213.333333,4459.487179,4198.461538,4215.897435,4503.589743,4200.000000,4660.512820,4004.102564,4105.128205
107,4406.153846,4508.205128,4536.923076,4260.512820,4529.743589,4215.897435,4461.538461,4196.923076,4216.923076,4490.769230,4195.384615,4653.846153,4003.589743,4104.615384
108,4394.358974,4499.487179,4529.230769,4255.384615,4509.743589,4203.076923,4459.487179,4187.692307,4213.333333,4468.205128,4184.615384,4646.153846,3992.307693,4097.435897
109,4394.871794,4494.871794,4527.179487,4261.538461,4514.871794,4204.102564,4459.487179,4183.589743,4211.282051,4467.692307,4183.589743,4646.153846,3985.128206,4087.692307
110,4399.487179,4502.564102,4528.205128,4267.179487,4533.333333,4215.384615,4461.538461,4187.179487,4215.384615,4497.435897,4186.153846,4646.153846,3988.717949,4085.641025
111,4394.871794,4509.230769,4524.102564,4265.641025,4533.846153,4213.846153,4461.538461,4185.128205,4213.846153,4507.179487,4182.051282,4638.461538,3990.256411,4083.076923
112,4390.256410,4504.102564,4519.487179,4268.205128,4532.307692,4210.769230,4460.000000,4184.102564,4206.153846,4488.717948,4186.153846,4631.794871,3988.205129,4078.974358
113,4390.256410,4505.641025,4518.974358,4276.923076,4535.384615,4212.307692,4457.948717,4185.641025,4207.179487,4478.461538,4197.435897,4636.410256,3987.692308,4083.589743
114,4395.897435,4514.358974,4522.564102,4289.743589,4533.333333,4215.897435,4461.025641,4191.282051,4215.384615,4488.717948,4201.025641,4646.666666,3994.871795,4091.794871
115,4401.025641,4507.692307,4525.128205,4292.307692,4526.153846,4219.487179,4467.179487,4196.410256,4223.076923,4500.000000,4205.128205,4649.230769,4007.179487,4095.897435
116,4400.512820,4502.564102,4524.615384,4289.743589,4519.487179,4217.948717,4465.128205,4190.256410,4226.153846,4498.974358,4212.820512,4649.743589,4008.205128,4096.410256
117,4406.153846,4518.461538,4529.743589,4304.102564,4524.615384,4215.897435,4458.461538,4186.666666,4227.692307,4505.128205,4217.435897,4656.410256,4006.153846,4096.410256
118,4416.410256,4529.230769,4541.538461,4322.564102,4536.923076,4219.487179,4458.974358,4197.435897,4233.333333,4518.974358,4221.538461,4663.589743,4012.307692,4101.025641
119,4412.820512,4524.102564,4540.512820,4318.974358,4542.051282,4221.025641,4461.538461,4197.948717,4232.820512,4520.512820,4224.102564,4662.564102,4013.846153,4105.128205
120,4404.102564,4521.025641,4529.743589,4310.769230,4535.897435,4216.923076,4459.487179,4191.282051,4224.102564,4505.641025,4220.000000,4657.948717,4006.153846,4097.435897
121,4406.153846,4524.102564,4524.102564,4312.820512,4538.461538,4215.897435,4459.487179,4194.358974,4216.410256,4500.000000,4216.923076,4653.846153,4004.102564,4087.692307
122,4408.717948,4522.051282,4524.102564,4314.358974,4540.000000,4217.435897,4459.487179,4193.333333,4217.948717,4506.666666,4217.948717,4650.769230,4007.692307,4086.666666
123,4405.128205,4522.564102,4522.564102,4312.307692,4526.153846,4214.871794,4451.794871,4183.589743,4218.974358,4506.666666,4216.410256,4650.769230,4006.153846,4087.692307
124,4402.051282,4522.564102,4522.564102,4310.256410,4521.025641,4214.358974,4448.717948,4187.179487,4219.487179,4507.692307,4218.974358,4655.384615,4005.128205,4089.743589
125,4405.641025,4520.000000,4524.615384,4310.256410,4527.179487,4217.948717,4456.923076,4193.333333,4220.512820,4507.179487,4220.000000,4661.538461,4007.692307,4095.384615
126,4410.256410,4521.025641,4525.128205,4313.333333,4528.717948,4216.923076,4460.512820,4186.153846,4216.923076,4491.282051,4213.846153,4658.974358,4009.743589,4098.461538
127,4406.666666,4522.564102,4523.076923,4311.794871,4536.923076,4212.820512,4457.948717,4182.564102,4214.358974,4481.538461,4212.820512,4651.794871,4006.153846,4096.410256
128,4404.615384,4523.076923,4522.051282,4309.743589,4547.179487,4213.846153,4460.000000,4186.153846,4216.923076,4496.410256,4218.974358,4649.230769,4003.076923,4092.820512
129,4408.205128,4524.615384,4525.128205,4314.871794,4529.743589,4215.897435,4454.358974,4186.153846,4215.897435,4509.230769,4214.871794,4648.717948,4000.512820,4091.794871
130,4408.205128,4524.615384,4529.743589,4314.871794,4515.897435,4213.846153,4441.538461,4180.000000,4208.717948,4499.487179,4203.076923,4648.717948,3995.384616,4091.282051
131,4407.692307,4523.076923,4531.794871,4308.205128,4530.769230,4214.358974,4447.179487,4184.102564,4211.794871,4487.179487,4205.641025,4651.282051,3996.923077,4089.230769
132,4407.692307,4522.564102,4533.846153,4309.230769,4531.282051,4216.410256,4460.512820,4197.435897,4222.051282,4485.128205,4215.384615,4650.769230,4004.615384,4089.743589
133,4404.102564,4521.025641,4536.410256,4310.256410,4526.153846,4216.923076,4462.564102,4202.051282,4221.025641,4497.435897,4218.461538,4649.743589,4006.666666,4091.794871
134,4405.641025,4520.000000,4538.461538,4307.692307,4536.923076,4218.461538,4458.974358,4199.487179,4217.435897,4509.743589,4214.871794,4655.384615,4003.589743,4089.743589
135,4411.282051,4521.025641,4537.948717,4308.205128,4536.410256,4218.974358,4458.974358,4198.974358,4216.923076,4502.051282,4213.333333,4659.487179,3999.487180,4091.282051
136,4410.256410,4523.589743,4538.461538,4312.820512,4529.230769,4217.435897,4459.487179,4199.487179,4216.410256,4489.743589,4221.538461,4661.538461,4001.025641,4102.051282
137,4409.230769,4528.205128,4538.974358,4316.410256,4539.487179,4217.435897,4460.512820,4200.000000,4217.435897,4495.384615,4226.666666,4667.179487,4007.179487,4108.205128
138,4410.769230,4528.717948,4538.974358,4314.871794,4542.564102,4220.000000,4461.538461,4201.025641,4217.435897,4501.025641,4218.461538,4666.666666,3998.461539,4103.589743
139,4409.230769,4525.128205,4541.025641,4310.769230,4535.384615,4219.487179,4460.512820,4198.461538,4212.307692,4490.256410,4206.153846,4659.487179,3981.538462,4096.923076
140,4412.307692,4523.589743,4542.564102,4312.307692,4543.589743,4217.948717,4460.000000,4197.948717,4213.846153,4490.769230,4214.871794,4661.538461,3994.871795,4103.076923
141,4418.974358,4523.076923,4542.564102,4314.871794,4541.538461,4220.000000,4459.487179,4200.512820,4224.102564,4507.692307,4231.794871,4671.794871,4016.410256,4116.410256
142,4420.512820,4522.564102,4546.153846,4313.333333,4523.589743,4218.974358,4460.512820,4200.512820,4225.128205,4504.615384,4228.205128,4673.333333,4013.846153,4116.923076
143,4420.000000,4525.128205,4548.717948,4310.769230,4526.153846,4217.948717,4462.564102,4206.666666,4225.128205,4498.974358,4225.641025,4670.769230,4014.358974,4115.384615
144,4415.897435,4521.025641,4544.615384,4301.538461,4543.076923,4224.102564,4462.051282,4214.358974,4229.743589,4514.871794,4231.282051,4667.692307,4020.512820,4116.410256
145,4407.179487,4508.717948,4533.846153,4291.282051,4541.025641,4224.615384,4461.538461,4207.179487,4224.615384,4511.282051,4223.589743,4660.000000,4009.743589,4105.641025
146,4401.538461,4508.205128,4524.102564,4294.871794,4532.307692,4217.948717,4460.512820,4199.487179,4221.025641,4490.769230,4208.717948,4655.384615,3998.974359,4095.384615
147,4404.615384,4520.000000,4527.692307,4301.538461,4542.051282,4216.923076,4460.000000,4201.538461,4226.153846,4500.000000,4214.358974,4657.948717,4000.000000,4102.564102
148,4406.666666,4526.153846,4532.307692,4299.487179,4536.410256,4220.000000,4458.974358,4202.564102,4223.076923,4510.256410,4219.487179,4655.897435,3997.435898,4106.666666
149,4399.487179,4522.051282,4527.179487,4297.948717,4512.820512,4215.897435,4453.846153,4196.923076,4210.256410,4484.102564,4210.769230,4648.717948,3992.307693,4093.846153
150,4401.538461,4518.974358,4528.205128,4301.025641,4526.666666,4213.846153,4452.820512,4195.897435,4210.769230,4476.923076,4213.846153,4655.384615,4002.051282,4093.846153
151,4413.846153,4528.717948,4538.974358,4304.615384,4562.051282,4223.076923,4458.461538,4206.153846,4223.589743,4513.846153,4227.179487,4669.743589,4020.512820,4114.358974
152,4415.897435,4534.871794,4538.974358,4306.153846,4558.461538,4230.256410,4462.051282,4214.358974,4232.307692,4538.461538,4231.282051,4669.230769,4025.128205,4123.076923
153,4413.333333,4530.256410,4535.384615,4302.564102,4542.564102,4227.179487,4461.538461,4217.948717,4235.897435,4524.102564,4229.743589,4664.102564,4020.000000,4116.410256
154,4414.871794,4523.076923,4537.948717,4296.410256,4543.589743,4220.000000,4462.051282,4217.435897,4235.384615,4507.179487,4232.307692,4667.692307,4018.461538,4113.333333
155,4407.692307,4513.846153,4528.717948,4287.692307,4526.666666,4217.435897,4460.000000,4208.205128,4224.102564,4504.102564,4224.615384,4664.615384,4011.794871,4107.692307
156,4398.461538,4507.179487,4518.974358,4287.692307,4519.487179,4215.384615,4457.948717,4203.589743,4218.974358,4505.641025,4216.923076,4657.948717,4003.076923,4099.487179
157,4407.179487,4516.923076,4528.717948,4296.410256,4547.179487,4216.923076,4461.025641,4211.794871,4228.205128,4515.897435,4225.641025,4661.538461,4010.769230,4105.128205
158,4417.948717,4529.230769,4537.435897,4302.051282,4553.846153,4219.487179,4460.512820,4212.307692,4227.692307,4517.435897,4227.692307,4661.025641,4016.410256,4110.769230
159,4410.769230,4521.538461,4529.230769,4300.512820,4531.282051,4214.871794,4454.358974,4197.948717,4213.333333,4491.282051,4213.333333,4653.333333,4003.076923,4099.487179
160,4407.179487,4520.000000,4527.179487,4303.589743,4535.384615,4213.333333,4454.871794,4197.948717,4212.820512,4486.153846,4209.743589,4660.000000,4000.000000,4094.871794
161,4421.538461,4537.435897,4539.487179,4311.282051,4551.794871,4218.461538,4461.538461,4209.230769,4227.692307,4521.025641,4223.589743,4669.230769,4015.384615,4106.666666
162,4426.666666,4541.025641,4543.076923,4311.282051,4537.435897,4218.974358,4460.512820,4207.179487,4228.717948,4532.820512,4228.205128,4663.589743,4020.000000,4109.230769
163,4414.358974,4524.102564,4532.307692,4301.538461,4528.717948,4215.384615,4455.384615,4199.487179,4217.435897,4504.102564,4219.487179,4656.410256,4007.692307,4097.435897
164,4408.717948,4516.923076,4524.102564,4291.282051,4545.641025,4215.897435,4456.923076,4200.000000,4215.897435,4487.692307,4215.897435,4659.487179,4004.102564,4089.743589
165,4412.820512,4524.102564,4524.615384,4289.743589,4548.717948,4218.974358,4462.564102,4205.128205,4223.589743,4493.846153,4215.384615,4660.512820,4003.589743,4090.769230
166,4407.692307,4516.923076,4524.102564,4286.666666,4527.692307,4218.461538,4461.538461,4203.076923,4221.538461,4502.051282,4206.153846,4651.794871,3993.333334,4088.717948
167,4400.000000,4503.076923,4521.538461,4279.487179,4520.000000,4215.384615,4458.974358,4197.435897,4212.820512,4507.179487,4197.435897,4647.692307,3995.384616,4087.692307
168,4404.102564,4504.102564,4520.512820,4278.461538,4526.153846,4213.846153,4460.512820,4199.487179,4214.358974,4506.666666,4203.589743,4655.384615,4008.205128,4092.307692
169,4408.205128,4507.179487,4521.025641,4278.974358,4522.051282,4215.897435,4462.051282,4202.564102,4222.564102,4500.512820,4213.333333,4656.923076,4011.282051,4095.384615
170,4407.692307,4504.615384,4525.641025,4276.410256,4525.128205,4218.461538,4460.512820,4203.076923,4226.666666,4498.461538,4217.948717,4654.871794,4006.666666,4096.410256
171,4409.743589,4509.743589,4531.794871,4281.025641,4540.000000,4220.512820,4461.025641,4201.538461,4229.230769,4510.769230,4222.051282,4657.435897,4008.717948,4097.948717
172,4409.743589,4516.410256,4528.717948,4286.153846,4540.000000,4218.974358,4463.076923,4198.974358,4227.692307,4520.512820,4217.435897,4652.820512,4010.769230,4094.358974
173,4405.641025,4515.897435,4527.179487,4284.102564,4529.743589,4215.384615,4461.025641,4197.435897,4219.487179,4516.410256,4206.153846,4649.230769,4009.230769,4091.282051
174,4408.717948,4521.538461,4534.358974,4287.179487,4540.000000,4216.923076,4461.025641,4201.538461,4221.538461,4511.282051,4208.717948,4656.923076,4016.410256,4100.512820
175,4413.333333,4524.615384,4531.794871,4288.717948,4541.538461,4218.974358,4463.589743,4204.615384,4229.230769,4502.051282,4216.410256,4656.410256,4016.923076,4103.076923
176,4406.666666,4514.871794,4518.974358,4280.512820,4521.025641,4214.871794,4457.435897,4200.000000,4222.564102,4490.769230,4211.794871,4646.153846,4005.641025,4092.820512
177,4405.128205,4516.410256,4524.615384,4281.538461,4526.153846,4215.897435,4457.435897,4199.487179,4220.512820,4504.102564,4211.794871,4649.230769,4008.717948,4095.384615
178,4415.384615,4522.051282,4538.461538,4288.205128,4544.102564,4218.974358,4467.179487,4203.589743,4231.794871,4526.153846,4222.564102,4656.923076,4018.461538,4100.000000
179,4414.871794,4516.410256,4532.820512,4283.589743,4538.461538,4216.923076,4465.128205,4203.076923,4228.717948,4522.051282,4220.000000,4655.384615,4012.307692,4088.717948
180,4410.256410,4514.358974,4527.692307,4274.871794,4534.871794,4217.948717,4462.564102,4201.025641,4224.102564,4516.410256,4210.256410,4657.948717,4009.743589,4093.333333
181,4411.794871,4513.333333,4531.282051,4270.769230,4530.256410,4218.974358,4469.743589,4201.025641,4232.820512,4526.666666,4215.897435,4665.128205,4017.435897,4108.717948
182,4414.871794,4508.717948,4533.333333,4270.769230,4515.384615,4215.897435,4471.794871,4205.128205,4233.333333,4520.512820,4226.666666,4666.666666,4017.948717,4109.743589
183,4420.512820,4515.384615,4536.410256,4276.410256,4534.358974,4223.076923,4470.256410,4213.333333,4231.794871,4501.025641,4232.820512,4670.769230,4025.128205,4113.333333
184,4426.153846,4525.641025,4544.102564,4284.102564,4563.589743,4233.846153,4475.384615,4218.974358,4236.923076,4508.205128,4235.897435,4677.435897,4034.871794,4121.538461
185,4426.153846,4524.615384,4544.102564,4287.692307,4547.179487,4232.820512,4478.974358,4217.435897,4235.384615,4532.820512,4232.820512,4674.358974,4028.205128,4115.897435
186,4419.487179,4521.538461,4537.948717,4286.153846,4534.871794,4225.641025,4474.358974,4214.871794,4232.307692,4531.282051,4220.512820,4664.615384,4015.897435,4105.128205
187,4413.333333,4522.051282,4537.435897,4282.051282,4544.615384,4222.051282,4465.641025,4211.282051,4231.794871,4517.435897,4206.666666,4659.487179,4008.205128,4098.461538
188,4410.256410,4522.564102,4537.948717,4282.564102,4524.615384,4215.384615,4457.948717,4202.051282,4223.589743,4511.794871,4199.487179,4653.846153,4001.538461,4091.794871
189,4412.820512,4527.179487,4533.846153,4284.102564,4508.717948,4212.820512,4464.615384,4203.589743,4220.512820,4497.948717,4203.589743,4653.846153,4005.128205,4093.846153
190,4414.358974,4525.641025,4528.717948,4274.871794,4531.794871,4225.641025,4476.410256,4214.871794,4230.256410,4494.871794,4214.358974,4662.051282,4013.333333,4103.589743
191,4408.205128,4512.307692,4530.256410,4264.615384,4535.384615,4230.769230,4476.923076,4217.435897,4234.871794,4516.410256,4218.461538,4663.589743,4009.230769,4104.615384
192,4410.769230,4508.717948,4537.948717,4268.205128,4517.948717,4221.538461,4474.358974,4213.333333,4232.307692,4529.230769,4215.384615,4662.564102,4008.205128,4102.051282
193,4422.051282,4520.512820,4542.051282,4278.461538,4529.743589,4222.564102,4474.358974,4213.333333,4232.820512,4516.923076,4217.948717,4667.179487,4017.435897,4106.666666
194,4421.538461,4526.153846,4537.435897,4278.974358,4536.923076,4230.256410,4473.846153,4212.307692,4232.307692,4509.743589,4218.461538,4668.717948,4016.923076,4110.769230
195,4410.769230,4518.461538,4532.307692,4269.743589,4509.743589,4222.564102,4471.794871,4203.589743,4226.666666,4510.769230,4212.307692,4662.051282,4007.692307,4104.102564
196,4407.692307,4511.282051,4534.871794,4268.717948,4499.487179,4214.871794,4472.820512,4202.564102,4228.205128,4513.333333,4214.358974,4661.025641,4013.333333,4102.051282
197,4409.230769,4510.256410,4535.384615,4266.666666,4510.769230,4217.948717,4467.692307,4207.692307,4232.307692,4516.923076,4218.461538,4664.102564,4020.512820,4105.128205
198,4410.256410,4514.871794,4532.307692,4261.538461,4516.410256,4218.461538,4460.512820,4209.743589,4231.794871,4522.564102,4217.948717,4664.102564,4016.923076,4106.153846
199,4417.948717,4525.128205,4534.871794,4268.717948,4523.589743,4220.000000,4460.512820,4211.794871,4236.923076,4530.769230,4220.512820,4667.179487,4021.538461,4110.256410
200,4417.948717,4523.589743,4534.871794,4273.846153,4520.512820,4221.025641,4462.051282,4208.717948,4237.948717,4528.717948,4222.051282,4668.205128,4025.641025,4111.282051
201,4407.179487,4510.256410,4523.076923,4266.666666,4508.205128,4215.384615,4458.974358,4198.461538,4224.102564,4513.846153,4213.846153,4658.974358,4014.358974,4103.076923
202,4400.000000,4505.641025,4518.461538,4259.487179,4507.692307,4215.384615,4453.333333,4190.256410,4216.923076,4501.025641,4203.589743,4648.717948,4002.564102,4095.897435
203,4398.974358,4511.794871,4523.076923,4261.025641,4504.102564,4214.358974,4448.205128,4189.230769,4216.923076,4491.794871,4197.948717,4646.153846,3998.974359,4093.846153
204,4399.487179,4513.846153,4521.025641,4264.102564,4491.282051,4204.102564,4445.128205,4186.153846,4207.179487,4491.282051,4197.948717,4645.128205,3996.410257,4091.794871
205,4397.948717,4508.205128,4518.974358,4262.564102,4494.358974,4202.564102,4444.102564,4184.102564,4203.076923,4501.025641,4200.000000,4643.076923,3992.820513,4088.717948
206,4395.384615,4504.615384,4519.487179,4254.871794,4503.589743,4212.820512,4449.743589,4190.769230,4212.820512,4502.051282,4192.307692,4641.538461,3990.769231,4085.128205
207,4402.051282,4510.769230,4522.564102,4256.410256,4507.692307,4219.487179,4458.461538,4202.564102,4223.076923,4502.051282,4190.769230,4648.205128,3997.948718,4093.333333
208,4417.435897,4518.461538,4532.820512,4269.230769,4508.717948,4218.461538,4462.051282,4209.230769,4230.769230,4515.897435,4208.205128,4663.076923,4014.871794,4113.333333
209,4424.102564,4518.974358,4543.076923,4270.769230,4500.000000,4217.948717,4460.000000,4209.743589,4235.384615,4518.974358,4221.025641,4670.256410,4022.564102,4122.051282
210,4424.102564,4519.487179,4544.102564,4269.743589,4492.307692,4216.923076,4460.000000,4209.743589,4236.410256,4510.256410,4217.435897,4669.230769,4020.512820,4118.974358
211,4429.230769,4526.666666,4541.025641,4277.948717,4498.974358,4216.923076,4460.512820,4209.230769,4232.820512,4518.461538,4216.410256,4669.743589,4018.461538,4113.333333
212,4427.179487,4528.205128,4538.461538,4282.564102,4512.820512,4217.948717,4460.512820,4202.564102,4225.128205,4528.205128,4219.487179,4668.205128,4016.410256,4114.358974
213,4415.384615,4524.615384,4534.871794,4273.333333,4520.000000,4217.435897,4460.512820,4191.794871,4217.435897,4518.461538,4212.307692,4658.461538,4014.358974,4116.923076
214,4410.769230,4521.025641,4530.256410,4266.153846,4508.717948,4215.384615,4456.410256,4180.512820,4207.692307,4494.871794,4198.974358,4647.692307,4010.769230,4107.692307
215,4412.820512,4521.025641,4525.641025,4271.282051,4494.871794,4213.333333,4453.333333,4175.384615,4201.025641,4482.564102,4194.871794,4644.102564,4003.076923,4099.487179
216,4413.333333,4527.692307,4523.589743,4273.333333,4502.564102,4214.358974,4455.897435,4178.974358,4207.692307,4496.923076,4198.974358,4644.615384,4000.512820,4100.000000
217,4413.333333,4536.410256,4523.589743,4267.179487,4514.871794,4216.923076,4457.435897,4186.666666,4218.461538,4511.282051,4200.512820,4648.205128,4006.153846,4099.487179
218,4418.461538,4533.333333,4524.102564,4265.641025,4520.512820,4218.974358,4457.435897,4188.717948,4223.589743,4509.230769,4203.589743,4654.871794,4014.871794,4100.000000
219,4423.076923,4525.128205,4526.666666,4269.230769,4522.564102,4220.512820,4462.564102,4189.230769,4225.128205,4512.820512,4209.230769,4658.974358,4017.435897,4111.282051
220,4416.410256,4520.000000,4524.615384,4264.102564,4502.564102,4212.307692,4456.410256,4185.641025,4220.512820,4513.846153,4204.615384,4651.794871,4010.769230,4113.333333
221,4408.205128,4516.923076,4523.076923,4257.948717,4487.692307,4206.153846,4444.102564,4182.051282,4213.846153,4503.589743,4200.512820,4646.666666,4009.230769,4104.615384
222,4413.846153,4523.076923,4529.230769,4265.641025,4510.769230,4214.358974,4452.307692,4189.743589,4219.487179,4506.153846,4211.282051,4657.948717,4023.589743,4110.256410
223,4421.538461,4534.871794,4530.256410,4275.384615,4528.717948,4221.538461,4461.538461,4197.948717,4226.666666,4521.538461,4219.487179,4666.153846,4031.282051,4121.025641
224,4413.846153,4531.282051,4524.102564,4272.820512,4514.871794,4215.897435,4451.282051,4192.307692,4224.615384,4522.564102,4209.743589,4655.384615,4016.923076,4112.820512
225,4401.025641,4521.538461,4516.923076,4268.717948,4508.717948,4213.333333,4447.179487,4186.153846,4216.410256,4510.256410,4194.358974,4639.487179,3995.384616,4092.820512
226,4395.384615,4520.000000,4509.743589,4271.794871,4507.692307,4210.769230,4449.743589,4181.025641,4201.538461,4497.435897,4180.000000,4628.717948,3985.641026,4083.076923
227,4402.564102,4523.076923,4512.307692,4277.948717,4490.256410,4203.589743,4444.102564,4172.820512,4194.871794,4486.666666,4181.538461,4632.820512,3994.871795,4087.692307
228,4417.948717,4530.769230,4526.153846,4289.743589,4495.384615,4208.717948,4448.205128,4182.051282,4208.717948,4482.564102,4203.076923,4648.717948,4011.282051,4101.025641
229,4423.076923,4536.410256,4529.230769,4302.051282,4521.025641,4218.974358,4460.000000,4198.461538,4224.615384,4496.923076,4219.487179,4655.384615,4018.461538,4105.641025
230,4417.435897,4528.717948,4522.051282,4305.641025,4520.512820,4217.948717,4461.538461,4194.358974,4222.564102,4520.512820,4215.384615,4652.307692,4013.333333,4100.512820
231,4412.820512,4520.000000,4525.641025,4306.666666,4502.051282,4213.333333,4453.333333,4183.589743,4214.871794,4521.538461,4214.358974,4653.333333,4007.692307,4096.410256
232,4413.846153,4522.564102,4530.256410,4311.282051,4502.051282,4214.358974,4446.666666,4183.589743,4215.384615,4507.692307,4220.000000,4657.435897,4009.230769,4097.948717
233,4419.487179,4528.717948,4528.205128,4316.923076,4506.666666,4216.410256,4451.794871,4187.179487,4215.897435,4505.641025,4216.410256,4658.461538,4015.384615,4101.025641
234,4428.717948,4534.358974,4534.871794,4326.153846,4506.666666,4217.948717,4459.487179,4197.948717,4218.461538,4504.615384,4217.435897,4664.102564,4018.461538,4103.589743
235,4427.179487,4533.846153,4537.948717,4326.666666,4507.692307,4220.512820,4459.487179,4207.179487,4222.564102,4498.974358,4224.615384,4668.717948,4015.897435,4106.153846
236,4413.333333,4520.000000,4526.153846,4313.846153,4500.512820,4218.974358,4457.435897,4202.051282,4219.487179,4501.538461,4218.461538,4662.564102,4009.230769,4101.538461
237,4409.230769,4508.717948,4522.564102,4308.205128,4501.025641,4216.923076,4459.487179,4195.384615,4215.384615,4507.692307,4212.307692,4655.897435,4002.564102,4093.333333
238,4412.307692,4512.820512,4529.743589,4312.307692,4510.769230,4218.974358,4457.948717,4194.871794,4215.897435,4509.743589,4215.384615,4658.461538,4001.538461,4093.333333
239,4412.820512,4522.564102,4530.256410,4315.897435,4505.641025,4220.000000,4458.461538,4195.897435,4214.358974,4509.743589,4217.435897,4664.102564,4005.641025,4098.974358
240,4415.384615,4526.666666,4530.769230,4321.538461,4503.076923,4218.461538,4460.512820,4197.435897,4216.410256,4511.282051,4216.410256,4665.128205,4008.205128,4100.512820
241,4414.871794,4523.589743,4536.410256,4326.153846,4522.564102,4222.564102,4460.000000,4198.461538,4223.589743,4507.692307,4216.410256,4662.051282,4008.205128,4100.000000
242,4413.333333,4523.076923,4536.923076,4321.538461,4524.102564,4228.205128,4466.153846,4200.512820,4224.102564,4492.307692,4217.435897,4664.615384,4006.666666,4103.589743
243,4420.512820,4523.589743,4538.974358,4316.923076,4504.615384,4229.230769,4473.333333,4205.641025,4226.666666,4487.179487,4219.487179,4671.282051,4004.102564,4105.128205
244,4423.589743,4522.051282,4541.025641,4316.410256,4512.307692,4227.179487,4475.384615,4208.717948,4228.717948,4513.333333,4218.974358,4669.743589,3999.487180,4100.000000
245,4416.410256,4521.025641,4538.461538,4312.307692,4517.435897,4223.076923,4471.794871,4206.153846,4224.102564,4535.384615,4216.410256,4669.230769,4000.512820,4098.461538
246,4416.923076,4518.974358,4540.512820,4308.205128,4491.794871,4217.948717,4464.102564,4202.051282,4222.051282,4520.512820,4217.948717,4670.769230,4005.128205,4102.051282
247,4421.025641,4518.461538,4542.564102,4308.205128,4488.717948,4216.923076,4458.974358,4202.051282,4223.076923,4505.128205,4219.487179,4668.717948,4007.179487,4104.615384
248,4419.487179,4521.538461,4541.025641,4312.307692,4511.282051,4217.948717,4460.000000,4211.282051,4227.692307,4509.230769,4220.512820,4668.205128,4008.717948,4104.102564
249,4414.871794,4522.564102,4540.000000,4313.333333,4510.769230,4216.923076,4462.051282,4216.410256,4230.256410,4506.666666,4222.051282,4669.230769,4007.179487,4102.051282
250,4410.256410,4514.358974,4536.923076,4307.179487,4506.153846,4216.923076,4460.000000,4207.692307,4224.615384,4503.076923,4222.564102,4666.153846,4003.589743,4096.923076
251,4405.641025,4507.179487,4528.205128,4302.564102,4509.230769,4215.897435,4458.974358,4198.974358,4215.384615,4511.282051,4219.487179,4661.025641,4002.564102,4090.769230
252,4402.564102,4504.615384,4526.666666,4303.076923,4494.358974,4215.384615,4458.974358,4195.897435,4210.256410,4508.205128,4211.794871,4655.897435,3998.461539,4087.692307
253,4402.564102,4506.666666,4534.871794,4304.615384,4490.769230,4216.923076,4458.974358,4195.384615,4209.743589,4494.871794,4209.743589,4657.948717,3991.794872,4086.153846
254,4408.205128,4516.923076,4537.435897,4307.692307,4517.435897,4216.923076,4458.974358,4197.435897,4211.282051,4500.512820,4215.384615,4667.179487,3993.846154,4094.871794
255,4416.410256,4525.641025,4535.897435,4313.846153,4529.230769,4218.461538,4460.000000,4201.025641,4218.461538,4515.384615,4216.923076,4670.256410,4003.589743,4108.205128
256,4422.564102,4524.615384,4538.974358,4313.333333,4512.820512,4221.025641,4461.025641,4204.102564,4226.153846,4509.743589,4220.512820,4669.230769,4008.205128,4108.717948
257,4426.666666,4523.589743,4541.025641,4308.205128,4497.435897,4220.000000,4460.000000,4206.666666,4228.205128,4503.589743,4227.179487,4675.897435,4009.743589,4107.179487
258,4424.102564,4526.153846,4538.974358,4308.205128,4495.897435,4218.461538,4458.461538,4204.102564,4225.641025,4510.769230,4225.641025,4676.923076,4014.358974,4111.282051
259,4416.923076,4524.615384,4538.461538,4304.615384,4502.051282,4216.410256,4458.461538,4199.487179,4224.102564,4510.256410,4217.435897,4671.282051,4012.307692,4104.615384
