,AF3,F7,F3,FC5,T7,P7,O1,O2,P8,T8,FC6,F4,F8,AF4
0,4458.461538,4497.435897,4529.743589,4230.769230,4490.256410,4182.564102,4427.179487,4210.769230,4241.538461,4501.538461,4181.025641,4633.333333,3996.410257,4130.256410
1,4462.051282,4512.820512,4531.282051,4236.923076,4491.282051,4190.256410,4437.435897,4215.384615,4241.538461,4502.564102,4186.666666,4633.846153,4006.153846,4135.897435
2,4461.025641,4509.743589,4527.692307,4244.102564,4490.256410,4196.923076,4440.000000,4208.717948,4232.820512,4504.102564,4180.512820,4626.666666,3997.948718,4132.307692
3,4455.897435,4493.333333,4517.435897,4236.923076,4487.692307,4187.692307,4430.769230,4193.333333,4218.461538,4486.153846,4167.179487,4616.923076,3974.358975,4121.025641
4,4457.435897,4490.769230,4514.871794,4231.794871,4488.717948,4186.666666,4428.717948,4188.717948,4214.871794,4469.743589,4165.128205,4616.410256,3968.205129,4116.410256
5,4458.974358,4497.435897,4519.487179,4235.897435,4490.769230,4196.923076,4435.897435,4195.384615,4220.000000,4473.846153,4166.666666,4621.025641,3975.897436,4119.487179
6,4463.076923,4500.512820,4521.025641,4234.358974,4488.717948,4193.333333,4433.333333,4200.512820,4223.076923,4478.461538,4161.025641,4620.000000,3977.948718,4121.538461
7,4471.282051,4502.051282,4523.076923,4235.384615,4488.717948,4187.692307,4426.153846,4203.589743,4224.615384,4476.923076,4165.128205,4623.076923,3977.948718,4123.076923
8,4476.923076,4507.179487,4528.717948,4245.641025,4488.717948,4196.410256,4430.256410,4205.641025,4231.794871,4485.641025,4180.000000,4632.820512,3985.641026,4131.794871
9,4484.102564,4514.871794,4532.307692,4250.769230,4494.358974,4202.564102,4438.461538,4208.717948,4243.076923,4495.897435,4183.589743,4638.461538,3996.923077,4140.000000
10,4493.333333,4516.923076,4534.871794,4248.205128,4504.102564,4200.000000,4442.564102,4211.794871,4244.102564,4486.153846,4178.974358,4635.897435,3995.384616,4138.974358
11,4490.769230,4513.333333,4532.307692,4248.717948,4504.102564,4201.538461,4440.512820,4206.666666,4234.871794,4474.358974,4177.435897,4631.794871,3981.538462,4135.897435
12,4480.000000,4514.358974,4526.666666,4253.333333,4502.051282,4200.512820,4440.000000,4202.051282,4230.769230,4483.589743,4173.333333,4629.230769,3981.538462,4135.897435
13,4472.820512,4515.897435,4529.743589,4255.384615,4502.051282,4198.461538,4443.589743,4214.871794,4237.435897,4495.384615,4175.384615,4632.307692,3995.384616,4140.000000
14,4466.666666,4510.769230,4533.333333,4250.256410,4502.564102,4201.538461,4443.589743,4222.564102,4245.128205,4498.974358,4190.256410,4637.435897,3994.871795,4140.000000
15,4458.461538,4511.282051,4533.333333,4244.615384,4503.589743,4200.000000,4442.564102,4214.871794,4248.717948,4504.102564,4197.435897,4638.974358,3988.205129,4136.410256
16,4449.230769,4516.410256,4536.410256,4247.179487,4498.461538,4189.230769,4442.051282,4211.794871,4245.128205,4499.487179,4185.128205,4637.435897,3992.307693,4137.948717
17,4438.974358,4507.179487,4536.923076,4250.256410,4490.256410,4187.692307,4440.512820,4207.692307,4237.948717,4484.102564,4174.358974,4636.923076,3996.923077,4141.025641
18,4431.282051,4504.615384,4531.794871,4245.128205,4496.410256,4196.410256,4443.076923,4201.025641,4233.846153,4479.487179,4178.974358,4632.307692,3995.384616,4136.923076
19,4419.487179,4509.743589,4524.615384,4237.435897,4504.102564,4194.358974,4439.487179,4200.000000,4225.128205,4480.000000,4179.487179,4624.102564,3984.102565,4126.666666
20,4397.435897,4495.384615,4517.948717,4236.410256,4487.692307,4183.076923,4428.205128,4195.384615,4216.923076,4471.794871,4164.615384,4617.435897,3973.333334,4119.487179
21,4385.641025,4488.205128,4518.461538,4243.076923,4473.846153,4182.564102,4426.666666,4193.846153,4224.102564,4470.769230,4165.641025,4622.051282,3981.025642,4125.128205
22,4397.948717,4505.641025,4525.128205,4247.692307,4481.538461,4190.256410,4429.743589,4203.589743,4236.923076,4479.487179,4184.615384,4631.282051,3995.384616,4134.358974
23,4409.230769,4517.948717,4530.769230,4245.641025,4490.769230,4195.897435,4429.230769,4215.897435,4245.128205,4487.179487,4197.435897,4637.948717,3998.974359,4137.948717
24,4408.717948,4516.923076,4534.871794,4250.769230,4491.282051,4201.025641,4438.461538,4221.538461,4251.282051,4494.871794,4205.641025,4643.589743,3995.384616,4140.512820
25,4409.230769,4517.435897,4536.410256,4260.512820,4491.794871,4201.538461,4446.153846,4218.974358,4251.282051,4494.871794,4200.000000,4644.102564,3994.358975,4143.076923
26,4409.743589,4513.333333,4529.230769,4254.871794,4493.333333,4197.948717,4440.512820,4215.897435,4243.589743,4484.615384,4183.076923,4635.897435,3995.897436,4140.512820
27,4405.641025,4508.717948,4525.128205,4243.076923,4490.769230,4199.487179,4439.487179,4215.384615,4241.025641,4481.025641,4181.538461,4631.282051,3997.948718,4136.923076
28,4404.615384,4515.384615,4531.794871,4249.743589,4490.769230,4206.153846,4449.230769,4218.461538,4248.205128,4491.282051,4194.871794,4637.948717,3994.871795,4136.923076
29,4401.538461,4515.897435,4532.307692,4258.974358,4493.846153,4209.743589,4449.743589,4217.948717,4247.692307,4490.769230,4191.282051,4641.025641,3989.743590,4133.846153
30,4394.358974,4504.615384,4520.512820,4248.717948,4492.307692,4201.538461,4437.435897,4208.205128,4235.384615,4474.871794,4178.461538,4634.358974,3984.102565,4127.692307
31,4394.358974,4502.564102,4512.820512,4242.051282,4485.641025,4187.179487,4426.666666,4200.000000,4226.153846,4466.153846,4180.000000,4628.717948,3977.948718,4124.102564
32,4398.461538,4508.205128,4515.384615,4247.692307,4480.000000,4186.153846,4425.641025,4200.000000,4226.153846,4468.717948,4180.512820,4627.179487,3971.794872,4124.102564
33,4395.384615,4506.666666,4516.410256,4248.717948,4484.102564,4192.820512,4428.205128,4200.000000,4227.179487,4469.743589,4167.692307,4624.102564,3967.179488,4121.538461
34,4392.307692,4504.615384,4516.410256,4246.666666,4487.692307,4190.769230,4427.179487,4198.461538,4226.666666,4472.307692,4164.102564,4622.564102,3971.794872,4121.025641
35,4399.487179,4507.692307,4519.487179,4248.205128,4489.743589,4191.794871,4427.692307,4202.051282,4229.743589,4482.051282,4182.564102,4632.307692,3984.102565,4131.794871
36,4408.717948,4509.230769,4520.512820,4248.205128,4493.846153,4197.435897,4429.230769,4200.000000,4231.282051,4481.538461,4190.769230,4637.435897,3983.589744,4134.358974
37,4411.794871,4506.153846,4520.000000,4251.282051,4487.692307,4195.897435,4429.230769,4201.025641,4231.794871,4473.333333,4185.128205,4634.358974,3975.384616,4125.641025
38,4409.743589,4506.666666,4521.025641,4256.410256,4472.820512,4195.384615,4429.743589,4209.743589,4235.384615,4477.948717,4190.256410,4639.487179,3983.076924,4129.230769
39,4413.846153,4507.692307,4525.128205,4252.307692,4473.333333,4200.000000,4430.256410,4209.743589,4239.487179,4484.102564,4194.358974,4648.205128,3997.435898,4141.025641
40,4425.128205,4511.282051,4529.230769,4250.769230,4487.179487,4197.435897,4430.256410,4207.692307,4238.974358,4482.564102,4191.794871,4649.743589,3997.435898,4140.000000
41,4430.256410,4514.358974,4529.230769,4260.512820,4487.692307,4196.410256,4434.358974,4213.333333,4240.512820,4480.512820,4196.923076,4649.230769,3985.641026,4134.871794
42,4434.358974,4514.871794,4527.692307,4266.153846,4484.102564,4202.564102,4442.564102,4222.564102,4245.641025,4484.615384,4203.589743,4650.769230,3981.025642,4138.461538
43,4448.717948,4518.974358,4528.717948,4262.564102,4487.179487,4201.025641,4445.641025,4227.692307,4247.692307,4486.666666,4200.000000,4650.769230,3986.153847,4138.461538
44,4460.512820,4522.051282,4526.153846,4260.512820,4486.666666,4199.487179,4443.076923,4224.615384,4245.641025,4482.564102,4196.923076,4649.743589,3987.179488,4130.769230
45,4460.512820,4518.461538,4518.974358,4261.538461,4482.564102,4199.487179,4442.564102,4215.897435,4243.076923,4475.897435,4198.461538,4646.153846,3981.025642,4129.230769
46,4469.743589,4516.410256,4517.948717,4262.564102,4485.641025,4198.461538,4442.564102,4212.307692,4241.538461,4472.820512,4194.871794,4642.051282,3977.948718,4131.282051
47,4488.205128,4521.025641,4520.512820,4265.128205,4491.282051,4200.512820,4442.564102,4216.410256,4245.641025,4479.487179,4187.692307,4642.564102,3985.128206,4131.282051
48,4497.435897,4524.615384,4520.000000,4266.666666,4491.794871,4203.076923,4443.589743,4217.435897,4248.717948,4486.153846,4188.205128,4642.051282,3994.871795,4133.846153
49,4493.846153,4520.512820,4517.948717,4264.102564,4492.820512,4202.051282,4442.564102,4209.743589,4242.564102,4485.128205,4201.025641,4641.538461,3988.717949,4133.846153
50,4495.897435,4515.384615,4516.923076,4260.000000,4491.282051,4198.461538,4440.512820,4204.615384,4237.948717,4482.051282,4208.205128,4646.666666,3973.333334,4129.743589
51,4508.717948,4520.512820,4522.564102,4262.564102,4488.205128,4200.512820,4444.615384,4210.769230,4242.051282,4480.512820,4204.102564,4654.871794,3983.076924,4131.282051
52,4506.153846,4525.128205,4525.641025,4264.615384,4488.717948,4198.974358,4444.102564,4210.769230,4240.000000,4477.435897,4194.871794,4653.333333,3997.948718,4131.282051
53,4490.256410,4513.846153,4516.410256,4260.000000,4490.256410,4191.282051,4433.846153,4201.025641,4229.230769,4470.256410,4190.256410,4642.564102,3982.051283,4123.076923
54,4485.641025,4501.538461,4504.102564,4253.846153,4485.128205,4184.102564,4427.179487,4199.487179,4224.102564,4462.564102,4184.615384,4632.820512,3963.076924,4115.384615
55,4484.102564,4503.076923,4497.435897,4252.820512,4479.487179,4182.564102,4425.641025,4198.974358,4226.153846,4455.384615,4174.871794,4624.615384,3962.564103,4108.717948
56,4475.897435,4512.820512,4499.487179,4259.487179,4482.051282,4190.769230,4431.282051,4200.512820,4229.230769,4460.000000,4175.897435,4624.615384,3964.615385,4109.743589
57,4475.897435,4518.461538,4507.179487,4266.153846,4487.692307,4202.051282,4443.589743,4212.820512,4235.384615,4473.333333,4188.717948,4632.820512,3970.769231,4120.512820
58,4477.435897,4514.358974,4508.205128,4263.589743,4490.256410,4204.615384,4447.179487,4218.461538,4238.461538,4476.410256,4191.794871,4634.358974,3977.435898,4122.051282
59,4467.692307,4506.666666,4500.512820,4257.948717,4487.692307,4200.000000,4445.641025,4214.358974,4237.435897,4470.769230,4184.615384,4626.666666,3971.282052,4112.307692
60,4460.000000,4508.205128,4496.923076,4255.384615,4486.153846,4203.076923,4448.717948,4214.871794,4236.410256,4466.666666,4180.512820,4623.076923,3967.179488,4110.256410
61,4453.333333,4509.743589,4499.487179,4248.717948,4488.205128,4203.589743,4448.205128,4214.358974,4231.282051,4461.538461,4169.743589,4622.564102,3972.307693,4110.256410
62,4450.256410,4510.256410,4502.564102,4247.692307,4493.333333,4201.025641,4449.230769,4213.846153,4233.846153,4464.102564,4167.179487,4622.564102,3974.358975,4109.743589
63,4450.256410,4518.974358,4505.128205,4260.000000,4493.333333,4209.743589,4457.948717,4216.923076,4240.512820,4470.769230,4185.128205,4624.615384,3968.717949,4113.846153
64,4430.769230,4520.000000,4504.102564,4266.153846,4486.153846,4213.846153,4457.435897,4218.461538,4238.974358,4468.717948,4195.897435,4622.051282,3966.666667,4116.410256
65,4406.153846,4513.333333,4500.000000,4260.000000,4486.153846,4207.179487,4451.794871,4216.410256,4236.923076,4467.179487,4190.769230,4617.948717,3977.948718,4115.384615
66,4394.358974,4508.205128,4491.282051,4248.717948,4485.128205,4197.948717,4441.025641,4206.153846,4229.743589,4464.102564,4175.384615,4610.769230,3973.333334,4103.589743
67,4381.025641,4504.102564,4483.076923,4241.538461,4476.410256,4187.692307,4428.205128,4192.820512,4216.410256,4454.871794,4166.153846,4600.000000,3951.282052,4088.205128
68,4376.923076,4507.179487,4489.743589,4250.256410,4471.282051,4186.666666,4432.820512,4199.487179,4219.487179,4457.435897,4175.384615,4605.128205,3958.461539,4096.923076
69,4395.384615,4515.897435,4502.051282,4262.564102,4475.384615,4198.461538,4446.666666,4215.897435,4235.897435,4469.230769,4186.666666,4623.589743,3983.589744,4117.948717
70,4397.948717,4513.333333,4500.512820,4257.435897,4477.948717,4202.564102,4445.128205,4217.435897,4238.461538,4470.769230,4185.641025,4624.615384,3980.512821,4116.923076
71,4386.666666,4504.615384,4495.897435,4247.179487,4475.384615,4196.410256,4441.538461,4213.846153,4237.435897,4469.230769,4191.282051,4617.435897,3967.179488,4105.641025
72,4393.333333,4508.717948,4500.000000,4246.666666,4476.410256,4198.974358,4447.179487,4220.000000,4243.589743,4477.948717,4203.076923,4621.025641,3971.794872,4109.230769
73,4400.512820,4511.794871,4500.000000,4253.333333,4477.435897,4204.102564,4448.205128,4222.564102,4245.641025,4478.461538,4195.897435,4621.538461,3974.871795,4110.769230
74,4396.410256,4508.717948,4494.358974,4257.435897,4475.384615,4198.974358,4444.102564,4214.871794,4243.589743,4470.769230,4187.179487,4616.923076,3969.230770,4105.641025
75,4403.076923,4508.205128,4494.358974,4257.435897,4474.871794,4196.923076,4442.051282,4215.384615,4240.000000,4475.384615,4186.153846,4618.974358,3969.230770,4103.589743
76,4412.820512,4506.666666,4493.846153,4254.358974,4476.410256,4201.025641,4443.076923,4218.461538,4235.897435,4478.974358,4177.435897,4618.974358,3969.743590,4101.025641
77,4409.743589,4505.641025,4486.153846,4250.769230,4473.846153,4196.410256,4442.051282,4206.666666,4234.871794,4467.179487,4166.666666,4607.692307,3961.025642,4096.923076
78,4414.358974,4510.256410,4483.076923,4250.256410,4469.230769,4191.282051,4438.974358,4199.487179,4232.820512,4457.435897,4174.871794,4598.974358,3956.410257,4092.307692
79,4427.692307,4507.179487,4489.230769,4255.384615,4472.307692,4197.435897,4442.051282,4209.230769,4231.794871,4462.564102,4187.179487,4605.128205,3963.076924,4091.282051
80,4429.230769,4493.846153,4486.666666,4255.384615,4475.897435,4194.871794,4444.615384,4208.717948,4232.307692,4463.076923,4176.923076,4608.717948,3963.589744,4090.256410
81,4430.256410,4492.820512,4482.564102,4246.666666,4474.358974,4188.205128,4440.000000,4201.538461,4230.769230,4462.564102,4171.282051,4604.102564,3956.410257,4086.666666
82,4449.743589,4507.179487,4491.794871,4246.666666,4473.846153,4196.410256,4441.025641,4210.256410,4234.358974,4468.205128,4183.076923,4610.769230,3958.974359,4087.692307
83,4464.615384,4511.282051,4500.000000,4253.846153,4474.871794,4204.102564,4448.717948,4219.487179,4237.435897,4464.615384,4187.179487,4622.564102,3966.666667,4095.384615
84,4464.615384,4506.153846,4499.487179,4251.282051,4482.564102,4200.512820,4447.692307,4212.820512,4233.333333,4462.564102,4181.538461,4622.564102,3970.769231,4103.076923
85,4467.692307,4508.205128,4497.948717,4248.717948,4488.205128,4197.435897,4441.538461,4202.564102,4230.769230,4469.743589,4181.538461,4618.974358,3969.743590,4103.589743
86,4466.153846,4506.153846,4492.820512,4247.692307,4484.102564,4194.871794,4441.538461,4200.000000,4229.230769,4469.230769,4180.000000,4618.461538,3961.538462,4094.358974
87,4460.512820,4501.025641,4493.333333,4239.487179,4481.538461,4194.358974,4442.051282,4204.615384,4228.717948,4464.102564,4172.307692,4618.461538,3955.897436,4087.179487
88,4459.487179,4507.692307,4505.641025,4236.923076,4486.666666,4200.512820,4441.538461,4212.307692,4232.820512,4468.717948,4172.307692,4622.564102,3966.153847,4098.974358
89,4449.230769,4510.256410,4507.692307,4235.897435,4488.205128,4201.025641,4444.615384,4213.846153,4234.871794,4471.794871,4171.794871,4625.128205,3976.923077,4105.641025
90,4426.666666,4495.384615,4500.512820,4222.564102,4488.717948,4197.948717,4445.128205,4213.333333,4230.769230,4469.743589,4159.487179,4622.051282,3975.897436,4093.846153
91,4424.102564,4494.358974,4507.692307,4217.948717,4493.846153,4199.487179,4441.538461,4215.897435,4235.384615,4477.948717,4157.948717,4623.589743,3971.282052,4091.794871
92,4432.820512,4506.666666,4517.435897,4229.230769,4486.666666,4200.512820,4444.615384,4217.435897,4248.205128,4482.564102,4175.384615,4630.769230,3969.743590,4104.102564
93,4425.641025,4503.076923,4515.384615,4232.820512,4479.487179,4200.512820,4448.717948,4221.025641,4252.820512,4478.461538,4180.000000,4633.333333,3975.897436,4109.743589
94,4422.564102,4496.410256,4515.897435,4227.692307,4486.666666,4201.538461,4446.666666,4224.615384,4246.153846,4480.512820,4166.153846,4633.333333,3985.128206,4109.743589
95,4428.717948,4502.051282,4525.641025,4231.282051,4491.282051,4201.025641,4448.717948,4221.538461,4244.102564,4487.692307,4168.205128,4638.461538,3987.692308,4114.358974
96,4421.538461,4513.333333,4532.820512,4234.358974,4494.358974,4204.615384,4457.435897,4220.512820,4250.256410,4489.743589,4181.538461,4643.589743,3991.794872,4120.000000
97,4405.128205,4516.923076,4531.282051,4231.794871,4499.487179,4211.282051,4458.974358,4226.666666,4249.743589,4488.205128,4180.512820,4646.666666,3999.487180,4120.000000
98,4390.769230,4512.307692,4530.769230,4234.871794,4496.923076,4208.205128,4450.256410,4224.615384,4242.564102,4489.743589,4173.846153,4646.153846,3991.282052,4113.333333
99,4369.743589,4501.538461,4525.128205,4232.307692,4487.692307,4199.487179,4443.076923,4215.384615,4238.461538,4488.205128,4169.743589,4638.461538,3972.820513,4104.102564
100,4352.307692,4498.974358,4516.923076,4220.512820,4488.205128,4195.384615,4442.564102,4212.820512,4235.384615,4480.512820,4166.153846,4632.820512,3968.205129,4103.589743
101,4354.358974,4506.153846,4521.025641,4220.000000,4491.794871,4201.538461,4445.128205,4216.923076,4236.410256,4475.384615,4173.333333,4638.974358,3972.820513,4105.641025
102,4360.000000,4508.717948,4532.820512,4231.794871,4491.282051,4212.307692,4452.307692,4222.051282,4247.692307,4482.564102,4186.666666,4646.153846,3980.512821,4104.615384
103,4361.025641,4505.128205,4532.820512,4235.384615,4491.794871,4208.717948,4458.461538,4223.589743,4252.307692,4491.794871,4185.128205,4644.615384,3988.717949,4107.179487
104,4367.692307,4504.102564,4529.230769,4231.794871,4489.230769,4203.589743,4455.897435,4218.974358,4247.179487,4491.794871,4174.871794,4646.153846,3991.282052,4111.282051
105,4379.487179,4508.717948,4537.948717,4234.358974,4490.769230,4208.717948,4452.307692,4216.923076,4247.179487,4490.256410,4178.461538,4653.846153,3992.307693,4113.333333
106,4389.743589,4510.769230,4541.538461,4233.846153,4493.846153,4206.666666,4447.179487,4217.435897,4247.692307,4483.076923,4185.641025,4655.897435,3992.307693,4109.230769
107,4393.846153,4512.820512,4538.461538,4230.769230,4490.256410,4203.076923,4442.564102,4214.871794,4242.564102,4477.948717,4184.102564,4653.846153,3986.666667,4110.769230
108,4397.435897,4519.487179,4543.589743,4235.897435,4491.794871,4209.743589,4451.794871,4217.948717,4248.205128,4489.743589,4186.153846,4655.384615,3988.205129,4118.974358
109,4397.948717,4515.897435,4544.102564,4237.435897,4495.384615,4208.205128,4455.897435,4224.615384,4253.846153,4498.974358,4187.179487,4655.384615,3994.871795,4114.358974
110,4388.717948,4503.076923,4535.897435,4228.717948,4489.743589,4196.410256,4444.102564,4219.487179,4247.179487,4488.717948,4182.051282,4649.230769,3984.615385,4103.076923
111,4388.205128,4505.128205,4533.846153,4230.256410,4488.205128,4202.564102,4445.128205,4217.435897,4245.128205,4483.589743,4183.589743,4648.205128,3974.871795,4105.641025
112,4404.615384,4521.538461,4536.410256,4243.076923,4501.025641,4213.846153,4453.333333,4225.641025,4252.307692,4490.769230,4183.589743,4654.871794,3986.666667,4113.846153
113,4412.820512,4517.948717,4530.769230,4240.000000,4503.589743,4207.179487,4448.717948,4223.076923,4250.256410,4490.769230,4176.410256,4654.358974,3988.205129,4106.153846
114,4414.871794,4505.641025,4529.743589,4234.358974,4501.538461,4205.128205,4448.205128,4220.000000,4247.692307,4492.307692,4177.948717,4651.282051,3975.384616,4103.589743
115,4432.820512,4513.333333,4538.461538,4243.589743,4502.051282,4213.333333,4457.435897,4230.769230,4250.256410,4497.435897,4188.717948,4656.923076,3979.487180,4113.846153
116,4449.230769,4526.666666,4541.025641,4249.230769,4497.435897,4215.384615,4457.948717,4234.358974,4249.743589,4495.384615,4189.230769,4661.025641,3991.282052,4117.435897
117,4446.153846,4523.076923,4542.564102,4244.615384,4498.974358,4212.820512,4454.358974,4228.717948,4252.820512,4495.897435,4183.589743,4658.974358,3992.307693,4116.410256
118,4436.410256,4520.512820,4541.025641,4246.153846,4502.051282,4213.333333,4454.871794,4226.666666,4254.358974,4502.564102,4186.666666,4659.487179,3991.794872,4120.000000
119,4429.230769,4525.128205,4533.846153,4251.282051,4499.487179,4207.692307,4450.769230,4224.102564,4249.230769,4500.000000,4187.179487,4659.487179,3986.666667,4114.871794
120,4420.512820,4516.923076,4528.717948,4242.564102,4497.435897,4199.487179,4443.589743,4215.897435,4240.000000,4491.282051,4179.487179,4651.282051,3974.358975,4103.076923
121,4414.871794,4509.230769,4530.256410,4235.384615,4494.871794,4202.051282,4447.179487,4213.846153,4237.948717,4489.230769,4183.589743,4646.153846,3980.512821,4104.615384
122,4413.333333,4517.435897,4534.358974,4242.564102,4492.307692,4208.205128,4459.487179,4223.076923,4244.615384,4488.717948,4200.000000,4654.871794,3992.307693,4109.230769
123,4406.153846,4526.153846,4536.410256,4252.307692,4498.974358,4214.358974,4461.538461,4230.769230,4250.256410,4491.282051,4200.512820,4662.564102,3983.589744,4105.128205
124,4391.282051,4522.564102,4536.410256,4250.256410,4504.615384,4215.897435,4454.871794,4228.205128,4248.205128,4495.384615,4187.179487,4658.974358,3978.461539,4111.282051
125,4374.358974,4517.948717,4535.384615,4246.153846,4502.564102,4213.846153,4455.897435,4227.692307,4244.615384,4491.794871,4183.076923,4656.923076,3992.307693,4116.410256
126,4353.333333,4521.025641,4538.974358,4249.230769,4505.641025,4215.384615,4460.512820,4232.820512,4249.230769,4489.743589,4187.179487,4663.076923,3994.871795,4113.333333
127,4322.051282,4523.589743,4538.974358,4248.717948,4505.641025,4216.410256,4461.025641,4232.307692,4254.871794,4496.923076,4194.358974,4661.025641,3980.512821,4113.846153
128,4293.846153,4521.025641,4532.820512,4246.666666,4503.076923,4213.846153,4459.487179,4230.769230,4252.820512,4501.025641,4197.948717,4652.820512,3978.461539,4114.871794
129,4281.538461,4519.487179,4530.256410,4247.179487,4507.179487,4213.846153,4458.461538,4233.333333,4251.794871,4501.025641,4193.846153,4652.307692,3994.358975,4115.384615
130,4269.743589,4522.564102,4534.358974,4248.717948,4508.205128,4217.435897,4462.051282,4233.846153,4257.948717,4504.615384,4194.871794,4658.461538,4001.025641,4118.461538
131,4253.846153,4526.153846,4538.461538,4249.230769,4506.666666,4218.974358,4463.076923,4232.820512,4256.410256,4499.487179,4202.051282,4659.487179,3991.794872,4114.871794
132,4236.923076,4523.076923,4536.410256,4249.230769,4504.615384,4216.410256,4458.974358,4230.769230,4250.769230,4493.333333,4205.128205,4655.384615,3983.076924,4108.717948
133,4217.948717,4520.512820,4531.282051,4251.282051,4503.076923,4212.820512,4457.435897,4230.256410,4256.923076,4501.025641,4194.871794,4653.333333,3986.666667,4112.820512
134,4201.025641,4523.589743,4528.717948,4251.794871,4504.615384,4213.846153,4460.512820,4233.846153,4257.435897,4502.564102,4181.538461,4649.743589,3992.307693,4115.897435
135,4192.820512,4524.615384,4526.666666,4250.256410,4506.153846,4214.871794,4460.512820,4232.820512,4247.179487,4487.179487,4187.692307,4644.102564,3986.666667,4105.641025
136,4188.205128,4520.000000,4526.153846,4247.692307,4502.564102,4214.871794,4460.512820,4232.307692,4252.820512,4487.692307,4207.179487,4646.666666,3983.589744,4106.153846
137,4183.589743,4524.102564,4528.205128,4248.205128,4499.487179,4216.410256,4461.025641,4241.025641,4264.615384,4504.615384,4208.205128,4651.282051,3994.871795,4117.435897
138,4184.102564,4534.358974,4533.333333,4253.333333,4501.538461,4215.897435,4460.000000,4249.230769,4263.076923,4509.743589,4197.948717,4651.794871,4000.512820,4121.538461
139,4183.589743,4532.820512,4537.948717,4257.435897,4505.128205,4216.923076,4460.512820,4245.641025,4263.076923,4509.230769,4204.615384,4656.923076,3998.974359,4121.025641
140,4171.794871,4524.102564,4536.923076,4251.282051,4505.641025,4216.410256,4456.410256,4235.897435,4264.615384,4510.256410,4207.179487,4657.948717,3997.948718,4122.051282
141,4146.666666,4521.025641,4528.717948,4245.641025,4500.512820,4208.205128,4450.769230,4230.256410,4256.410256,4499.487179,4201.025641,4648.717948,3991.794872,4122.051282
142,4121.538461,4523.589743,4528.717948,4254.358974,4498.461538,4205.641025,4451.282051,4231.282051,4249.743589,4489.743589,4202.051282,4647.179487,3990.256411,4118.974358
143,4106.666666,4522.051282,4534.871794,4263.076923,4503.076923,4213.333333,4453.846153,4230.769230,4249.230769,4495.897435,4203.589743,4651.282051,3997.435898,4118.461538
144,4094.871794,4524.102564,4533.846153,4264.615384,4505.128205,4215.384615,4454.871794,4227.179487,4248.205128,4502.051282,4198.461538,4650.769230,3995.384616,4120.000000
145,4078.974358,4533.333333,4530.769230,4264.102564,4505.128205,4213.333333,4453.333333,4228.205128,4250.256410,4497.948717,4200.512820,4651.282051,3989.230770,4123.076923
146,4059.487179,4532.307692,4528.717948,4260.512820,4503.589743,4212.820512,4452.307692,4224.615384,4249.230769,4495.384615,4203.076923,4649.230769,3990.769231,4119.487179
147,4041.025641,4518.974358,4524.615384,4249.743589,4498.974358,4206.153846,4450.256410,4215.384615,4240.512820,4493.333333,4190.256410,4641.025641,3990.769231,4107.179487
148,4035.384615,4517.435897,4526.153846,4244.615384,4496.410256,4199.487179,4447.179487,4212.820512,4238.974358,4486.666666,4184.102564,4638.461538,3988.205129,4110.256410
149,4035.897435,4524.102564,4530.769230,4252.307692,4494.871794,4201.025641,4448.205128,4216.410256,4248.205128,4489.743589,4197.435897,4641.025641,3990.256411,4122.564102
150,4028.717948,4528.717948,4532.307692,4264.615384,4496.410256,4208.717948,4456.410256,4226.153846,4254.871794,4503.589743,4212.820512,4644.102564,3994.871795,4123.589743
151,4024.615384,4534.358974,4536.410256,4269.230769,4499.487179,4215.384615,4463.076923,4235.897435,4254.358974,4509.743589,4217.435897,4648.717948,3998.461539,4124.102564
152,4016.923076,4531.794871,4532.820512,4263.589743,4502.564102,4211.282051,4454.358974,4231.282051,4252.307692,4500.512820,4211.282051,4643.076923,3994.358975,4122.564102
153,3987.179488,4520.512820,4517.948717,4254.871794,4499.487179,4201.025641,4442.564102,4215.384615,4243.589743,4486.666666,4192.820512,4625.641025,3984.615385,4108.717948
154,3954.871795,4518.974358,4515.384615,4251.794871,4493.333333,4197.435897,4437.948717,4212.307692,4234.358974,4486.153846,4182.564102,4621.025641,3982.051283,4100.000000
155,3943.076924,4524.102564,4521.538461,4257.435897,4494.358974,4204.615384,4440.000000,4216.923076,4238.461538,4497.948717,4201.025641,4630.769230,3987.179488,4108.717948
156,3942.564103,4522.051282,4523.589743,4264.102564,4500.000000,4211.282051,4448.205128,4216.923076,4247.692307,4500.000000,4213.846153,4637.435897,3997.948718,4120.000000
157,3942.051283,4525.641025,4527.179487,4264.615384,4500.512820,4209.230769,4454.358974,4221.538461,4249.743589,4491.794871,4211.282051,4638.461538,4008.717948,4126.153846
158,3936.410257,4536.923076,4529.743589,4265.128205,4498.974358,4207.692307,4449.743589,4230.256410,4251.794871,4500.512820,4215.384615,4637.948717,4007.692307,4126.666666
159,3923.589744,4534.871794,4526.153846,4267.692307,4504.102564,4213.846153,4445.128205,4234.358974,4258.974358,4517.948717,4217.948717,4637.948717,4001.025641,4123.076923
160,3909.230770,4529.743589,4525.128205,4269.743589,4507.179487,4217.435897,4453.846153,4233.846153,4263.589743,4513.333333,4210.769230,4641.025641,4003.589743,4126.153846
161,3897.435898,4530.769230,4527.692307,4268.717948,4504.102564,4215.897435,4460.512820,4230.769230,4260.512820,4502.051282,4210.769230,4644.615384,4009.230769,4131.282051
162,3893.333334,4528.717948,4528.205128,4267.692307,4505.641025,4217.435897,4459.487179,4231.794871,4254.871794,4508.205128,4218.974358,4644.615384,4007.179487,4128.717948
163,3889.743590,4527.692307,4529.230769,4270.769230,4507.179487,4217.948717,4456.410256,4235.897435,4254.871794,4513.846153,4224.102564,4641.538461,4002.564102,4126.153846
164,3878.974359,4530.769230,4527.692307,4276.410256,4502.564102,4210.769230,4449.230769,4225.128205,4254.871794,4505.641025,4225.128205,4636.923076,4002.564102,4124.615384
165,3874.871795,4531.282051,4525.128205,4278.461538,4498.461538,4208.205128,4444.102564,4214.871794,4247.179487,4501.538461,4220.000000,4635.384615,4007.179487,4126.666666
166,3881.025642,4532.820512,4527.692307,4276.410256,4502.051282,4211.794871,4445.128205,4225.641025,4242.564102,4500.000000,4213.333333,4636.923076,4008.205128,4132.307692
167,3882.564103,4538.461538,4528.717948,4275.384615,4507.179487,4213.846153,4447.179487,4235.384615,4248.205128,4497.948717,4211.282051,4637.435897,4003.076923,4137.948717
168,3876.410257,4538.461538,4528.717948,4278.461538,4512.307692,4220.512820,4454.358974,4232.820512,4258.461538,4507.179487,4220.512820,4637.435897,4006.153846,4137.435897
169,3870.256411,4538.461538,4530.256410,4281.025641,4514.871794,4227.692307,4460.512820,4233.846153,4260.512820,4514.871794,4229.230769,4637.948717,4017.435897,4136.410256
170,3865.641026,4540.000000,4529.230769,4279.487179,4511.794871,4223.589743,4459.487179,4235.384615,4256.923076,4507.692307,4223.076923,4638.974358,4023.076923,4141.025641
171,3855.897436,4538.974358,4529.230769,4278.974358,4517.435897,4218.461538,4459.487179,4230.769230,4258.461538,4508.717948,4216.923076,4640.000000,4016.923076,4139.487179
172,3835.897436,4538.461538,4528.717948,4277.435897,4525.128205,4222.051282,4458.974358,4230.769230,4259.487179,4512.820512,4214.871794,4635.384615,4008.205128,4128.205128
173,3817.948718,4535.897435,4521.025641,4268.717948,4510.769230,4217.948717,4453.846153,4232.820512,4254.871794,4507.692307,4212.820512,4630.769230,4011.794871,4127.179487
174,3805.641026,4525.128205,4519.487179,4260.512820,4497.948717,4213.333333,4455.384615,4230.769230,4258.974358,4511.794871,4219.487179,4633.846153,4016.410256,4136.410256
175,3791.794872,4519.487179,4525.128205,4260.512820,4505.641025,4217.435897,4460.512820,4232.307692,4265.641025,4517.435897,4227.692307,4634.358974,4011.794871,4136.410256
176,3774.871795,4532.307692,4522.051282,4270.256410,4508.205128,4218.461538,4456.923076,4233.333333,4258.974358,4507.179487,4216.923076,4627.692307,4011.282051,4129.743589
177,3757.435898,4545.641025,4514.871794,4281.538461,4504.615384,4213.846153,4446.666666,4222.564102,4251.282051,4497.948717,4205.128205,4622.564102,4011.794871,4128.717948
178,3739.487180,4542.564102,4513.333333,4281.025641,4508.717948,4215.897435,4446.153846,4212.307692,4247.179487,4497.948717,4207.692307,4621.025641,4004.102564,4125.641025
179,3726.153847,4535.384615,4513.333333,4277.948717,4511.794871,4224.102564,4458.461538,4220.512820,4245.128205,4496.410256,4207.692307,4618.974358,3998.461539,4121.538461
180,3714.871795,4535.384615,4510.769230,4278.974358,4509.230769,4224.615384,4462.564102,4224.102564,4247.692307,4490.256410,4200.000000,4617.435897,3997.435898,4122.051282
181,3701.025642,4538.461538,4510.256410,4276.923076,4505.128205,4216.410256,4450.769230,4217.948717,4245.641025,4488.717948,4202.564102,4615.897435,3993.846154,4121.025641
182,3690.256411,4534.871794,4513.846153,4273.846153,4503.076923,4214.358974,4446.153846,4224.615384,4245.641025,4498.461538,4215.384615,4619.487179,3993.846154,4118.974358
183,3687.692308,4527.692307,4518.461538,4277.948717,4504.102564,4215.897435,4455.384615,4234.358974,4256.923076,4514.871794,4217.948717,4626.666666,4002.051282,4124.102564
184,3690.256411,4530.769230,4523.589743,4276.923076,4506.666666,4215.897435,4460.512820,4233.846153,4264.615384,4517.435897,4215.384615,4631.794871,4010.256410,4131.282051
185,3692.307693,4540.512820,4528.717948,4274.358974,4506.153846,4217.435897,4457.948717,4233.846153,4261.025641,4505.128205,4220.000000,4634.358974,4011.794871,4134.358974
186,3692.307693,4540.000000,4531.282051,4278.974358,4506.153846,4220.000000,4458.461538,4234.358974,4258.461538,4497.435897,4218.461538,4637.948717,4009.230769,4130.256410
187,3693.846154,4534.871794,4530.256410,4284.102564,4505.641025,4218.974358,4459.487179,4229.743589,4256.410256,4502.564102,4216.410256,4635.897435,4009.743589,4123.076923
188,3698.974359,4542.051282,4530.769230,4289.230769,4507.179487,4217.948717,4457.948717,4229.743589,4253.333333,4509.230769,4221.538461,4631.794871,4013.846153,4127.692307
189,3699.487180,4552.820512,4532.820512,4295.384615,4514.358974,4217.948717,4460.000000,4234.358974,4255.897435,4508.205128,4220.512820,4634.358974,4012.307692,4138.461538
190,3683.589744,4544.615384,4528.205128,4289.230769,4515.384615,4217.948717,4460.000000,4227.179487,4255.897435,4504.615384,4209.743589,4630.769230,3998.461539,4130.769230
191,3662.564103,4525.641025,4517.948717,4274.358974,4506.666666,4215.897435,4454.871794,4216.410256,4244.615384,4492.307692,4199.487179,4617.435897,3983.076924,4113.333333
192,3664.102565,4522.051282,4518.974358,4272.820512,4497.948717,4214.871794,4456.923076,4221.538461,4242.051282,4484.102564,4197.435897,4619.487179,3988.717949,4114.871794
193,3672.820513,4526.666666,4524.102564,4277.948717,4500.000000,4217.948717,4462.564102,4232.820512,4255.384615,4499.487179,4202.564102,4629.743589,4000.000000,4119.487179
194,3658.974359,4520.512820,4516.923076,4268.205128,4498.974358,4215.897435,4455.897435,4230.256410,4254.358974,4505.128205,4200.000000,4623.589743,3989.743590,4104.615384
195,3652.820513,4517.435897,4514.358974,4261.025641,4493.846153,4211.794871,4449.743589,4225.641025,4243.589743,4491.282051,4201.025641,4617.435897,3986.153847,4103.589743
196,3673.333334,4529.230769,4524.102564,4270.256410,4498.974358,4215.384615,4456.410256,4231.282051,4254.358974,4497.435897,4217.948717,4628.717948,4008.205128,4127.692307
197,3676.410257,4536.923076,4528.205128,4280.000000,4506.666666,4220.000000,4461.025641,4234.358974,4267.692307,4517.435897,4229.743589,4634.871794,4020.512820,4137.435897
198,3655.897436,4529.743589,4522.564102,4280.000000,4507.179487,4217.435897,4458.974358,4231.794871,4258.461538,4514.358974,4217.948717,4627.692307,4011.282051,4124.102564
199,3648.717949,4522.051282,4518.974358,4280.000000,4506.666666,4216.923076,4460.000000,4232.307692,4251.282051,4503.589743,4203.589743,4622.564102,4005.641025,4117.948717
200,3648.205129,4523.076923,4516.410256,4278.974358,4508.717948,4218.974358,4460.512820,4232.307692,4254.871794,4504.102564,4205.641025,4620.000000,4007.692307,4122.051282
201,3635.897436,4524.615384,4512.307692,4268.205128,4505.641025,4216.410256,4456.923076,4229.230769,4256.410256,4507.179487,4214.871794,4617.948717,4012.307692,4122.051282
202,3628.205129,4523.589743,4514.358974,4262.564102,4505.641025,4214.358974,4458.974358,4228.717948,4260.512820,4514.358974,4220.000000,4620.000000,4015.897435,4117.948717
203,3620.512821,4523.076923,4514.871794,4264.102564,4510.256410,4215.384615,4461.025641,4231.282051,4261.538461,4519.487179,4213.333333,4620.000000,4011.282051,4116.410256
204,3607.692308,4521.538461,4513.333333,4261.025641,4514.871794,4214.358974,4456.923076,4232.307692,4256.410256,4512.820512,4203.076923,4616.410256,4012.307692,4117.948717
205,3601.538462,4521.025641,4520.512820,4255.384615,4516.923076,4215.384615,4461.025641,4231.282051,4260.000000,4504.615384,4203.076923,4620.000000,4026.153846,4120.512820
206,3597.948718,4523.076923,4530.769230,4250.256410,4514.871794,4218.461538,4472.307692,4235.384615,4267.179487,4512.820512,4211.282051,4630.256410,4035.897435,4128.717948
207,3586.153847,4522.564102,4531.282051,4245.641025,4517.435897,4218.974358,4469.743589,4239.487179,4264.102564,4526.153846,4218.974358,4634.358974,4032.820512,4135.384615
208,3571.794872,4521.025641,4527.692307,4247.692307,4524.102564,4217.435897,4460.000000,4236.923076,4262.564102,4523.076923,4216.410256,4631.282051,4026.666666,4129.743589
209,3562.051283,4520.000000,4527.179487,4252.307692,4523.076923,4216.923076,4458.461538,4231.282051,4257.435897,4507.692307,4203.076923,4624.102564,4020.512820,4121.025641
210,3553.333334,4518.461538,4527.179487,4248.717948,4519.487179,4215.897435,4461.025641,4226.666666,4248.717948,4502.564102,4193.333333,4617.948717,4017.435897,4119.487179
211,3543.589744,4520.000000,4531.282051,4249.743589,4522.564102,4216.410256,4458.461538,4227.179487,4252.820512,4512.307692,4199.487179,4621.538461,4022.051282,4121.025641
212,3541.538462,4524.615384,4538.974358,4256.923076,4523.076923,4217.948717,4458.461538,4230.769230,4262.564102,4518.461538,4204.615384,4629.743589,4028.205128,4129.230769
213,3541.025642,4525.128205,4543.076923,4255.384615,4520.000000,4217.435897,4467.692307,4233.846153,4264.102564,4522.051282,4198.974358,4634.871794,4032.307692,4137.435897
214,3532.820513,4521.538461,4541.025641,4248.205128,4523.076923,4217.435897,4471.282051,4235.384615,4263.589743,4527.179487,4199.487179,4633.333333,4031.794871,4129.230769
215,3522.564103,4520.512820,4537.435897,4244.102564,4523.076923,4217.948717,4465.128205,4233.846153,4262.564102,4521.538461,4201.538461,4629.743589,4022.051282,4117.948717
216,3522.051283,4523.076923,4541.538461,4250.769230,4516.923076,4216.923076,4458.974358,4231.282051,4253.846153,4512.307692,4200.512820,4629.230769,4014.871794,4124.102564
217,3526.153847,4525.128205,4548.205128,4259.487179,4516.923076,4214.358974,4457.435897,4231.282051,4252.307692,4515.897435,4207.179487,4633.333333,4023.076923,4134.871794
218,3527.179488,4521.025641,4547.692307,4257.435897,4521.538461,4216.410256,4461.538461,4234.358974,4262.564102,4520.512820,4212.820512,4638.974358,4034.871794,4138.974358
219,3529.230770,4526.153846,4547.179487,4254.358974,4521.538461,4225.128205,4470.256410,4235.384615,4264.615384,4516.923076,4206.153846,4641.025641,4036.923076,4137.948717
220,3530.769231,4532.820512,4548.205128,4261.025641,4520.512820,4226.153846,4470.256410,4233.333333,4256.410256,4516.410256,4197.948717,4636.410256,4031.794871,4131.282051
221,3522.051283,4527.692307,4548.205128,4267.179487,4523.076923,4217.948717,4460.000000,4232.307692,4254.358974,4522.051282,4204.615384,4633.846153,4027.692307,4127.692307
222,3510.256411,4530.256410,4549.743589,4266.666666,4528.205128,4221.025641,4458.461538,4233.333333,4260.000000,4528.205128,4216.410256,4640.000000,4025.128205,4132.820512
223,3510.769231,4538.974358,4551.282051,4268.205128,4531.282051,4229.743589,4466.666666,4234.871794,4262.564102,4530.769230,4215.897435,4641.538461,4026.153846,4137.435897
224,3510.256411,4531.794871,4549.230769,4266.153846,4526.153846,4225.641025,4468.717948,4237.435897,4264.102564,4526.153846,4209.743589,4635.897435,4030.769230,4135.384615
225,3492.307693,4520.512820,4546.153846,4252.307692,4518.974358,4215.384615,4461.538461,4234.871794,4261.538461,4518.461538,4211.794871,4632.820512,4028.717948,4128.717948
226,3476.410257,4521.538461,4541.538461,4244.102564,4518.974358,4213.846153,4460.000000,4229.743589,4254.358974,4515.384615,4209.230769,4628.205128,4023.589743,4122.564102
227,3480.512821,4522.564102,4540.000000,4251.794871,4520.512820,4223.589743,4470.769230,4236.410256,4254.871794,4516.410256,4197.948717,4629.230769,4025.128205,4121.538461
228,3491.282052,4522.051282,4547.692307,4262.051282,4521.025641,4228.717948,4476.923076,4248.205128,4262.564102,4522.051282,4198.974358,4636.923076,4026.666666,4126.153846
229,3499.487180,4532.820512,4554.358974,4262.564102,4523.076923,4227.179487,4475.384615,4249.743589,4272.820512,4530.769230,4215.897435,4637.948717,4032.307692,4133.333333
230,3508.205129,4543.076923,4554.871794,4262.564102,4525.128205,4229.230769,4477.435897,4247.692307,4282.051282,4535.897435,4229.743589,4637.948717,4049.230769,4141.025641
231,3514.358975,4541.025641,4555.384615,4267.179487,4524.615384,4234.871794,4477.948717,4249.743589,4283.589743,4539.487179,4226.153846,4642.051282,4057.948717,4145.641025
232,3506.153847,4535.384615,4551.794871,4267.692307,4520.512820,4232.307692,4476.410256,4251.794871,4278.461538,4540.512820,4218.974358,4639.487179,4043.076923,4141.025641
233,3494.358975,4534.358974,4541.538461,4262.564102,4520.512820,4222.051282,4475.384615,4243.076923,4270.769230,4529.743589,4216.410256,4629.230769,4024.615384,4129.743589
234,3494.871795,4532.820512,4537.948717,4261.025641,4523.076923,4218.461538,4470.769230,4231.282051,4261.538461,4514.871794,4208.717948,4626.666666,4025.641025,4122.564102
235,3498.974359,4527.692307,4543.076923,4262.051282,4517.435897,4222.564102,4469.230769,4234.358974,4260.512820,4514.871794,4206.666666,4632.307692,4036.410256,4127.179487
236,3497.948718,4524.615384,4543.589743,4257.435897,4509.743589,4223.076923,4473.333333,4241.538461,4268.717948,4524.615384,4216.410256,4634.871794,4034.871794,4127.692307
237,3493.846154,4529.230769,4537.435897,4253.333333,4508.205128,4220.512820,4473.846153,4234.871794,4267.179487,4527.179487,4217.948717,4628.717948,4024.102564,4119.487179
238,3496.923077,4537.435897,4536.410256,4260.512820,4506.666666,4222.564102,4472.307692,4229.743589,4261.538461,4526.153846,4211.794871,4624.615384,4026.153846,4125.641025
239,3506.153847,4542.051282,4544.102564,4267.692307,4510.769230,4224.102564,4472.820512,4234.871794,4267.179487,4527.179487,4217.948717,4629.230769,4042.564102,4140.000000
240,3509.743590,4539.487179,4549.743589,4264.615384,4520.000000,4217.435897,4467.179487,4233.846153,4269.230769,4523.076923,4221.025641,4629.743589,4044.615384,4136.410256
241,3506.666667,4531.282051,4543.589743,4262.051282,4516.923076,4215.384615,4460.512820,4227.692307,4259.487179,4520.000000,4204.102564,4623.589743,4031.282051,4124.615384
242,3506.666667,4528.205128,4535.897435,4264.615384,4507.692307,4221.025641,4459.487179,4229.230769,4255.384615,4521.538461,4196.410256,4621.538461,4026.153846,4123.076923
243,3512.307693,4535.897435,4536.923076,4264.615384,4505.128205,4220.000000,4462.051282,4230.769230,4258.461538,4518.461538,4208.717948,4624.102564,4026.153846,4125.128205
244,3523.076924,4541.538461,4540.000000,4264.102564,4508.205128,4217.435897,4463.076923,4229.230769,4262.564102,4520.000000,4217.948717,4626.666666,4024.615384,4123.076923
245,3537.435898,4537.948717,4541.025641,4269.230769,4513.333333,4224.102564,4462.051282,4235.384615,4269.743589,4530.769230,4220.000000,4632.307692,4030.769230,4125.641025
246,3543.076924,4537.948717,4545.128205,4275.897435,4515.384615,4227.179487,4466.666666,4242.564102,4273.333333,4531.282051,4227.692307,4637.948717,4040.512820,4132.307692
247,3541.025642,4539.487179,4547.692307,4276.923076,4511.282051,4220.512820,4468.717948,4239.487179,4272.820512,4521.025641,4227.692307,4635.897435,4037.435897,4133.333333
248,3547.692308,4537.435897,4544.615384,4270.256410,4509.230769,4223.076923,4464.102564,4238.461538,4271.282051,4521.538461,4213.333333,4633.846153,4029.743589,4128.205128
249,3556.923077,4533.333333,4543.076923,4265.641025,4509.230769,4230.769230,4469.230769,4244.615384,4269.743589,4527.179487,4208.205128,4634.358974,4028.205128,4125.128205
250,3556.923077,4530.769230,4545.128205,4269.230769,4507.692307,4231.282051,4477.948717,4246.666666,4270.256410,4523.589743,4215.897435,4632.307692,4031.794871,4125.128205
251,3561.025642,4530.769230,4545.128205,4271.794871,4507.692307,4225.641025,4474.358974,4241.025641,4272.307692,4521.025641,4219.487179,4630.769230,4034.358974,4125.641025
252,3571.282052,4533.333333,4545.128205,4273.333333,4509.230769,4223.076923,4473.333333,4238.974358,4267.692307,4525.641025,4221.025641,4634.871794,4027.692307,4123.589743
253,3573.846154,4536.923076,4545.641025,4278.974358,4507.179487,4223.076923,4473.846153,4236.410256,4261.538461,4523.076923,4218.461538,4632.820512,4021.025641,4120.512820
254,3578.461539,4538.461538,4543.589743,4273.846153,4505.641025,4220.512820,4465.128205,4225.641025,4262.564102,4512.820512,4209.743589,4623.589743,4024.615384,4120.000000
255,3594.358975,4535.897435,4541.025641,4270.769230,4506.153846,4221.025641,4466.153846,4221.025641,4263.076923,4516.410256,4209.230769,4619.487179,4026.153846,4123.589743
256,3611.282052,4534.871794,4542.564102,4276.410256,4507.692307,4227.179487,4476.410256,4227.179487,4262.564102,4522.564102,4210.769230,4621.025641,4024.615384,4123.589743
257,3621.025642,4540.000000,4543.076923,4275.384615,4507.179487,4231.282051,4475.384615,4234.871794,4266.153846,4514.871794,4209.743589,4620.512820,4021.538461,4117.948717
258,3623.076924,4538.461538,4536.923076,4271.794871,4503.589743,4228.205128,4468.205128,4232.307692,4264.615384,4514.358974,4213.333333,4619.487179,4009.743589,4114.358974
259,3621.538462,4523.076923,4531.794871,4271.282051,4495.384615,4218.974358,4461.538461,4222.564102,4256.923076,4520.000000,4212.307692,4615.384615,4003.589743,4111.282051
