,AF3,F7,F3,FC5,T7,P7,O1,O2,P8,T8,FC6,F4,F8,AF4
0,4410.769230,4524.615384,4515.897435,4266.153846,4571.794871,4198.461538,4444.102564,4210.769230,4214.871794,4501.025641,4193.333333,4632.820512,3953.333334,4044.615384
1,4410.256410,4522.051282,4521.025641,4266.666666,4571.794871,4200.512820,4442.051282,4207.692307,4220.512820,4498.974358,4190.769230,4634.358974,3956.923077,4047.692307
2,4413.846153,4530.769230,4524.615384,4277.948717,4565.641025,4203.589743,4444.615384,4214.871794,4223.076923,4509.230769,4191.794871,4637.948717,3967.179488,4055.384615
3,4416.410256,4535.384615,4522.051282,4273.846153,4564.615384,4204.102564,4453.333333,4220.512820,4223.589743,4513.333333,4190.769230,4637.948717,3975.384616,4062.564102
4,4415.384615,4528.717948,4518.461538,4263.076923,4565.128205,4202.564102,4453.333333,4216.923076,4226.666666,4508.717948,4195.897435,4635.897435,3966.666667,4057.435897
5,4412.820512,4523.076923,4517.435897,4263.589743,4561.025641,4201.025641,4445.641025,4216.923076,4223.589743,4509.743589,4202.051282,4632.820512,3949.743590,4042.051282
6,4409.230769,4521.538461,4514.871794,4264.615384,4555.384615,4201.025641,4443.076923,4216.410256,4220.512820,4508.205128,4198.461538,4631.794871,3950.769231,4037.948717
7,4407.179487,4519.487179,4510.769230,4262.564102,4552.820512,4199.487179,4446.153846,4212.820512,4221.538461,4506.153846,4187.692307,4635.897435,3962.051283,4048.717948
8,4408.717948,4515.897435,4517.435897,4265.641025,4555.384615,4199.487179,4446.666666,4213.846153,4220.512820,4506.153846,4187.179487,4640.000000,3967.179488,4052.820512
9,4411.282051,4516.923076,4525.641025,4265.641025,4562.564102,4202.051282,4447.692307,4216.923076,4224.102564,4504.102564,4197.435897,4644.102564,3967.179488,4048.717948
10,4413.333333,4525.641025,4523.076923,4266.153846,4561.538461,4203.076923,4454.871794,4217.435897,4231.282051,4507.692307,4202.051282,4645.641025,3964.102565,4049.230769
11,4409.743589,4526.666666,4521.025641,4265.128205,4558.974358,4206.153846,4454.871794,4216.923076,4230.256410,4511.794871,4196.410256,4641.538461,3957.435898,4046.666666
12,4404.102564,4522.051282,4522.564102,4263.589743,4562.564102,4207.179487,4447.179487,4215.897435,4224.615384,4508.717948,4192.820512,4640.000000,3957.435898,4040.512820
13,4406.153846,4526.153846,4521.025641,4270.769230,4562.051282,4203.076923,4443.589743,4215.897435,4225.641025,4508.205128,4197.435897,4642.564102,3962.051283,4046.153846
14,4411.794871,4529.743589,4521.538461,4278.974358,4556.923076,4203.076923,4445.641025,4216.410256,4227.692307,4508.205128,4199.487179,4643.076923,3960.512821,4053.333333
15,4408.717948,4527.179487,4522.051282,4275.384615,4557.948717,4202.051282,4444.102564,4208.717948,4223.076923,4499.487179,4190.256410,4635.897435,3957.948718,4048.205128
16,4403.076923,4528.717948,4517.435897,4275.897435,4561.025641,4204.615384,4441.025641,4203.076923,4220.000000,4495.384615,4182.564102,4629.230769,3960.000000,4041.538461
17,4407.692307,4535.897435,4515.384615,4277.435897,4563.076923,4211.794871,4445.128205,4209.230769,4225.128205,4506.153846,4192.820512,4636.410256,3966.153847,4045.641025
18,4410.769230,4538.974358,4519.487179,4266.666666,4566.153846,4209.743589,4447.692307,4214.358974,4228.717948,4512.820512,4206.666666,4644.615384,3967.179488,4054.358974
19,4411.794871,4538.974358,4523.076923,4266.153846,4566.666666,4204.102564,4444.615384,4213.846153,4226.666666,4511.794871,4206.153846,4642.564102,3968.205129,4057.435897
20,4412.307692,4537.435897,4525.128205,4276.923076,4566.153846,4207.179487,4444.102564,4215.384615,4227.179487,4505.641025,4196.923076,4640.512820,3973.333334,4054.871794
21,4403.076923,4528.205128,4517.435897,4270.769230,4561.538461,4205.128205,4444.102564,4211.794871,4226.666666,4501.025641,4191.282051,4639.487179,3967.179488,4043.589743
22,4393.333333,4520.512820,4509.230769,4260.000000,4554.871794,4197.948717,4437.948717,4201.538461,4220.512820,4501.538461,4195.384615,4633.333333,3951.794872,4030.769230
23,4396.923076,4521.538461,4513.846153,4264.102564,4555.384615,4200.512820,4436.410256,4199.487179,4217.948717,4500.512820,4195.897435,4631.282051,3950.769231,4035.897435
24,4404.615384,4522.051282,4517.948717,4270.256410,4556.410256,4203.589743,4444.615384,4206.666666,4222.564102,4497.948717,4191.282051,4638.974358,3967.179488,4051.282051
25,4403.589743,4522.051282,4516.410256,4268.205128,4553.846153,4202.051282,4447.692307,4214.871794,4232.307692,4497.948717,4191.282051,4645.128205,3971.794872,4048.717948
26,4398.461538,4521.538461,4513.846153,4262.564102,4554.358974,4202.564102,4443.589743,4215.384615,4233.846153,4499.487179,4193.846153,4643.589743,3960.512821,4037.948717
27,4395.897435,4517.948717,4512.307692,4258.974358,4557.948717,4202.564102,4443.076923,4213.333333,4229.230769,4504.102564,4196.923076,4643.589743,3954.358975,4040.000000
28,4395.897435,4518.461538,4512.820512,4264.615384,4561.538461,4202.564102,4445.641025,4215.897435,4232.307692,4507.179487,4200.512820,4642.564102,3959.487180,4045.641025
29,4397.948717,4523.076923,4512.307692,4269.230769,4562.564102,4201.538461,4442.051282,4215.897435,4232.307692,4502.564102,4195.897435,4640.000000,3961.538462,4043.589743
30,4401.025641,4520.512820,4510.769230,4264.102564,4556.410256,4200.512820,4437.435897,4212.820512,4228.205128,4499.487179,4190.256410,4640.000000,3958.461539,4042.051282
31,4403.076923,4515.384615,4515.384615,4264.102564,4554.358974,4201.538461,4439.487179,4214.358974,4238.974358,4509.743589,4204.102564,4645.641025,3957.435898,4044.615384
32,4406.666666,4521.025641,4522.051282,4277.435897,4561.025641,4203.076923,4442.564102,4216.923076,4248.205128,4519.487179,4217.435897,4652.307692,3963.076924,4051.794871
33,4411.282051,4527.179487,4520.000000,4274.871794,4558.461538,4202.564102,4442.051282,4218.974358,4240.512820,4519.487179,4209.230769,4653.846153,3974.358975,4057.435897
34,4413.333333,4524.615384,4522.564102,4251.794871,4557.435897,4203.589743,4443.589743,4220.000000,4238.974358,4509.743589,4202.564102,4654.358974,3980.512821,4056.923076
35,4412.820512,4523.589743,4525.128205,4243.589743,4565.128205,4202.564102,4443.589743,4219.487179,4247.692307,4503.589743,4212.820512,4653.333333,3972.307693,4054.871794
36,4410.769230,4524.102564,4518.461538,4257.948717,4561.538461,4200.000000,4441.538461,4218.974358,4249.230769,4513.846153,4219.487179,4650.256410,3967.179488,4054.871794
37,4409.230769,4522.564102,4520.512820,4269.230769,4551.794871,4204.102564,4441.538461,4220.512820,4247.692307,4528.717948,4211.794871,4652.307692,3975.897436,4057.948717
38,4407.179487,4524.615384,4524.615384,4266.153846,4557.435897,4206.153846,4438.974358,4218.461538,4243.076923,4526.153846,4202.564102,4652.307692,3978.461539,4057.435897
39,4403.589743,4525.128205,4513.846153,4262.051282,4562.564102,4201.538461,4429.743589,4213.333333,4231.794871,4506.666666,4202.051282,4643.589743,3964.102565,4046.153846
40,4403.589743,4522.051282,4507.179487,4264.615384,4553.333333,4197.435897,4425.641025,4212.820512,4227.692307,4501.025641,4206.153846,4638.974358,3960.000000,4038.974358
41,4408.205128,4524.102564,4517.948717,4270.769230,4554.871794,4201.538461,4436.410256,4216.410256,4233.846153,4511.794871,4207.179487,4648.205128,3973.333334,4051.282051
42,4406.153846,4527.692307,4521.538461,4273.333333,4567.692307,4208.717948,4442.051282,4218.461538,4233.333333,4511.794871,4205.641025,4652.307692,3977.948718,4062.564102
43,4398.461538,4521.025641,4513.333333,4268.717948,4564.615384,4205.641025,4436.410256,4214.871794,4229.743589,4501.025641,4203.076923,4646.153846,3971.282052,4054.358974
44,4401.025641,4521.538461,4514.358974,4266.666666,4553.333333,4201.025641,4436.923076,4216.410256,4233.846153,4504.615384,4209.230769,4646.153846,3969.743590,4047.692307
45,4410.769230,4533.333333,4523.589743,4269.743589,4555.897435,4206.666666,4444.615384,4223.589743,4242.564102,4519.487179,4224.615384,4656.923076,3974.358975,4054.871794
46,4413.846153,4535.384615,4528.717948,4278.974358,4562.564102,4213.846153,4446.666666,4225.128205,4248.717948,4526.153846,4230.769230,4668.205128,3983.076924,4068.717948
47,4413.333333,4528.205128,4527.692307,4282.051282,4559.487179,4207.692307,4439.487179,4222.051282,4250.769230,4524.615384,4220.000000,4665.128205,3992.307693,4072.307692
48,4410.769230,4524.615384,4521.538461,4269.743589,4556.923076,4198.974358,4433.846153,4213.846153,4241.025641,4513.846153,4213.333333,4654.358974,3986.153847,4066.666666
49,4409.230769,4527.179487,4517.435897,4264.615384,4556.410256,4200.512820,4431.794871,4206.666666,4230.769230,4507.179487,4218.461538,4651.794871,3975.384616,4065.128205
50,4411.794871,4534.358974,4519.487179,4275.897435,4556.410256,4209.230769,4434.871794,4210.256410,4236.923076,4515.897435,4220.000000,4655.384615,3984.102565,4066.153846
51,4412.307692,4537.948717,4522.051282,4282.051282,4564.615384,4215.384615,4440.512820,4217.435897,4242.564102,4525.641025,4216.410256,4655.384615,3994.358975,4062.051282
52,4409.230769,4534.871794,4521.538461,4274.871794,4571.282051,4211.794871,4438.974358,4214.358974,4236.410256,4521.538461,4205.641025,4651.794871,3989.230770,4061.025641
53,4409.230769,4533.846153,4524.615384,4276.410256,4570.769230,4211.794871,4437.948717,4210.769230,4235.897435,4515.384615,4196.410256,4653.333333,3981.025642,4064.102564
54,4413.333333,4537.948717,4529.230769,4282.564102,4572.307692,4218.461538,4442.564102,4214.871794,4242.051282,4516.923076,4204.615384,4656.410256,3981.538462,4065.641025
55,4413.333333,4539.487179,4529.230769,4279.487179,4576.410256,4218.974358,4445.641025,4217.435897,4243.589743,4518.974358,4214.871794,4655.897435,3981.538462,4064.615384
56,4412.820512,4533.846153,4529.230769,4274.871794,4575.384615,4217.435897,4445.128205,4218.974358,4247.179487,4522.564102,4209.743589,4654.871794,3975.897436,4059.487179
57,4411.794871,4530.256410,4528.205128,4270.769230,4576.923076,4221.025641,4446.666666,4222.051282,4250.769230,4531.794871,4198.974358,4654.358974,3977.948718,4057.435897
58,4410.769230,4531.794871,4528.717948,4263.076923,4581.538461,4224.615384,4450.256410,4226.666666,4247.692307,4533.333333,4198.461538,4656.410256,3985.641026,4065.641025
59,4414.871794,4532.820512,4530.769230,4263.076923,4580.000000,4229.230769,4453.333333,4231.794871,4251.794871,4527.692307,4209.743589,4659.487179,3983.589744,4069.743589
60,4418.974358,4535.897435,4532.820512,4275.384615,4576.923076,4232.307692,4460.000000,4236.410256,4262.051282,4531.282051,4216.410256,4662.051282,3982.051283,4069.743589
61,4415.897435,4535.897435,4531.794871,4276.410256,4576.410256,4227.179487,4460.000000,4237.948717,4258.461538,4531.282051,4208.205128,4660.000000,3985.128206,4070.256410
62,4408.205128,4525.641025,4524.615384,4265.641025,4572.307692,4219.487179,4449.743589,4231.282051,4245.128205,4522.564102,4197.948717,4652.307692,3983.076924,4063.076923
63,4408.205128,4523.589743,4522.564102,4266.666666,4568.205128,4215.897435,4441.538461,4225.128205,4242.564102,4525.641025,4197.948717,4652.307692,3976.410257,4057.948717
64,4416.410256,4537.435897,4528.717948,4271.794871,4569.743589,4217.435897,4448.717948,4228.205128,4247.692307,4528.717948,4203.589743,4658.461538,3977.435898,4067.179487
65,4420.000000,4540.512820,4530.769230,4270.256410,4571.794871,4224.615384,4458.461538,4231.794871,4248.205128,4518.974358,4204.615384,4661.025641,3979.487180,4071.794871
66,4417.435897,4534.871794,4526.666666,4271.282051,4572.820512,4229.230769,4458.461538,4231.282051,4248.205128,4517.435897,4202.051282,4661.025641,3978.974359,4067.692307
67,4421.025641,4536.410256,4531.794871,4277.948717,4577.948717,4228.205128,4456.923076,4230.769230,4249.230769,4526.153846,4204.615384,4663.076923,3983.076924,4069.743589
68,4429.743589,4538.974358,4544.102564,4282.051282,4582.051282,4228.717948,4460.000000,4231.794871,4248.205128,4527.179487,4218.974358,4670.256410,3983.589744,4074.871794
69,4431.282051,4541.538461,4546.153846,4284.102564,4576.923076,4227.179487,4458.974358,4232.307692,4249.230769,4525.641025,4223.589743,4672.820512,3983.589744,4078.974358
70,4427.692307,4542.051282,4542.051282,4282.564102,4568.205128,4218.974358,4454.871794,4230.769230,4250.256410,4526.666666,4211.794871,4668.717948,3985.641026,4081.025641
71,4427.692307,4540.000000,4536.923076,4279.487179,4567.692307,4214.358974,4456.410256,4231.794871,4255.384615,4534.871794,4209.743589,4669.743589,3990.256411,4078.974358
72,4427.692307,4539.487179,4537.948717,4282.051282,4571.794871,4220.000000,4458.974358,4235.384615,4262.564102,4543.589743,4217.948717,4674.871794,3990.769231,4076.410256
73,4426.153846,4538.974358,4542.051282,4281.538461,4572.820512,4224.102564,4457.948717,4234.871794,4264.102564,4532.820512,4220.000000,4672.307692,3983.076924,4075.384615
74,4428.717948,4537.948717,4544.102564,4279.487179,4575.897435,4223.589743,4458.461538,4233.846153,4259.487179,4524.615384,4217.948717,4669.230769,3985.641026,4077.948717
75,4431.794871,4542.051282,4544.615384,4282.051282,4575.897435,4222.564102,4457.435897,4235.897435,4253.846153,4531.794871,4220.512820,4673.333333,3992.820513,4078.974358
76,4429.743589,4538.461538,4540.512820,4281.025641,4568.205128,4219.487179,4449.230769,4231.282051,4247.692307,4529.230769,4218.461538,4670.256410,3987.179488,4072.820512
77,4424.615384,4528.717948,4532.820512,4271.282051,4566.153846,4217.435897,4442.051282,4222.564102,4248.717948,4524.102564,4210.256410,4663.076923,3981.538462,4069.230769
78,4417.435897,4525.641025,4528.717948,4264.102564,4566.153846,4211.282051,4442.051282,4218.974358,4247.692307,4525.128205,4205.641025,4660.512820,3982.564103,4066.666666
79,4413.846153,4525.128205,4533.333333,4270.256410,4558.461538,4203.076923,4442.564102,4215.384615,4235.384615,4515.384615,4204.615384,4657.948717,3975.384616,4061.538461
80,4421.025641,4527.692307,4540.512820,4280.512820,4556.923076,4206.666666,4447.179487,4220.000000,4234.871794,4513.333333,4212.820512,4663.076923,3969.743590,4062.051282
81,4430.769230,4536.923076,4547.179487,4283.589743,4565.641025,4217.948717,4457.948717,4232.307692,4247.692307,4532.307692,4220.512820,4677.948717,3982.051283,4073.333333
82,4429.230769,4541.538461,4549.230769,4282.564102,4570.256410,4220.000000,4461.538461,4231.794871,4250.769230,4539.487179,4216.410256,4680.512820,3986.153847,4080.000000
83,4421.025641,4536.410256,4543.589743,4282.564102,4567.179487,4213.333333,4449.743589,4217.435897,4241.538461,4520.000000,4209.230769,4670.256410,3973.333334,4071.282051
84,4421.025641,4534.358974,4539.487179,4280.512820,4558.974358,4213.846153,4444.102564,4213.333333,4234.871794,4506.153846,4203.589743,4669.230769,3968.205129,4060.512820
85,4426.153846,4540.512820,4544.102564,4279.487179,4558.974358,4217.435897,4453.333333,4221.025641,4239.487179,4514.871794,4205.641025,4678.461538,3976.410257,4065.128205
86,4426.153846,4537.948717,4544.102564,4281.538461,4566.666666,4218.974358,4459.487179,4221.025641,4244.102564,4524.102564,4212.820512,4676.410256,3980.512821,4070.256410
87,4419.487179,4527.692307,4535.897435,4281.025641,4563.589743,4216.923076,4456.410256,4214.871794,4235.897435,4512.307692,4211.794871,4667.179487,3976.923077,4064.615384
88,4413.333333,4529.230769,4536.410256,4278.461538,4556.923076,4213.333333,4455.384615,4214.358974,4233.846153,4502.051282,4207.692307,4668.205128,3973.333334,4064.615384
89,4416.410256,4538.974358,4540.512820,4278.461538,4561.538461,4214.358974,4457.948717,4217.948717,4244.615384,4517.435897,4213.333333,4670.769230,3974.358975,4071.794871
90,4426.666666,4541.025641,4534.871794,4280.512820,4566.153846,4216.923076,4458.974358,4219.487179,4247.692307,4529.230769,4215.897435,4666.666666,3978.461539,4070.256410
91,4426.666666,4538.461538,4530.769230,4282.051282,4564.615384,4216.923076,4456.923076,4217.948717,4244.102564,4525.128205,4212.307692,4665.128205,3975.897436,4064.615384
92,4414.871794,4534.358974,4531.794871,4279.487179,4563.076923,4211.794871,4447.692307,4211.794871,4241.538461,4518.974358,4213.846153,4666.666666,3966.666667,4062.564102
93,4410.256410,4532.307692,4527.179487,4276.923076,4562.564102,4211.282051,4441.025641,4204.615384,4234.358974,4510.256410,4208.205128,4659.487179,3964.102565,4059.487179
94,4412.820512,4530.769230,4520.000000,4273.333333,4563.076923,4211.282051,4441.538461,4200.512820,4229.230769,4502.051282,4194.871794,4652.307692,3964.615385,4058.461538
95,4411.282051,4527.692307,4522.564102,4270.256410,4558.974358,4206.153846,4442.564102,4201.538461,4231.282051,4506.666666,4198.461538,4655.384615,3964.102565,4058.974358
96,4411.794871,4528.205128,4528.205128,4272.820512,4551.282051,4203.589743,4443.589743,4205.641025,4230.769230,4515.384615,4212.820512,4663.076923,3970.256411,4058.461538
97,4413.846153,4528.717948,4526.153846,4271.794871,4556.410256,4204.102564,4446.666666,4204.615384,4229.743589,4512.820512,4209.743589,4661.025641,3974.871795,4060.000000
98,4410.769230,4524.102564,4521.025641,4262.564102,4558.461538,4204.102564,4446.153846,4203.589743,4235.384615,4510.256410,4199.487179,4652.820512,3966.666667,4057.948717
99,4410.256410,4526.153846,4526.153846,4262.564102,4552.307692,4204.102564,4445.641025,4212.820512,4245.128205,4516.923076,4207.179487,4656.923076,3967.179488,4057.435897
100,4415.897435,4533.846153,4533.333333,4276.923076,4560.512820,4211.794871,4451.282051,4219.487179,4248.717948,4523.076923,4218.974358,4664.615384,3981.025642,4064.615384
101,4415.897435,4530.769230,4530.256410,4281.538461,4568.717948,4214.358974,4450.769230,4213.846153,4243.589743,4522.564102,4216.410256,4661.025641,3979.487180,4067.692307
102,4410.769230,4525.641025,4529.743589,4270.256410,4561.025641,4203.589743,4445.128205,4212.820512,4244.102564,4523.589743,4215.897435,4658.461538,3969.230770,4065.128205
103,4411.794871,4530.256410,4534.358974,4269.743589,4558.974358,4204.102564,4447.692307,4217.435897,4248.717948,4523.076923,4220.000000,4664.615384,3973.846154,4068.717948
104,4415.897435,4535.384615,4533.846153,4277.948717,4566.666666,4211.794871,4451.282051,4218.461538,4249.230769,4518.461538,4218.461538,4668.717948,3981.025642,4069.743589
105,4414.871794,4538.461538,4531.794871,4279.487179,4569.230769,4210.256410,4448.717948,4220.512820,4250.256410,4522.051282,4217.948717,4665.641025,3978.461539,4061.025641
106,4411.794871,4539.487179,4532.820512,4276.923076,4567.179487,4207.179487,4445.641025,4220.000000,4254.358974,4529.743589,4218.461538,4662.051282,3976.410257,4065.641025
107,4410.769230,4532.820512,4524.102564,4274.358974,4561.025641,4206.153846,4443.076923,4212.307692,4249.743589,4528.205128,4216.923076,4660.000000,3976.923077,4073.846153
108,4409.230769,4528.717948,4518.461538,4275.384615,4558.461538,4203.076923,4441.538461,4210.769230,4245.128205,4523.076923,4219.487179,4661.538461,3977.435898,4068.205128
109,4407.179487,4532.307692,4525.128205,4277.948717,4567.179487,4205.128205,4445.128205,4212.820512,4247.692307,4517.948717,4216.923076,4660.512820,3981.025642,4063.076923
110,4400.512820,4530.769230,4520.512820,4273.846153,4564.615384,4208.717948,4443.589743,4204.615384,4241.538461,4510.256410,4204.102564,4651.282051,3974.871795,4058.461538
111,4392.307692,4519.487179,4508.205128,4269.230769,4550.769230,4199.487179,4439.487179,4197.435897,4235.897435,4510.769230,4203.076923,4646.153846,3961.538462,4049.743589
112,4395.897435,4520.512820,4512.820512,4274.358974,4549.743589,4196.923076,4442.564102,4200.512820,4240.000000,4513.333333,4214.871794,4653.333333,3964.102565,4052.820512
113,4405.128205,4532.820512,4524.615384,4280.512820,4558.974358,4210.256410,4445.128205,4208.717948,4242.051282,4511.282051,4217.948717,4658.461538,3976.410257,4066.666666
114,4404.615384,4536.410256,4526.153846,4278.974358,4563.589743,4214.358974,4442.564102,4211.794871,4237.435897,4510.256410,4210.769230,4657.948717,3978.461539,4066.153846
115,4403.076923,4538.974358,4526.153846,4277.948717,4559.487179,4207.692307,4443.589743,4207.179487,4240.000000,4516.410256,4212.307692,4660.512820,3971.794872,4059.487179
116,4405.641025,4539.487179,4529.743589,4280.000000,4558.974358,4207.692307,4444.615384,4203.589743,4243.589743,4521.538461,4221.538461,4661.025641,3967.179488,4065.128205
117,4400.000000,4528.205128,4525.128205,4278.974358,4563.589743,4208.717948,4438.974358,4200.512820,4235.897435,4511.282051,4215.384615,4654.871794,3966.153847,4064.615384
118,4393.846153,4524.102564,4519.487179,4275.384615,4561.538461,4204.615384,4435.384615,4195.384615,4228.205128,4498.974358,4200.000000,4651.794871,3969.230770,4055.897435
119,4399.487179,4534.871794,4523.076923,4275.897435,4554.358974,4205.641025,4436.410256,4194.871794,4229.743589,4500.512820,4201.025641,4654.871794,3972.307693,4059.487179
120,4405.641025,4540.000000,4528.205128,4286.153846,4554.358974,4208.205128,4438.974358,4201.538461,4235.897435,4509.230769,4215.384615,4659.487179,3965.128206,4065.641025
121,4402.564102,4535.897435,4526.153846,4290.769230,4560.512820,4209.743589,4440.000000,4200.512820,4234.358974,4508.205128,4219.487179,4661.025641,3956.923077,4061.538461
122,4406.153846,4538.974358,4527.692307,4287.179487,4564.615384,4214.871794,4441.538461,4198.461538,4228.205128,4500.512820,4210.769230,4660.000000,3964.102565,4064.615384
123,4410.769230,4540.512820,4530.769230,4284.615384,4561.025641,4214.871794,4438.461538,4200.512820,4229.230769,4496.923076,4202.051282,4656.410256,3973.333334,4067.179487
124,4405.128205,4534.871794,4526.153846,4281.538461,4552.820512,4205.641025,4429.743589,4196.923076,4230.769230,4500.512820,4202.051282,4652.820512,3969.230770,4057.948717
125,4406.153846,4535.897435,4523.589743,4280.000000,4552.307692,4205.128205,4430.769230,4198.974358,4233.846153,4510.256410,4212.307692,4653.846153,3969.230770,4057.948717
126,4412.307692,4537.948717,4527.179487,4282.051282,4555.384615,4210.256410,4437.948717,4207.179487,4235.384615,4508.205128,4220.000000,4655.897435,3973.333334,4064.615384
127,4407.692307,4538.461538,4526.153846,4282.051282,4553.846153,4213.333333,4435.384615,4204.615384,4231.794871,4503.589743,4213.846153,4654.358974,3967.692308,4065.641025
128,4404.615384,4537.435897,4524.615384,4279.487179,4554.358974,4215.384615,4433.333333,4198.461538,4228.717948,4506.666666,4209.230769,4652.820512,3965.128206,4066.666666
129,4412.307692,4538.974358,4527.179487,4283.589743,4555.897435,4215.384615,4443.589743,4206.153846,4232.307692,4507.179487,4212.307692,4656.410256,3974.871795,4069.230769
130,4414.358974,4537.948717,4526.666666,4287.692307,4554.358974,4212.820512,4444.615384,4214.871794,4235.897435,4507.179487,4218.974358,4658.974358,3976.410257,4067.179487
131,4404.615384,4531.282051,4520.512820,4283.589743,4553.333333,4210.769230,4430.769230,4206.153846,4234.358974,4507.179487,4217.948717,4655.897435,3965.128206,4062.564102
132,4397.435897,4525.641025,4517.435897,4279.487179,4552.820512,4209.230769,4427.179487,4195.384615,4226.153846,4497.435897,4205.128205,4649.743589,3960.000000,4058.974358
133,4395.897435,4526.153846,4517.435897,4276.923076,4553.333333,4206.153846,4432.820512,4198.461538,4217.948717,4493.333333,4194.871794,4646.666666,3963.076924,4054.871794
134,4396.923076,4522.051282,4518.974358,4274.358974,4552.820512,4207.179487,4430.256410,4203.589743,4221.538461,4504.102564,4201.538461,4645.641025,3957.435898,4052.307692
135,4395.897435,4517.435897,4523.076923,4276.923076,4551.794871,4209.743589,4429.230769,4200.000000,4228.205128,4505.128205,4212.820512,4648.205128,3952.820513,4054.871794
136,4396.923076,4529.743589,4531.794871,4282.051282,4552.307692,4212.820512,4438.974358,4204.615384,4230.256410,4499.487179,4217.435897,4657.435897,3965.128206,4063.076923
137,4398.974358,4537.948717,4533.333333,4282.051282,4555.897435,4216.410256,4445.641025,4214.358974,4232.307692,4504.102564,4216.923076,4663.076923,3974.871795,4066.153846
138,4393.333333,4524.102564,4522.564102,4277.948717,4554.871794,4210.256410,4437.435897,4210.769230,4230.256410,4503.589743,4209.230769,4653.333333,3965.641026,4057.435897
139,4387.692307,4514.871794,4519.487179,4275.384615,4549.230769,4205.128205,4429.230769,4199.487179,4225.128205,4500.512820,4201.538461,4645.641025,3955.384616,4050.769230
140,4387.692307,4523.589743,4523.076923,4276.923076,4549.743589,4210.769230,4428.205128,4197.948717,4222.051282,4502.564102,4201.025641,4648.717948,3952.820513,4048.717948
141,4387.692307,4528.717948,4523.589743,4282.051282,4555.897435,4214.358974,4428.205128,4201.538461,4222.051282,4500.512820,4202.051282,4649.743589,3953.846154,4047.179487
142,4387.692307,4521.538461,4523.076923,4282.564102,4552.307692,4205.641025,4426.666666,4202.051282,4223.076923,4495.384615,4199.487179,4648.205128,3955.384616,4051.282051
143,4390.256410,4518.974358,4523.076923,4277.435897,4543.589743,4202.564102,4428.205128,4201.025641,4223.076923,4494.358974,4196.923076,4649.230769,3955.384616,4054.358974
144,4391.282051,4520.000000,4522.051282,4278.461538,4547.692307,4209.743589,4433.333333,4205.128205,4223.589743,4497.948717,4207.692307,4651.282051,3956.410257,4046.153846
145,4388.717948,4520.512820,4524.102564,4281.025641,4554.871794,4214.871794,4437.435897,4211.794871,4229.230769,4501.025641,4217.435897,4652.820512,3960.512821,4044.615384
146,4388.717948,4521.538461,4529.230769,4279.487179,4553.333333,4216.923076,4437.948717,4216.410256,4234.871794,4500.000000,4211.794871,4656.410256,3965.128206,4055.897435
147,4389.743589,4521.538461,4527.179487,4280.512820,4553.846153,4217.435897,4435.897435,4216.410256,4235.384615,4501.538461,4206.153846,4658.461538,3968.717949,4062.051282
148,4386.153846,4519.487179,4520.000000,4276.410256,4556.923076,4212.307692,4429.743589,4207.692307,4229.230769,4505.128205,4207.692307,4652.307692,3964.615385,4055.897435
149,4385.641025,4523.589743,4516.410256,4271.282051,4552.820512,4205.128205,4424.102564,4202.051282,4226.153846,4505.641025,4211.282051,4646.153846,3955.384616,4046.666666
150,4392.820512,4530.256410,4524.102564,4282.051282,4547.179487,4208.717948,4425.641025,4211.794871,4235.384615,4511.794871,4217.435897,4654.871794,3962.564103,4052.307692
151,4398.461538,4529.230769,4531.794871,4294.871794,4550.256410,4215.897435,4430.769230,4220.000000,4243.589743,4518.974358,4223.076923,4666.666666,3976.923077,4067.692307
152,4396.923076,4532.307692,4527.692307,4290.256410,4553.333333,4215.384615,4430.256410,4212.820512,4235.897435,4508.205128,4217.948717,4661.025641,3976.410257,4070.769230
153,4396.410256,4534.358974,4522.051282,4281.538461,4553.846153,4210.256410,4427.692307,4209.230769,4228.205128,4500.512820,4214.358974,4654.358974,3969.230770,4065.128205
154,4397.948717,4526.153846,4523.076923,4281.538461,4555.384615,4206.666666,4427.179487,4214.871794,4236.923076,4514.358974,4220.000000,4660.000000,3965.641026,4062.564102
155,4397.948717,4523.076923,4526.666666,4281.025641,4556.923076,4210.256410,4429.743589,4217.948717,4244.102564,4518.974358,4216.410256,4665.128205,3965.641026,4058.461538
156,4402.051282,4527.692307,4528.717948,4279.487179,4556.410256,4216.923076,4432.307692,4217.948717,4239.487179,4512.820512,4210.256410,4664.102564,3978.461539,4059.487179
157,4402.564102,4525.128205,4525.641025,4273.846153,4556.410256,4214.871794,4432.820512,4218.461538,4235.384615,4518.461538,4208.717948,4660.000000,3992.307693,4072.307692
158,4395.384615,4517.435897,4521.538461,4268.205128,4555.384615,4211.282051,4429.230769,4216.410256,4235.384615,4524.102564,4204.102564,4655.897435,3980.000000,4069.743589
159,4398.974358,4522.051282,4527.179487,4278.461538,4558.974358,4214.871794,4431.794871,4216.410256,4241.538461,4518.974358,4205.128205,4656.923076,3963.589744,4058.461538
160,4412.820512,4532.307692,4536.410256,4291.282051,4567.692307,4217.435897,4442.564102,4223.589743,4245.641025,4517.435897,4211.794871,4663.589743,3972.820513,4068.717948
161,4413.846153,4530.256410,4535.897435,4286.666666,4570.769230,4216.923076,4444.615384,4226.153846,4244.615384,4522.564102,4209.230769,4665.128205,3989.230770,4078.461538
162,4405.128205,4518.461538,4529.230769,4276.923076,4567.692307,4220.512820,4441.538461,4224.615384,4244.615384,4524.102564,4202.564102,4664.102564,3987.692308,4065.641025
163,4406.666666,4523.076923,4527.692307,4278.461538,4567.179487,4223.589743,4444.102564,4228.205128,4243.076923,4526.153846,4201.025641,4664.102564,3977.948718,4062.564102
164,4417.435897,4537.948717,4532.307692,4280.000000,4567.692307,4221.538461,4444.615384,4230.769230,4238.974358,4525.128205,4204.102564,4667.179487,3974.358975,4077.435897
165,4423.076923,4540.000000,4538.461538,4281.538461,4567.692307,4219.487179,4442.051282,4229.743589,4241.025641,4521.025641,4211.794871,4672.820512,3974.358975,4079.487179
166,4421.025641,4537.435897,4540.000000,4285.128205,4568.717948,4221.025641,4441.538461,4229.230769,4245.641025,4525.128205,4213.333333,4674.358974,3979.487180,4074.871794
167,4419.487179,4539.487179,4536.923076,4283.076923,4567.692307,4218.461538,4437.948717,4227.179487,4241.538461,4523.076923,4206.153846,4670.256410,3987.692308,4080.000000
168,4420.000000,4538.974358,4537.948717,4279.487179,4564.102564,4214.358974,4435.384615,4227.179487,4238.974358,4515.897435,4206.153846,4668.205128,3985.641026,4083.076923
169,4421.025641,4541.025641,4544.615384,4290.256410,4565.128205,4217.948717,4442.564102,4232.820512,4241.538461,4523.076923,4213.333333,4673.846153,3977.435898,4083.076923
170,4420.000000,4543.076923,4546.153846,4297.948717,4570.256410,4220.512820,4446.153846,4232.820512,4240.512820,4525.128205,4215.897435,4678.461538,3976.923077,4082.564102
171,4414.871794,4533.333333,4536.410256,4286.153846,4567.692307,4217.435897,4441.538461,4229.743589,4235.384615,4510.256410,4211.282051,4670.769230,3982.051283,4075.384615
172,4410.769230,4529.743589,4533.333333,4280.512820,4562.564102,4216.923076,4440.512820,4230.256410,4233.333333,4507.179487,4202.564102,4664.615384,3981.025642,4072.307692
173,4412.820512,4534.358974,4538.461538,4284.615384,4562.564102,4217.948717,4441.538461,4231.282051,4234.358974,4523.076923,4202.051282,4666.666666,3974.871795,4075.897435
174,4412.820512,4531.282051,4536.923076,4284.102564,4558.974358,4216.923076,4438.974358,4231.794871,4234.871794,4529.230769,4209.743589,4666.153846,3970.256411,4073.846153
175,4408.717948,4531.794871,4536.923076,4284.102564,4557.948717,4219.487179,4439.487179,4232.307692,4234.358974,4520.000000,4212.307692,4667.179487,3973.846154,4071.794871
176,4409.743589,4541.025641,4543.076923,4287.179487,4561.538461,4222.564102,4444.615384,4228.717948,4232.307692,4509.230769,4216.410256,4675.897435,3978.461539,4075.897435
177,4411.282051,4540.512820,4543.076923,4286.666666,4561.538461,4218.974358,4442.051282,4225.641025,4233.333333,4507.692307,4216.923076,4677.948717,3979.487180,4080.000000
178,4408.717948,4536.410256,4542.051282,4289.743589,4564.102564,4214.871794,4436.410256,4231.282051,4240.512820,4521.538461,4215.384615,4674.358974,3982.051283,4084.102564
179,4403.589743,4541.538461,4547.179487,4295.384615,4573.333333,4217.948717,4438.461538,4231.282051,4241.538461,4525.128205,4216.923076,4673.846153,3979.487180,4084.102564
180,4400.000000,4541.538461,4542.051282,4292.820512,4571.794871,4220.000000,4438.461538,4223.589743,4235.897435,4510.256410,4212.307692,4668.717948,3968.205129,4072.820512
181,4405.641025,4539.487179,4537.435897,4292.307692,4564.102564,4217.435897,4436.923076,4226.666666,4240.000000,4513.333333,4209.230769,4668.717948,3971.794872,4072.307692
182,4412.820512,4545.641025,4544.102564,4297.948717,4569.743589,4220.512820,4440.512820,4235.897435,4248.205128,4532.820512,4217.435897,4677.435897,3989.230770,4084.615384
183,4416.923076,4552.820512,4548.205128,4302.051282,4577.435897,4230.769230,4444.615384,4238.461538,4251.282051,4537.435897,4226.666666,4681.538461,3993.846154,4095.384615
184,4423.589743,4557.948717,4550.769230,4307.179487,4577.948717,4235.897435,4445.128205,4246.666666,4255.384615,4534.358974,4232.307692,4683.076923,3992.820513,4102.051282
185,4423.589743,4559.487179,4552.307692,4309.230769,4576.923076,4233.333333,4445.641025,4250.769230,4254.358974,4536.923076,4235.384615,4684.615384,3998.974359,4101.025641
186,4414.871794,4555.897435,4549.230769,4305.128205,4574.871794,4230.256410,4445.128205,4240.512820,4247.692307,4535.384615,4233.333333,4682.051282,4002.051282,4091.794871
187,4408.205128,4544.615384,4544.102564,4296.923076,4571.282051,4223.076923,4429.230769,4231.794871,4244.102564,4525.641025,4222.051282,4675.384615,3993.846154,4082.564102
188,4404.615384,4536.410256,4538.974358,4289.230769,4567.179487,4217.948717,4407.692307,4229.230769,4242.564102,4519.487179,4217.435897,4669.743589,3976.410257,4081.025641
189,4406.153846,4543.589743,4541.025641,4295.897435,4565.641025,4224.102564,4400.000000,4231.282051,4248.205128,4522.051282,4221.025641,4674.358974,3971.794872,4088.205128
190,4413.846153,4556.410256,4548.717948,4311.794871,4566.666666,4231.794871,4405.641025,4235.897435,4250.256410,4527.692307,4222.051282,4681.538461,3983.589744,4093.333333
191,4414.358974,4554.871794,4548.717948,4307.179487,4567.692307,4230.769230,4404.102564,4234.358974,4245.128205,4524.102564,4216.410256,4677.948717,3988.205129,4087.692307
192,4408.717948,4543.076923,4542.564102,4293.846153,4568.717948,4229.743589,4402.051282,4231.282051,4246.666666,4520.512820,4218.461538,4674.871794,3979.487180,4081.538461
193,4409.230769,4545.641025,4546.153846,4303.076923,4568.717948,4231.794871,4408.717948,4236.923076,4250.769230,4531.282051,4227.179487,4680.512820,3975.897436,4084.615384
194,4411.282051,4549.230769,4551.794871,4311.282051,4570.769230,4233.333333,4414.358974,4241.538461,4249.230769,4539.487179,4227.692307,4682.051282,3977.435898,4090.769230
195,4409.230769,4546.666666,4552.307692,4301.025641,4571.282051,4233.333333,4411.282051,4235.897435,4249.230769,4529.743589,4220.512820,4679.487179,3980.000000,4092.307692
196,4406.153846,4544.615384,4545.641025,4296.923076,4566.666666,4231.794871,4407.179487,4231.794871,4246.666666,4515.384615,4216.923076,4676.410256,3981.538462,4085.641025
197,4400.000000,4540.512820,4535.897435,4294.358974,4560.000000,4230.769230,4404.102564,4232.820512,4235.384615,4508.717948,4216.923076,4669.230769,3969.230770,4077.435897
198,4395.897435,4537.435897,4537.435897,4290.769230,4560.000000,4230.769230,4401.025641,4233.333333,4237.435897,4516.923076,4213.846153,4667.692307,3959.487180,4076.410256
199,4398.461538,4539.487179,4541.538461,4298.461538,4565.128205,4228.717948,4402.051282,4231.794871,4245.128205,4525.641025,4214.358974,4670.769230,3965.128206,4074.871794
200,4398.461538,4540.512820,4541.025641,4305.128205,4567.692307,4226.666666,4401.025641,4230.256410,4240.000000,4514.358974,4216.410256,4667.692307,3969.230770,4070.256410
201,4397.948717,4541.025641,4541.025641,4303.076923,4569.743589,4228.205128,4396.923076,4228.717948,4234.871794,4507.692307,4213.333333,4664.102564,3968.205129,4071.794871
202,4405.128205,4551.794871,4539.487179,4308.205128,4567.692307,4230.769230,4398.974358,4227.179487,4241.025641,4523.076923,4213.333333,4667.179487,3972.307693,4078.974358
203,4409.230769,4557.948717,4536.923076,4313.846153,4564.102564,4234.358974,4401.538461,4228.717948,4243.076923,4526.153846,4217.948717,4668.717948,3976.410257,4080.000000
204,4403.076923,4545.641025,4535.897435,4305.128205,4563.076923,4229.230769,4395.384615,4223.589743,4233.846153,4507.179487,4214.358974,4665.128205,3965.128206,4070.769230
205,4400.512820,4540.000000,4533.333333,4297.948717,4559.487179,4220.000000,4391.794871,4214.871794,4230.769230,4503.589743,4206.153846,4660.512820,3959.487180,4066.153846
206,4402.564102,4547.692307,4531.282051,4304.615384,4560.000000,4224.102564,4396.923076,4222.051282,4235.897435,4514.871794,4208.205128,4658.974358,3969.230770,4074.358974
207,4397.948717,4547.179487,4532.820512,4303.589743,4563.076923,4225.641025,4395.897435,4225.128205,4236.923076,4516.410256,4207.179487,4657.435897,3965.641026,4075.384615
208,4394.871794,4537.948717,4531.794871,4294.358974,4560.000000,4218.974358,4393.333333,4221.025641,4236.923076,4508.717948,4202.564102,4653.846153,3954.871795,4068.205128
209,4402.051282,4537.435897,4530.769230,4300.512820,4555.897435,4218.974358,4400.000000,4226.666666,4238.461538,4507.179487,4209.743589,4657.948717,3962.564103,4069.743589
210,4405.128205,4540.512820,4535.897435,4309.743589,4560.000000,4223.589743,4406.153846,4228.205128,4236.923076,4507.692307,4218.461538,4664.102564,3968.717949,4070.769230
211,4399.487179,4537.948717,4540.000000,4303.589743,4558.461538,4224.102564,4403.589743,4224.102564,4234.358974,4503.076923,4215.384615,4661.025641,3960.000000,4064.615384
212,4396.410256,4535.384615,4539.487179,4297.435897,4551.794871,4223.589743,4404.102564,4226.153846,4236.923076,4504.615384,4207.692307,4656.410256,3960.000000,4064.102564
213,4395.897435,4532.820512,4533.333333,4294.871794,4555.897435,4221.538461,4404.615384,4228.205128,4238.974358,4513.333333,4208.205128,4655.384615,3961.538462,4065.128205
214,4390.256410,4528.205128,4527.179487,4290.256410,4553.846153,4216.923076,4400.000000,4224.102564,4235.897435,4515.384615,4210.256410,4651.794871,3955.897436,4058.974358
215,4385.641025,4525.128205,4525.641025,4289.230769,4543.589743,4218.974358,4399.487179,4223.076923,4234.871794,4509.743589,4208.205128,4648.717948,3955.384616,4054.358974
216,4388.717948,4529.743589,4528.717948,4291.282051,4543.589743,4224.615384,4400.000000,4224.102564,4236.410256,4507.692307,4206.666666,4652.820512,3957.948718,4056.923076
217,4392.820512,4536.923076,4531.794871,4291.794871,4554.358974,4226.666666,4401.538461,4229.743589,4235.384615,4509.230769,4212.307692,4655.384615,3958.974359,4063.589743
218,4397.435897,4539.487179,4533.846153,4297.948717,4556.410256,4231.794871,4409.743589,4235.384615,4240.000000,4511.794871,4219.487179,4658.461538,3971.282052,4074.358974
219,4401.538461,4538.974358,4535.384615,4301.538461,4551.794871,4231.794871,4411.282051,4231.794871,4248.205128,4510.769230,4217.435897,4662.564102,3980.512821,4076.923076
220,4396.410256,4538.461538,4533.333333,4296.923076,4553.333333,4222.564102,4404.102564,4230.256410,4242.051282,4502.564102,4210.256410,4656.923076,3969.230770,4063.589743
221,4391.794871,4536.923076,4528.205128,4295.897435,4553.846153,4220.512820,4403.076923,4231.282051,4232.307692,4506.153846,4209.743589,4650.769230,3962.564103,4058.974358
222,4394.871794,4538.974358,4528.205128,4301.025641,4551.794871,4224.102564,4406.666666,4231.282051,4243.076923,4518.461538,4217.435897,4655.897435,3967.692308,4070.769230
223,4396.923076,4540.512820,4536.923076,4301.025641,4553.846153,4221.025641,4406.666666,4233.333333,4251.794871,4517.435897,4221.025641,4664.102564,3966.153847,4073.333333
224,4399.487179,4535.897435,4542.564102,4299.487179,4551.282051,4221.025641,4410.769230,4234.358974,4246.153846,4515.897435,4218.974358,4668.717948,3969.743590,4066.666666
225,4404.102564,4535.384615,4540.000000,4298.974358,4542.051282,4225.641025,4415.384615,4236.923076,4248.205128,4521.025641,4220.512820,4668.717948,3978.461539,4072.307692
226,4401.538461,4538.974358,4536.410256,4296.410256,4543.076923,4219.487179,4405.641025,4234.358974,4247.692307,4515.384615,4221.025641,4661.025641,3968.717949,4072.307692
227,4394.871794,4531.794871,4535.384615,4296.923076,4549.743589,4212.820512,4397.435897,4222.051282,4234.871794,4504.102564,4211.794871,4653.333333,3952.307693,4061.538461
228,4395.384615,4523.589743,4533.846153,4302.564102,4548.205128,4216.923076,4403.589743,4214.871794,4228.717948,4501.025641,4207.692307,4654.358974,3956.410257,4060.000000
229,4400.000000,4532.820512,4532.307692,4305.128205,4547.692307,4217.948717,4407.179487,4224.102564,4234.871794,4501.538461,4215.897435,4656.410256,3965.641026,4062.564102
230,4399.487179,4537.948717,4534.358974,4303.076923,4551.282051,4217.948717,4407.179487,4231.794871,4238.974358,4504.102564,4216.410256,4655.897435,3964.102565,4055.897435
231,4396.410256,4529.743589,4533.846153,4297.435897,4552.307692,4218.461538,4409.743589,4231.794871,4239.487179,4517.948717,4209.230769,4654.358974,3957.948718,4054.358974
232,4392.820512,4527.692307,4530.256410,4293.846153,4549.230769,4218.461538,4411.282051,4229.230769,4238.974358,4522.051282,4211.282051,4651.794871,3957.948718,4060.512820
233,4389.743589,4530.256410,4530.256410,4295.384615,4549.230769,4220.512820,4408.717948,4225.641025,4235.384615,4505.641025,4212.820512,4650.769230,3963.076924,4058.461538
234,4384.102564,4523.076923,4527.692307,4295.384615,4546.666666,4219.487179,4406.666666,4222.564102,4229.743589,4496.410256,4202.564102,4649.230769,3958.974359,4050.769230
235,4381.025641,4517.435897,4524.615384,4292.820512,4540.000000,4217.948717,4408.205128,4220.000000,4230.769230,4500.512820,4193.846153,4646.666666,3947.692308,4048.717948
236,4384.102564,4524.102564,4525.128205,4290.769230,4543.589743,4218.461538,4411.794871,4220.512820,4234.358974,4501.538461,4202.564102,4648.717948,3949.743590,4055.897435
237,4383.589743,4522.051282,4527.179487,4291.282051,4551.794871,4217.948717,4414.871794,4222.564102,4230.769230,4496.923076,4212.820512,4652.820512,3959.487180,4058.974358
238,4377.948717,4510.769230,4527.179487,4295.897435,4547.692307,4218.974358,4416.923076,4225.641025,4229.743589,4494.871794,4207.179487,4653.333333,3950.256411,4048.717948
239,4376.410256,4510.256410,4527.179487,4296.923076,4540.000000,4219.487179,4417.435897,4225.641025,4231.794871,4494.358974,4203.076923,4653.846153,3936.923077,4043.076923
240,4380.512820,4521.538461,4525.641025,4293.846153,4541.538461,4216.923076,4412.820512,4220.512820,4232.307692,4501.025641,4208.205128,4651.794871,3946.666667,4050.769230
241,4384.102564,4523.589743,4527.179487,4294.871794,4546.153846,4217.435897,4409.743589,4217.948717,4231.794871,4509.230769,4211.282051,4649.230769,3963.589744,4057.435897
242,4382.051282,4518.974358,4528.717948,4297.435897,4546.153846,4216.410256,4412.307692,4217.948717,4231.282051,4505.128205,4214.358974,4650.769230,3963.589744,4055.384615
243,4376.923076,4520.512820,4521.025641,4294.358974,4543.589743,4212.820512,4410.256410,4215.384615,4229.230769,4498.461538,4216.923076,4651.794871,3959.487180,4052.307692
244,4383.076923,4523.589743,4521.025641,4295.384615,4543.589743,4220.512820,4408.717948,4218.461538,4231.794871,4500.000000,4217.948717,4650.769230,3968.205129,4054.871794
245,4393.333333,4528.205128,4533.333333,4299.487179,4551.282051,4227.692307,4413.846153,4226.666666,4238.461538,4507.179487,4224.102564,4657.435897,3971.794872,4062.051282
246,4390.769230,4528.717948,4534.871794,4297.435897,4554.358974,4224.615384,4415.384615,4228.717948,4236.923076,4511.794871,4227.692307,4661.538461,3963.076924,4064.615384
247,4381.538461,4522.051282,4528.717948,4296.923076,4552.307692,4225.128205,4410.769230,4225.641025,4231.282051,4510.769230,4221.025641,4654.358974,3962.564103,4058.461538
248,4382.051282,4521.538461,4528.717948,4302.051282,4556.410256,4227.179487,4411.794871,4224.615384,4230.769230,4511.282051,4216.923076,4650.769230,3971.794872,4054.358974
249,4383.076923,4525.128205,4528.205128,4300.000000,4556.410256,4222.051282,4412.820512,4221.025641,4228.717948,4508.205128,4212.820512,4650.769230,3966.666667,4053.333333
250,4378.974358,4522.564102,4520.512820,4291.794871,4548.205128,4213.846153,4406.153846,4215.384615,4216.923076,4500.512820,4207.692307,4643.589743,3950.256411,4048.717948
251,4382.564102,4522.051282,4517.435897,4294.871794,4546.153846,4218.461538,4405.641025,4215.897435,4220.512820,4501.538461,4219.487179,4643.076923,3953.333334,4052.307692
252,4389.743589,4525.641025,4526.153846,4300.512820,4549.743589,4227.692307,4412.307692,4220.000000,4234.358974,4508.717948,4229.743589,4654.871794,3967.692308,4063.589743
253,4389.230769,4523.589743,4534.358974,4296.923076,4552.307692,4225.641025,4414.358974,4220.512820,4227.179487,4507.692307,4220.000000,4658.974358,3968.205129,4061.538461
254,4388.717948,4521.025641,4532.307692,4294.358974,4555.384615,4221.025641,4413.333333,4217.435897,4221.025641,4502.051282,4218.461538,4654.871794,3962.564103,4053.333333
255,4389.743589,4521.538461,4527.692307,4293.846153,4553.846153,4222.564102,4413.846153,4215.897435,4226.666666,4503.076923,4229.230769,4656.923076,3960.512821,4056.923076
256,4389.743589,4521.025641,4526.153846,4294.871794,4546.666666,4221.538461,4411.794871,4217.948717,4222.564102,4507.692307,4227.179487,4658.974358,3961.538462,4063.076923
257,4388.717948,4519.487179,4527.692307,4295.384615,4547.692307,4216.410256,4410.256410,4216.923076,4219.487179,4507.692307,4214.358974,4656.410256,3965.128206,4059.487179
258,4389.743589,4521.538461,4529.230769,4294.358974,4551.794871,4217.948717,4412.307692,4217.948717,4228.205128,4505.128205,4215.897435,4655.384615,3967.692308,4057.435897
259,4389.743589,4524.615384,4529.743589,4294.871794,4546.153846,4218.974358,4410.769230,4219.487179,4226.666666,4506.153846,4225.128205,4654.871794,3966.666667,4059.487179
260,4387.179487,4524.615384,4525.641025,4294.358974,4544.102564,4214.871794,4406.666666,4215.897435,4216.923076,4506.666666,4221.025641,4652.820512,3964.615385,4058.461538
261,4386.153846,4519.487179,4521.025641,4283.589743,4554.358974,4214.871794,4404.615384,4212.820512,4214.871794,4500.512820,4207.692307,4649.230769,3961.025642,4054.358974
262,4386.666666,4514.358974,4518.974358,4277.948717,4556.410256,4214.871794,4405.641025,4213.846153,4217.435897,4493.846153,4199.487179,4645.641025,3952.820513,4051.794871
263,4390.256410,4516.923076,4524.102564,4283.589743,4551.282051,4214.871794,4411.282051,4215.897435,4227.692307,4500.000000,4201.538461,4649.230769,3952.820513,4055.897435
