,AF3,F7,F3,FC5,T7,P7,O1,O2,P8,T8,FC6,F4,F8,AF4
0,4428.717948,4530.769230,4536.923076,4288.205128,4519.487179,4213.333333,4449.230769,4220.000000,4234.871794,4497.948717,4202.051282,4649.230769,3989.230770,4041.025641
1,4429.743589,4531.794871,4537.435897,4289.230769,4511.282051,4212.307692,4443.076923,4217.948717,4232.307692,4496.923076,4200.512820,4645.128205,3989.743590,4034.871794
2,4441.025641,4536.410256,4537.435897,4298.974358,4519.487179,4214.358974,4444.615384,4216.923076,4230.256410,4503.589743,4215.897435,4652.307692,3985.641026,4042.051282
3,4445.641025,4544.102564,4544.102564,4307.179487,4525.128205,4214.871794,4447.179487,4218.461538,4235.384615,4508.205128,4225.641025,4662.051282,3993.846154,4057.435897
4,4446.666666,4552.307692,4551.794871,4308.717948,4519.487179,4217.435897,4447.692307,4222.564102,4244.615384,4518.974358,4220.000000,4665.128205,4013.333333,4064.615384
5,4444.102564,4550.256410,4545.128205,4304.615384,4520.512820,4217.435897,4446.153846,4221.538461,4242.051282,4520.512820,4214.358974,4660.512820,4012.307692,4055.384615
6,4441.025641,4545.641025,4536.410256,4301.538461,4522.564102,4216.410256,4443.589743,4217.435897,4236.410256,4509.743589,4214.358974,4654.871794,4000.512820,4045.641025
7,4442.564102,4549.743589,4541.025641,4302.051282,4521.538461,4215.897435,4444.615384,4220.000000,4238.974358,4506.153846,4218.461538,4656.410256,3998.461539,4044.102564
8,4435.384615,4545.128205,4541.025641,4297.948717,4522.564102,4212.820512,4444.102564,4218.974358,4235.384615,4501.538461,4210.769230,4651.794871,3993.333334,4040.512820
9,4423.589743,4534.871794,4534.871794,4292.307692,4518.461538,4210.769230,4440.512820,4212.307692,4224.615384,4493.333333,4202.051282,4643.589743,3986.153847,4037.948717
10,4434.358974,4544.615384,4541.538461,4300.512820,4520.000000,4217.948717,4445.128205,4216.923076,4229.230769,4504.615384,4211.282051,4649.230769,3994.358975,4042.564102
11,4444.615384,4548.205128,4547.692307,4309.743589,4527.179487,4222.564102,4448.717948,4222.564102,4236.410256,4509.743589,4217.948717,4657.948717,3998.974359,4045.641025
12,4434.871794,4535.897435,4540.512820,4303.589743,4523.589743,4218.461538,4443.076923,4214.871794,4229.230769,4500.512820,4211.282051,4655.897435,3990.769231,4043.076923
13,4431.282051,4537.948717,4537.948717,4300.000000,4518.974358,4217.435897,4442.564102,4215.384615,4230.256410,4505.641025,4213.333333,4655.897435,3996.923077,4041.538461
14,4433.846153,4544.615384,4542.051282,4301.538461,4523.076923,4217.435897,4446.153846,4226.153846,4239.487179,4510.256410,4218.974358,4655.897435,4005.641025,4038.461538
15,4430.256410,4540.000000,4541.538461,4298.974358,4519.487179,4214.871794,4443.589743,4226.666666,4237.948717,4503.589743,4213.846153,4653.333333,3994.871795,4036.410256
16,4432.307692,4540.000000,4540.512820,4297.435897,4515.897435,4216.923076,4444.615384,4221.538461,4232.820512,4506.153846,4211.282051,4655.897435,3989.230770,4042.564102
17,4435.384615,4541.025641,4541.538461,4303.589743,4521.025641,4216.410256,4447.692307,4217.948717,4233.333333,4508.717948,4213.333333,4656.410256,3999.487180,4045.128205
18,4427.692307,4537.435897,4538.974358,4305.641025,4513.846153,4211.794871,4444.102564,4215.384615,4229.230769,4504.102564,4214.871794,4647.692307,3997.948718,4037.435897
19,4425.128205,4538.974358,4536.923076,4300.000000,4508.205128,4213.333333,4442.051282,4215.384615,4226.666666,4507.179487,4216.410256,4645.641025,3987.692308,4034.871794
20,4428.205128,4538.974358,4536.410256,4295.384615,4516.410256,4209.743589,4439.487179,4210.769230,4228.205128,4506.153846,4215.897435,4649.230769,3984.615385,4034.358974
21,4425.128205,4537.435897,4535.384615,4293.846153,4515.897435,4200.512820,4436.410256,4204.615384,4225.128205,4495.897435,4215.384615,4646.666666,3987.179488,4029.230769
22,4426.153846,4543.076923,4534.871794,4296.923076,4504.615384,4206.153846,4438.974358,4210.256410,4226.666666,4501.025641,4221.025641,4649.230769,3995.384616,4035.384615
23,4431.794871,4544.102564,4536.923076,4299.487179,4504.615384,4213.846153,4443.076923,4217.948717,4232.820512,4507.692307,4221.025641,4656.923076,4002.564102,4047.179487
24,4429.743589,4536.923076,4536.410256,4298.461538,4516.410256,4209.743589,4441.025641,4213.333333,4230.769230,4501.025641,4218.461538,4651.794871,3991.794872,4039.487179
25,4426.153846,4534.871794,4535.897435,4297.948717,4514.358974,4210.256410,4440.000000,4211.282051,4227.692307,4500.512820,4226.153846,4646.153846,3984.102565,4032.307692
26,4433.846153,4544.102564,4537.948717,4305.128205,4509.743589,4217.435897,4443.076923,4215.897435,4233.846153,4510.256410,4237.435897,4653.333333,3998.461539,4045.641025
27,4441.025641,4548.717948,4539.487179,4309.230769,4519.487179,4216.410256,4443.076923,4215.897435,4238.974358,4514.358974,4231.282051,4658.461538,4008.717948,4048.205128
28,4438.974358,4543.589743,4539.487179,4304.615384,4524.102564,4212.820512,4441.538461,4215.897435,4238.461538,4518.974358,4220.000000,4655.897435,4003.589743,4042.051282
29,4439.487179,4538.974358,4539.487179,4303.076923,4515.897435,4216.410256,4443.076923,4218.461538,4240.512820,4522.051282,4225.641025,4656.923076,4001.025641,4052.307692
30,4442.564102,4537.948717,4538.461538,4302.051282,4512.307692,4212.820512,4442.564102,4217.435897,4243.076923,4510.769230,4234.871794,4658.461538,4004.615384,4057.948717
31,4441.538461,4543.076923,4536.923076,4297.435897,4515.897435,4206.153846,4437.948717,4215.897435,4239.487179,4501.538461,4236.410256,4655.897435,4002.564102,4050.256410
32,4440.512820,4545.128205,4537.435897,4298.461538,4514.358974,4209.230769,4436.923076,4213.846153,4231.282051,4502.051282,4226.666666,4653.333333,3989.743590,4046.666666
33,4443.076923,4541.025641,4539.487179,4306.666666,4510.256410,4215.384615,4435.384615,4207.692307,4230.256410,4502.051282,4217.948717,4654.871794,3984.102565,4048.717948
34,4443.076923,4543.076923,4537.435897,4308.717948,4508.717948,4212.820512,4433.333333,4205.641025,4233.333333,4500.000000,4225.128205,4656.923076,3996.410257,4049.743589
35,4443.589743,4551.282051,4539.487179,4307.179487,4512.820512,4211.282051,4437.948717,4211.794871,4232.307692,4501.538461,4233.846153,4657.948717,4004.102564,4048.717948
36,4447.179487,4557.435897,4548.717948,4313.846153,4523.076923,4216.923076,4443.076923,4216.410256,4231.794871,4509.230769,4235.384615,4660.512820,3995.897436,4054.358974
37,4448.205128,4555.384615,4548.205128,4319.487179,4525.641025,4218.461538,4443.589743,4217.948717,4233.333333,4515.384615,4234.358974,4661.025641,3993.333334,4061.025641
38,4444.615384,4546.153846,4537.435897,4309.230769,4517.948717,4214.871794,4437.948717,4210.769230,4229.230769,4505.128205,4224.102564,4651.794871,3994.871795,4053.846153
39,4439.487179,4538.461538,4532.307692,4294.358974,4513.846153,4212.820512,4432.820512,4205.641025,4226.153846,4490.769230,4214.871794,4643.076923,3991.794872,4044.615384
40,4442.564102,4543.589743,4538.461538,4297.948717,4518.974358,4214.871794,4438.974358,4212.307692,4229.230769,4496.410256,4228.205128,4650.256410,3994.358975,4049.230769
41,4447.179487,4549.230769,4541.025641,4306.153846,4524.102564,4215.897435,4443.076923,4212.820512,4228.717948,4503.589743,4236.923076,4659.487179,3992.820513,4047.179487
42,4443.076923,4541.538461,4532.820512,4295.897435,4513.846153,4204.615384,4432.307692,4202.051282,4221.538461,4492.820512,4218.461538,4651.282051,3977.435898,4036.923076
43,4437.948717,4533.846153,4529.743589,4288.717948,4500.000000,4199.487179,4429.743589,4207.179487,4218.974358,4485.641025,4211.794871,4643.076923,3973.846154,4040.512820
44,4442.564102,4538.461538,4538.461538,4299.487179,4507.179487,4211.794871,4443.589743,4219.487179,4227.179487,4498.974358,4227.692307,4654.358974,3991.282052,4051.794871
45,4447.179487,4549.230769,4544.102564,4307.692307,4522.564102,4220.512820,4448.205128,4219.487179,4236.410256,4512.820512,4236.410256,4668.205128,4004.102564,4057.435897
46,4444.615384,4550.769230,4538.974358,4300.512820,4522.564102,4217.948717,4442.051282,4217.435897,4230.769230,4503.076923,4234.358974,4662.564102,3999.487180,4055.897435
47,4443.076923,4540.000000,4536.410256,4292.307692,4517.948717,4216.410256,4438.461538,4215.384615,4222.564102,4492.820512,4233.333333,4652.820512,3987.179488,4051.794871
48,4444.615384,4535.897435,4536.923076,4292.820512,4515.897435,4210.769230,4440.000000,4213.333333,4224.615384,4501.025641,4234.871794,4655.897435,3987.692308,4049.230769
49,4446.153846,4540.000000,4537.948717,4296.923076,4515.897435,4208.205128,4444.615384,4218.974358,4226.666666,4504.615384,4235.384615,4663.076923,4000.512820,4053.333333
50,4446.153846,4538.461538,4539.487179,4298.461538,4515.897435,4212.307692,4440.512820,4215.384615,4221.025641,4492.307692,4234.358974,4659.487179,3999.487180,4056.410256
51,4444.102564,4534.871794,4538.974358,4293.846153,4512.307692,4206.153846,4430.256410,4205.641025,4219.487179,4487.692307,4231.794871,4654.871794,3987.179488,4057.948717
52,4443.589743,4538.461538,4538.461538,4291.282051,4511.794871,4203.076923,4429.743589,4209.230769,4221.538461,4496.923076,4232.820512,4657.948717,3984.615385,4058.461538
53,4445.641025,4543.076923,4538.461538,4292.820512,4515.897435,4209.743589,4438.461538,4216.410256,4225.641025,4502.051282,4239.487179,4661.025641,3986.153847,4056.410256
54,4444.615384,4541.538461,4538.461538,4291.282051,4512.820512,4213.846153,4443.589743,4219.487179,4233.333333,4495.384615,4243.589743,4663.076923,3991.794872,4056.923076
55,4443.076923,4539.487179,4538.974358,4285.128205,4505.641025,4213.333333,4443.076923,4227.179487,4233.333333,4488.717948,4241.538461,4664.615384,4000.512820,4059.487179
56,4442.564102,4534.871794,4535.897435,4281.538461,4507.179487,4208.717948,4440.512820,4225.128205,4223.589743,4489.743589,4234.358974,4658.974358,3993.333334,4054.871794
57,4441.538461,4527.692307,4533.846153,4286.153846,4507.692307,4204.102564,4437.948717,4217.435897,4223.076923,4491.282051,4230.769230,4652.307692,3978.974359,4048.717948
58,4443.076923,4530.256410,4536.410256,4290.256410,4505.128205,4211.282051,4442.051282,4225.128205,4231.794871,4495.384615,4238.461538,4656.923076,3983.076924,4054.871794
59,4447.692307,4538.974358,4539.487179,4287.179487,4508.717948,4220.512820,4447.692307,4236.410256,4239.487179,4508.205128,4249.743589,4664.102564,3992.307693,4062.051282
60,4448.205128,4538.974358,4537.435897,4283.076923,4509.743589,4216.410256,4448.717948,4232.820512,4239.487179,4512.820512,4251.282051,4662.051282,3991.282052,4057.948717
61,4444.102564,4535.384615,4534.358974,4282.051282,4504.615384,4214.871794,4447.692307,4225.641025,4233.846153,4499.487179,4243.589743,4658.461538,3988.205129,4056.923076
62,4447.179487,4537.435897,4534.358974,4283.076923,4507.692307,4217.435897,4446.153846,4225.128205,4234.358974,4494.358974,4243.589743,4662.051282,3992.307693,4061.025641
63,4456.410256,4538.974358,4536.923076,4286.666666,4517.948717,4216.923076,4447.692307,4229.743589,4238.974358,4501.025641,4247.692307,4667.179487,3996.923077,4060.000000
64,4459.487179,4540.512820,4537.948717,4291.794871,4517.948717,4217.948717,4448.205128,4231.794871,4238.974358,4500.512820,4248.205128,4667.179487,3996.410257,4059.487179
65,4457.948717,4540.512820,4535.897435,4290.769230,4515.384615,4220.512820,4445.641025,4231.282051,4240.000000,4496.923076,4252.820512,4664.615384,3996.410257,4070.769230
66,4460.000000,4537.435897,4535.384615,4289.230769,4517.948717,4218.461538,4442.564102,4228.717948,4241.538461,4500.000000,4253.846153,4664.615384,3998.974359,4074.871794
67,4463.076923,4543.076923,4538.974358,4295.384615,4516.923076,4220.000000,4446.153846,4229.230769,4242.564102,4509.230769,4250.256410,4669.743589,4002.564102,4069.230769
68,4462.564102,4550.769230,4542.564102,4297.435897,4518.974358,4227.692307,4450.256410,4230.769230,4243.589743,4509.743589,4253.333333,4671.794871,4002.564102,4072.820512
69,4459.487179,4546.153846,4540.000000,4289.230769,4520.000000,4225.641025,4447.179487,4224.615384,4238.974358,4501.538461,4256.410256,4664.615384,3995.897436,4074.358974
70,4458.974358,4536.923076,4534.358974,4284.615384,4511.794871,4215.384615,4443.076923,4216.410256,4231.282051,4499.487179,4249.743589,4659.487179,3991.794872,4061.538461
71,4458.974358,4535.384615,4535.897435,4289.743589,4513.846153,4216.410256,4443.589743,4218.461538,4231.282051,4500.512820,4246.153846,4664.615384,3995.384616,4055.384615
72,4457.948717,4535.384615,4537.948717,4287.179487,4524.102564,4222.051282,4446.153846,4221.025641,4235.384615,4494.871794,4248.717948,4665.128205,3997.435898,4066.153846
73,4458.974358,4538.461538,4530.256410,4277.435897,4522.051282,4217.435897,4443.589743,4217.435897,4231.282051,4490.256410,4247.692307,4657.948717,3991.282052,4069.743589
74,4453.333333,4535.897435,4523.589743,4276.923076,4519.487179,4212.820512,4436.410256,4216.410256,4225.641025,4488.205128,4243.589743,4654.358974,3985.128206,4057.435897
75,4444.615384,4529.743589,4520.512820,4278.974358,4514.871794,4213.333333,4426.153846,4213.333333,4222.051282,4482.051282,4241.538461,4652.307692,3983.076924,4049.743589
76,4451.794871,4529.230769,4526.666666,4276.410256,4504.615384,4213.846153,4429.230769,4211.794871,4225.128205,4483.076923,4246.153846,4656.923076,3984.102565,4058.461538
77,4463.589743,4529.743589,4535.897435,4281.025641,4508.205128,4216.410256,4444.615384,4219.487179,4234.871794,4500.000000,4254.358974,4670.256410,3987.692308,4062.564102
78,4461.025641,4529.743589,4532.307692,4287.179487,4512.820512,4217.948717,4442.051282,4220.000000,4234.871794,4506.153846,4251.794871,4671.794871,3991.282052,4060.000000
79,4460.000000,4538.974358,4529.743589,4286.153846,4507.692307,4211.794871,4427.692307,4212.307692,4224.102564,4491.282051,4247.179487,4664.615384,3993.846154,4068.717948
80,4465.641025,4545.128205,4532.820512,4284.102564,4511.794871,4207.692307,4428.205128,4211.794871,4221.538461,4481.538461,4248.717948,4664.102564,3991.282052,4075.897435
81,4462.051282,4538.974358,4529.743589,4284.615384,4516.410256,4213.846153,4432.820512,4215.384615,4226.666666,4485.128205,4248.205128,4662.564102,3986.666667,4068.205128
82,4458.974358,4536.410256,4522.051282,4285.128205,4508.717948,4216.410256,4429.230769,4214.358974,4226.153846,4483.076923,4250.256410,4656.410256,3983.076924,4062.564102
83,4462.051282,4538.974358,4524.102564,4282.051282,4506.153846,4212.820512,4429.230769,4214.358974,4223.589743,4477.948717,4245.128205,4655.384615,3978.974359,4060.000000
84,4463.076923,4535.384615,4524.615384,4280.512820,4511.794871,4216.410256,4433.333333,4214.358974,4227.692307,4487.692307,4231.794871,4656.923076,3976.410257,4054.358974
85,4460.000000,4529.230769,4521.025641,4283.589743,4511.794871,4217.948717,4429.743589,4212.307692,4227.692307,4497.435897,4237.435897,4653.333333,3978.974359,4052.307692
86,4455.897435,4520.512820,4520.512820,4274.871794,4506.666666,4204.615384,4424.615384,4209.230769,4221.025641,4485.128205,4246.153846,4646.666666,3973.333334,4051.282051
87,4454.871794,4517.948717,4517.948717,4264.102564,4505.128205,4198.461538,4425.128205,4209.230769,4217.435897,4471.794871,4234.871794,4643.589743,3962.564103,4051.282051
88,4458.974358,4528.717948,4520.512820,4272.307692,4506.666666,4212.820512,4429.743589,4215.384615,4226.153846,4482.564102,4237.435897,4652.307692,3969.230770,4060.000000
89,4462.051282,4540.000000,4524.102564,4284.102564,4509.230769,4218.461538,4431.794871,4218.461538,4234.871794,4493.846153,4250.256410,4659.487179,3984.615385,4065.128205
90,4460.000000,4532.820512,4522.051282,4282.564102,4509.743589,4208.717948,4428.717948,4211.794871,4226.666666,4481.538461,4240.000000,4651.794871,3987.179488,4056.923076
91,4457.948717,4519.487179,4519.487179,4276.923076,4506.666666,4204.615384,4425.641025,4206.666666,4218.461538,4470.769230,4232.820512,4644.615384,3973.846154,4046.666666
92,4458.461538,4520.512820,4519.487179,4272.307692,4504.615384,4205.128205,4425.641025,4206.153846,4224.102564,4476.410256,4240.512820,4648.205128,3960.000000,4046.666666
93,4458.974358,4521.538461,4520.000000,4269.743589,4506.153846,4200.512820,4425.128205,4202.051282,4222.051282,4475.897435,4237.948717,4650.769230,3963.589744,4052.307692
94,4458.974358,4518.461538,4520.000000,4271.282051,4500.000000,4197.948717,4421.538461,4200.000000,4210.769230,4474.358974,4226.666666,4650.769230,3973.333334,4055.384615
95,4460.000000,4521.538461,4519.487179,4273.333333,4494.871794,4199.487179,4418.974358,4200.512820,4211.794871,4475.384615,4222.051282,4651.794871,3967.179488,4050.769230
96,4460.000000,4523.589743,4518.461538,4273.333333,4504.615384,4202.051282,4421.025641,4202.564102,4214.358974,4472.820512,4224.615384,4649.230769,3957.435898,4049.230769
97,4460.512820,4520.512820,4521.538461,4279.487179,4514.358974,4210.256410,4427.179487,4212.820512,4217.435897,4483.589743,4233.333333,4654.358974,3972.307693,4057.435897
98,4469.230769,4527.179487,4526.153846,4286.666666,4515.897435,4219.487179,4438.461538,4221.538461,4228.205128,4500.000000,4241.538461,4664.615384,3991.794872,4063.076923
99,4474.871794,4537.948717,4527.692307,4285.128205,4517.948717,4220.512820,4445.128205,4219.487179,4228.717948,4495.897435,4235.384615,4666.153846,3989.230770,4060.512820
100,4468.205128,4536.410256,4525.128205,4280.512820,4522.051282,4217.435897,4443.076923,4217.435897,4218.461538,4486.666666,4222.051282,4663.076923,3980.000000,4059.487179
101,4458.974358,4524.615384,4522.564102,4278.974358,4520.512820,4216.410256,4437.435897,4214.871794,4215.384615,4490.769230,4211.282051,4656.923076,3975.897436,4058.461538
102,4454.871794,4522.051282,4523.589743,4275.897435,4516.923076,4213.846153,4433.846153,4207.179487,4217.948717,4489.230769,4205.641025,4650.256410,3976.410257,4054.871794
103,4446.666666,4524.615384,4517.435897,4267.179487,4514.871794,4206.153846,4429.743589,4200.512820,4213.846153,4480.512820,4199.487179,4644.102564,3971.794872,4045.641025
104,4438.974358,4516.923076,4507.179487,4266.666666,4516.410256,4198.461538,4423.076923,4196.923076,4206.666666,4481.538461,4193.333333,4638.461538,3960.000000,4033.333333
105,4441.538461,4513.333333,4513.846153,4275.384615,4521.025641,4202.564102,4425.128205,4198.974358,4211.282051,4493.846153,4196.410256,4641.538461,3961.538462,4036.410256
106,4445.641025,4523.076923,4525.128205,4278.974358,4523.589743,4214.358974,4436.410256,4206.666666,4220.000000,4505.128205,4200.000000,4650.769230,3975.384616,4046.666666
107,4443.589743,4526.666666,4521.025641,4275.897435,4523.589743,4214.871794,4435.897435,4212.820512,4220.000000,4500.000000,4196.410256,4650.256410,3980.000000,4040.512820
108,4443.589743,4524.615384,4519.487179,4274.871794,4521.538461,4208.205128,4429.743589,4214.358974,4220.000000,4493.333333,4202.564102,4648.717948,3978.974359,4036.410256
109,4447.179487,4526.666666,4526.666666,4279.487179,4517.948717,4212.307692,4437.435897,4215.897435,4229.743589,4501.538461,4214.358974,4656.923076,3986.153847,4050.769230
110,4448.717948,4529.230769,4525.641025,4281.025641,4515.384615,4218.461538,4441.538461,4217.948717,4234.871794,4511.794871,4208.717948,4660.512820,3988.205129,4055.384615
111,4450.256410,4532.307692,4528.717948,4280.512820,4516.923076,4214.871794,4435.384615,4218.974358,4229.230769,4509.743589,4198.461538,4659.487179,3987.692308,4049.230769
112,4457.435897,4538.974358,4539.487179,4283.589743,4522.564102,4214.871794,4438.461538,4217.948717,4229.743589,4505.641025,4210.256410,4666.666666,3995.897436,4057.948717
113,4460.000000,4542.051282,4539.487179,4284.102564,4527.179487,4219.487179,4446.666666,4220.512820,4236.410256,4511.282051,4222.564102,4670.769230,3996.923077,4064.102564
114,4456.410256,4538.974358,4535.384615,4279.487179,4526.153846,4218.461538,4443.589743,4224.615384,4234.358974,4518.461538,4218.461538,4667.179487,3990.769231,4051.794871
115,4454.358974,4537.948717,4537.435897,4279.487179,4523.076923,4216.923076,4437.948717,4221.025641,4230.769230,4516.923076,4217.435897,4664.102564,3991.794872,4048.205128
116,4450.769230,4534.358974,4533.333333,4284.615384,4523.076923,4216.410256,4438.461538,4220.000000,4232.820512,4514.871794,4221.025641,4663.589743,3997.435898,4058.974358
117,4446.153846,4524.615384,4527.692307,4283.076923,4525.128205,4215.897435,4442.051282,4224.615384,4232.820512,4517.435897,4216.923076,4662.564102,4000.512820,4058.461538
118,4445.641025,4526.153846,4530.256410,4278.974358,4524.102564,4214.871794,4444.102564,4228.205128,4235.384615,4513.333333,4213.846153,4663.076923,4001.538461,4051.794871
119,4447.179487,4535.384615,4530.256410,4281.025641,4520.000000,4214.358974,4443.589743,4227.692307,4242.051282,4507.692307,4221.538461,4666.153846,4002.051282,4053.333333
120,4442.564102,4530.256410,4521.538461,4278.974358,4517.435897,4212.307692,4440.512820,4221.538461,4235.897435,4510.256410,4221.538461,4660.512820,3998.974359,4047.692307
121,4443.076923,4524.615384,4518.974358,4278.461538,4519.487179,4213.846153,4442.051282,4221.025641,4234.871794,4517.435897,4216.923076,4660.512820,3996.923077,4041.538461
122,4451.794871,4540.512820,4531.282051,4288.717948,4527.692307,4220.512820,4449.743589,4234.358974,4249.743589,4528.205128,4223.589743,4673.333333,4000.512820,4054.871794
123,4451.794871,4544.102564,4531.794871,4289.230769,4531.282051,4220.512820,4448.717948,4234.871794,4250.256410,4533.333333,4225.128205,4668.717948,4002.051282,4059.487179
124,4439.487179,4522.051282,4518.974358,4279.487179,4523.589743,4213.846153,4439.487179,4213.846153,4232.820512,4524.102564,4212.820512,4650.256410,3993.846154,4043.589743
125,4440.512820,4524.102564,4525.128205,4283.589743,4516.410256,4214.871794,4441.538461,4213.846153,4233.333333,4514.358974,4218.974358,4655.897435,3995.384616,4046.153846
126,4452.820512,4544.102564,4537.435897,4287.179487,4523.589743,4218.974358,4446.153846,4228.717948,4247.179487,4517.948717,4234.358974,4671.282051,4007.179487,4061.538461
127,4447.692307,4539.487179,4530.256410,4277.435897,4531.794871,4213.846153,4439.487179,4221.025641,4242.051282,4517.435897,4223.076923,4664.615384,4002.564102,4053.846153
128,4441.025641,4529.230769,4526.666666,4278.974358,4525.641025,4211.794871,4438.974358,4217.435897,4230.256410,4509.743589,4213.333333,4660.000000,3997.435898,4045.641025
129,4455.897435,4540.000000,4541.025641,4291.794871,4518.461538,4218.461538,4447.692307,4230.769230,4237.435897,4511.282051,4230.769230,4672.820512,4006.153846,4059.487179
130,4458.461538,4541.538461,4542.564102,4289.230769,4522.564102,4220.000000,4449.230769,4233.846153,4242.564102,4514.871794,4235.897435,4674.358974,3997.435898,4058.974358
131,4443.589743,4525.128205,4533.846153,4283.589743,4527.179487,4216.923076,4444.615384,4226.153846,4232.820512,4510.769230,4222.564102,4662.051282,3982.564103,4043.076923
132,4447.179487,4528.717948,4536.410256,4291.282051,4523.076923,4217.435897,4444.615384,4227.692307,4232.307692,4507.692307,4225.128205,4664.102564,3994.358975,4049.230769
133,4460.512820,4541.025641,4540.000000,4296.923076,4522.051282,4220.000000,4445.641025,4233.333333,4241.538461,4513.333333,4238.461538,4674.358974,4005.641025,4065.128205
134,4459.487179,4539.487179,4537.948717,4291.282051,4524.615384,4216.923076,4443.589743,4231.794871,4242.051282,4518.461538,4236.410256,4675.897435,4001.538461,4062.051282
135,4456.923076,4535.384615,4538.461538,4289.230769,4521.538461,4215.384615,4442.564102,4230.256410,4243.589743,4517.948717,4229.230769,4674.871794,3998.461539,4056.410256
136,4460.512820,4541.538461,4539.487179,4293.846153,4523.589743,4218.974358,4445.128205,4232.307692,4243.076923,4520.000000,4232.307692,4676.923076,3998.461539,4059.487179
137,4459.487179,4537.948717,4537.435897,4295.897435,4533.333333,4217.948717,4444.615384,4232.307692,4234.358974,4519.487179,4233.846153,4672.820512,3991.794872,4054.358974
138,4456.410256,4527.692307,4535.384615,4296.410256,4534.871794,4215.384615,4437.948717,4221.025641,4229.230769,4504.102564,4225.128205,4664.102564,3982.051283,4048.717948
139,4457.435897,4531.794871,4536.410256,4298.461538,4524.615384,4216.410256,4437.435897,4218.461538,4230.256410,4494.358974,4221.538461,4662.564102,3986.153847,4055.384615
140,4458.974358,4541.025641,4537.948717,4300.512820,4523.076923,4218.461538,4444.615384,4228.717948,4230.256410,4512.820512,4228.205128,4667.692307,3996.410257,4061.538461
141,4460.000000,4542.051282,4541.025641,4297.948717,4527.692307,4220.000000,4446.666666,4233.333333,4234.871794,4525.128205,4234.871794,4668.717948,3995.897436,4058.974358
142,4458.974358,4536.410256,4538.974358,4295.384615,4524.102564,4220.000000,4443.076923,4231.794871,4240.512820,4511.282051,4230.769230,4665.641025,3993.333334,4058.974358
143,4452.307692,4530.256410,4527.692307,4290.256410,4523.076923,4216.410256,4441.025641,4228.205128,4236.410256,4504.615384,4221.025641,4661.025641,3994.871795,4053.846153
144,4444.102564,4523.076923,4518.974358,4281.025641,4526.153846,4213.333333,4440.512820,4219.487179,4226.153846,4505.641025,4217.435897,4652.820512,3987.179488,4038.461538
145,4443.076923,4520.512820,4522.051282,4280.512820,4521.025641,4215.384615,4442.564102,4219.487179,4225.641025,4504.102564,4217.948717,4650.769230,3978.974359,4036.923076
146,4447.692307,4527.179487,4525.641025,4289.230769,4520.512820,4217.435897,4444.615384,4229.230769,4233.846153,4508.717948,4221.025641,4656.923076,3982.051283,4048.717948
147,4451.282051,4534.358974,4524.615384,4292.307692,4529.230769,4217.948717,4443.076923,4230.256410,4234.871794,4506.153846,4225.641025,4660.000000,3985.641026,4052.307692
148,4454.358974,4536.410256,4529.230769,4291.794871,4528.205128,4217.948717,4444.615384,4227.179487,4231.794871,4503.076923,4228.717948,4661.025641,3992.307693,4052.820512
149,4458.974358,4538.974358,4536.410256,4294.871794,4521.025641,4220.512820,4449.230769,4232.820512,4239.487179,4521.538461,4233.846153,4664.102564,3999.487180,4062.051282
150,4458.461538,4537.948717,4540.512820,4289.230769,4522.564102,4222.564102,4449.230769,4233.846153,4245.641025,4527.179487,4235.384615,4665.128205,3992.820513,4060.512820
151,4450.256410,4532.820512,4537.435897,4285.641025,4525.128205,4221.025641,4448.205128,4230.256410,4237.435897,4509.743589,4227.692307,4662.564102,3980.512821,4048.205128
152,4444.102564,4529.743589,4529.743589,4288.717948,4524.615384,4218.974358,4449.743589,4229.743589,4231.794871,4502.051282,4221.025641,4658.461538,3981.538462,4049.743589
153,4445.128205,4525.128205,4524.615384,4282.564102,4515.897435,4211.282051,4441.538461,4223.589743,4229.743589,4498.461538,4221.538461,4654.358974,3985.641026,4053.846153
154,4445.641025,4523.589743,4521.538461,4281.025641,4508.205128,4207.692307,4433.333333,4217.435897,4224.102564,4495.384615,4226.666666,4655.384615,3980.512821,4049.743589
155,4445.128205,4527.179487,4525.641025,4289.230769,4512.820512,4210.769230,4438.461538,4219.487179,4225.128205,4503.589743,4231.282051,4657.435897,3978.461539,4048.717948
156,4450.769230,4526.666666,4534.358974,4288.717948,4515.384615,4211.794871,4444.615384,4222.564102,4232.820512,4508.205128,4231.794871,4658.461538,3985.641026,4054.358974
157,4456.923076,4526.153846,4537.948717,4285.128205,4516.410256,4211.794871,4442.051282,4223.076923,4232.307692,4509.743589,4234.358974,4658.974358,3992.307693,4052.307692
158,4458.974358,4530.769230,4536.410256,4288.717948,4521.538461,4215.384615,4442.564102,4228.205128,4231.794871,4516.923076,4242.051282,4662.564102,3996.410257,4049.743589
159,4460.512820,4537.435897,4536.923076,4293.333333,4519.487179,4217.948717,4446.666666,4235.384615,4237.435897,4513.333333,4249.230769,4669.230769,3996.410257,4062.051282
160,4459.487179,4534.871794,4537.948717,4292.307692,4511.794871,4213.846153,4443.589743,4229.743589,4236.410256,4504.102564,4245.128205,4666.666666,3988.205129,4067.692307
161,4457.435897,4527.692307,4535.897435,4290.256410,4507.692307,4209.743589,4441.025641,4218.461538,4230.769230,4504.615384,4236.410256,4656.410256,3984.615385,4057.435897
162,4458.461538,4527.692307,4535.897435,4288.205128,4510.256410,4212.820512,4444.102564,4217.948717,4230.769230,4507.179487,4234.358974,4657.435897,3990.256411,4054.871794
163,4460.000000,4528.717948,4537.948717,4292.820512,4516.923076,4213.846153,4444.615384,4221.538461,4233.333333,4505.128205,4238.461538,4662.051282,3987.179488,4062.051282
164,4458.461538,4525.641025,4536.923076,4298.461538,4517.948717,4208.205128,4439.487179,4217.948717,4231.282051,4502.051282,4238.461538,4659.487179,3981.538462,4059.487179
165,4459.487179,4530.256410,4535.384615,4294.358974,4512.820512,4210.256410,4438.974358,4214.871794,4230.256410,4502.051282,4239.487179,4658.461538,3993.333334,4056.923076
166,4463.076923,4538.461538,4535.897435,4294.871794,4517.435897,4219.487179,4444.102564,4218.974358,4232.820512,4508.205128,4246.153846,4664.615384,4006.666666,4067.692307
167,4462.564102,4532.820512,4537.948717,4296.410256,4525.128205,4218.461538,4445.641025,4220.000000,4234.358974,4510.769230,4247.692307,4665.641025,3996.923077,4070.769230
168,4460.512820,4524.102564,4537.435897,4292.820512,4523.076923,4210.769230,4441.025641,4216.410256,4230.256410,4503.589743,4245.641025,4662.564102,3981.538462,4061.538461
169,4460.000000,4526.666666,4536.923076,4292.820512,4518.974358,4211.282051,4436.923076,4215.897435,4227.179487,4501.025641,4246.153846,4661.025641,3983.589744,4059.487179
170,4462.051282,4534.871794,4540.000000,4297.435897,4517.435897,4215.897435,4440.512820,4223.076923,4235.384615,4505.641025,4246.666666,4666.153846,3993.846154,4069.230769
171,4463.076923,4538.974358,4542.564102,4296.410256,4521.538461,4217.435897,4444.102564,4228.717948,4240.000000,4508.205128,4249.743589,4670.769230,4002.051282,4075.384615
172,4460.512820,4530.256410,4536.410256,4293.846153,4524.615384,4216.923076,4442.564102,4226.153846,4238.461538,4513.846153,4252.307692,4665.641025,4005.641025,4067.692307
173,4459.487179,4522.564102,4530.256410,4292.820512,4517.948717,4212.820512,4438.461538,4227.692307,4243.589743,4522.051282,4252.820512,4661.538461,3999.487180,4058.461538
174,4457.948717,4525.128205,4530.256410,4287.692307,4510.769230,4207.179487,4437.435897,4235.384615,4243.589743,4518.461538,4251.282051,4662.051282,3993.333334,4060.512820
175,4447.179487,4517.948717,4525.128205,4284.615384,4509.230769,4207.692307,4438.974358,4230.769230,4230.256410,4495.897435,4246.153846,4655.384615,3989.743590,4061.538461
176,4442.564102,4507.692307,4519.487179,4284.102564,4506.666666,4210.256410,4440.512820,4220.512820,4225.128205,4481.025641,4246.666666,4649.743589,3984.102565,4055.897435
177,4454.358974,4513.333333,4527.179487,4286.153846,4507.179487,4214.358974,4442.564102,4223.589743,4234.871794,4496.923076,4251.794871,4660.512820,3987.179488,4061.538461
178,4462.564102,4522.564102,4531.282051,4293.333333,4517.948717,4216.410256,4443.076923,4223.589743,4235.384615,4510.256410,4247.692307,4666.666666,3991.282052,4068.717948
179,4456.923076,4524.615384,4522.564102,4295.897435,4523.076923,4208.717948,4436.923076,4216.410256,4224.102564,4498.974358,4240.512820,4654.358974,3981.025642,4056.923076
180,4454.358974,4523.589743,4524.102564,4293.846153,4518.461538,4205.128205,4433.333333,4214.358974,4221.025641,4495.384615,4248.205128,4651.794871,3982.051283,4051.282051
181,4466.666666,4523.076923,4538.461538,4299.487179,4515.384615,4215.897435,4440.000000,4217.948717,4228.717948,4508.717948,4261.025641,4668.205128,4002.564102,4070.256410
182,4473.846153,4528.717948,4544.615384,4308.205128,4520.000000,4221.025641,4447.179487,4220.000000,4234.871794,4510.256410,4263.589743,4675.384615,4006.153846,4082.564102
183,4465.641025,4535.897435,4538.974358,4305.641025,4519.487179,4214.358974,4444.102564,4221.025641,4232.820512,4505.128205,4259.487179,4665.641025,3993.333334,4073.846153
184,4456.923076,4530.769230,4533.333333,4295.384615,4512.307692,4213.846153,4438.974358,4220.000000,4224.615384,4504.102564,4252.307692,4655.384615,3987.179488,4066.153846
185,4459.487179,4521.025641,4535.897435,4291.282051,4512.820512,4215.384615,4440.000000,4215.897435,4223.076923,4501.538461,4252.820512,4655.384615,3990.256411,4067.179487
186,4461.025641,4523.589743,4540.000000,4296.410256,4515.897435,4214.871794,4443.076923,4218.461538,4230.256410,4500.000000,4263.076923,4661.025641,3995.384616,4066.666666
187,4456.923076,4524.615384,4531.794871,4298.974358,4515.897435,4214.871794,4439.487179,4218.461538,4227.179487,4497.435897,4260.512820,4658.461538,3987.692308,4062.564102
188,4455.897435,4518.974358,4522.051282,4293.333333,4516.923076,4212.307692,4432.307692,4211.282051,4216.923076,4486.153846,4244.615384,4648.205128,3978.461539,4056.923076
189,4457.435897,4521.025641,4524.102564,4289.230769,4516.410256,4212.307692,4434.358974,4212.307692,4219.487179,4490.769230,4245.641025,4649.230769,3989.743590,4061.025641
190,4459.487179,4527.692307,4526.666666,4288.205128,4508.717948,4215.384615,4440.000000,4216.923076,4227.179487,4502.051282,4255.897435,4655.384615,4000.000000,4066.153846
191,4458.461538,4524.615384,4521.538461,4283.589743,4505.128205,4212.820512,4436.923076,4213.333333,4227.179487,4496.410256,4252.307692,4650.769230,3989.743590,4062.051282
192,4448.205128,4514.871794,4516.923076,4278.461538,4507.692307,4202.564102,4429.230769,4208.717948,4229.230769,4488.717948,4244.615384,4643.076923,3977.948718,4056.410256
193,4445.128205,4513.846153,4518.461538,4278.974358,4504.102564,4199.487179,4427.179487,4212.307692,4230.256410,4490.769230,4246.153846,4645.128205,3983.589744,4058.974358
194,4455.897435,4522.564102,4523.589743,4285.128205,4506.153846,4207.692307,4436.410256,4218.974358,4230.256410,4492.307692,4257.948717,4654.871794,4001.025641,4065.641025
195,4461.538461,4526.153846,4526.153846,4287.692307,4511.794871,4215.384615,4445.128205,4220.512820,4232.820512,4496.410256,4265.128205,4657.948717,4004.615384,4068.205128
196,4457.435897,4518.974358,4526.153846,4281.025641,4508.717948,4212.307692,4440.000000,4215.384615,4229.743589,4501.025641,4257.435897,4655.384615,3990.256411,4067.692307
197,4451.794871,4509.230769,4523.076923,4270.256410,4506.666666,4202.564102,4428.205128,4208.717948,4224.102564,4499.487179,4243.076923,4652.820512,3984.102565,4066.153846
198,4446.153846,4509.230769,4519.487179,4270.256410,4508.205128,4200.512820,4429.743589,4211.282051,4226.666666,4500.512820,4233.333333,4651.794871,3989.743590,4064.102564
199,4448.205128,4513.333333,4527.179487,4280.000000,4508.717948,4207.179487,4437.435897,4218.461538,4234.358974,4505.128205,4233.846153,4652.307692,3994.871795,4066.153846
200,4460.000000,4514.358974,4532.307692,4283.589743,4513.333333,4212.820512,4436.410256,4218.461538,4231.794871,4504.615384,4236.410256,4655.897435,3998.461539,4070.769230
201,4457.435897,4516.410256,4528.205128,4278.461538,4516.923076,4210.256410,4435.897435,4214.358974,4225.641025,4505.128205,4232.820512,4656.923076,3999.487180,4065.641025
202,4446.666666,4521.025641,4530.769230,4277.435897,4511.282051,4207.179487,4440.512820,4214.358974,4227.692307,4506.666666,4231.282051,4657.435897,4000.512820,4061.538461
203,4453.846153,4523.076923,4540.000000,4285.641025,4514.358974,4214.358974,4444.102564,4224.615384,4233.846153,4514.358974,4233.333333,4664.615384,4007.692307,4072.307692
204,4462.564102,4522.564102,4540.512820,4288.205128,4524.102564,4217.948717,4445.128205,4231.794871,4233.333333,4520.000000,4228.205128,4668.717948,4004.102564,4075.897435
205,4450.256410,4520.512820,4535.897435,4283.589743,4516.923076,4207.692307,4441.025641,4223.589743,4232.307692,4515.384615,4225.128205,4662.051282,3991.794872,4064.615384
206,4441.025641,4522.564102,4536.410256,4283.076923,4510.256410,4204.102564,4435.384615,4219.487179,4235.897435,4511.794871,4228.205128,4661.025641,3996.923077,4062.051282
207,4449.230769,4530.256410,4538.974358,4289.230769,4524.102564,4216.410256,4441.538461,4230.256410,4240.000000,4524.615384,4231.794871,4668.717948,4014.871794,4069.743589
208,4452.307692,4531.794871,4541.025641,4292.307692,4529.743589,4221.025641,4453.846153,4235.897435,4243.076923,4534.871794,4231.794871,4669.743589,4016.923076,4069.230769
209,4443.589743,4522.051282,4540.512820,4285.128205,4521.538461,4215.897435,4450.769230,4230.769230,4241.538461,4528.717948,4226.666666,4662.564102,4001.538461,4060.000000
210,4442.051282,4519.487179,4536.923076,4284.615384,4522.051282,4216.410256,4444.102564,4230.256410,4238.974358,4522.051282,4227.692307,4661.538461,4000.512820,4057.435897
211,4444.615384,4532.307692,4539.487179,4292.307692,4524.102564,4215.897435,4451.282051,4232.820512,4243.076923,4522.051282,4232.307692,4663.589743,4010.256410,4062.564102
212,4446.666666,4541.538461,4546.666666,4297.435897,4524.615384,4216.410256,4461.538461,4231.794871,4246.666666,4523.076923,4229.230769,4664.102564,4011.794871,4069.230769
213,4447.692307,4532.307692,4546.153846,4294.871794,4527.179487,4218.461538,4457.435897,4230.769230,4243.076923,4521.538461,4227.692307,4665.641025,4010.256410,4068.717948
214,4444.102564,4520.512820,4537.948717,4287.692307,4525.128205,4215.897435,4447.179487,4225.128205,4240.000000,4520.000000,4227.179487,4660.000000,4006.153846,4061.025641
215,4440.512820,4524.615384,4537.435897,4289.230769,4518.974358,4216.923076,4450.769230,4224.615384,4248.205128,4522.051282,4225.641025,4657.948717,4004.615384,4060.512820
216,4442.564102,4532.820512,4542.051282,4293.846153,4527.692307,4222.564102,4460.000000,4233.846153,4251.794871,4524.615384,4234.358974,4666.153846,4011.794871,4066.153846
217,4443.076923,4528.717948,4540.512820,4291.282051,4535.384615,4220.000000,4456.410256,4230.256410,4245.641025,4527.692307,4241.538461,4668.205128,4017.435897,4062.051282
218,4441.538461,4522.564102,4537.435897,4283.076923,4526.153846,4214.358974,4445.641025,4222.564102,4242.564102,4526.666666,4234.871794,4661.025641,4008.205128,4061.025641
219,4441.538461,4523.589743,4535.384615,4280.000000,4514.871794,4213.846153,4442.564102,4226.153846,4244.615384,4522.051282,4230.256410,4658.461538,4001.025641,4067.179487
220,4433.333333,4524.615384,4534.871794,4280.512820,4512.307692,4210.769230,4445.641025,4225.128205,4244.615384,4521.538461,4231.282051,4659.487179,4006.666666,4064.615384
221,4427.692307,4519.487179,4535.384615,4275.897435,4506.153846,4206.666666,4450.256410,4220.000000,4243.076923,4524.615384,4226.666666,4657.948717,4007.179487,4058.974358
222,4438.974358,4519.487179,4540.000000,4273.333333,4503.589743,4209.743589,4455.384615,4227.179487,4248.205128,4521.538461,4229.743589,4664.102564,4012.307692,4065.641025
223,4448.717948,4529.230769,4549.743589,4285.641025,4516.923076,4216.410256,4458.461538,4236.410256,4251.794871,4521.025641,4245.641025,4674.871794,4026.666666,4073.846153
224,4446.153846,4535.897435,4556.410256,4300.000000,4526.666666,4217.435897,4458.974358,4234.358974,4250.256410,4529.230769,4253.333333,4682.051282,4028.205128,4076.410256
225,4446.153846,4537.435897,4554.358974,4293.846153,4524.615384,4216.410256,4456.410256,4233.333333,4248.205128,4531.794871,4243.076923,4680.000000,4020.000000,4075.897435
226,4446.666666,4537.435897,4545.641025,4287.179487,4521.025641,4215.897435,4448.717948,4233.846153,4248.717948,4528.205128,4236.410256,4670.769230,4020.512820,4074.358974
227,4441.538461,4531.794871,4540.512820,4290.256410,4520.512820,4209.743589,4443.589743,4230.256410,4247.179487,4523.589743,4242.564102,4666.666666,4022.564102,4073.846153
228,4439.487179,4530.769230,4538.461538,4286.666666,4523.076923,4202.051282,4443.076923,4221.025641,4240.000000,4521.538461,4245.641025,4666.153846,4013.333333,4070.769230
229,4440.512820,4534.871794,4538.974358,4282.564102,4516.923076,4199.487179,4440.512820,4212.820512,4234.358974,4522.051282,4244.615384,4666.153846,4006.153846,4066.153846
230,4442.051282,4531.794871,4542.564102,4285.128205,4508.205128,4202.051282,4441.538461,4215.384615,4235.384615,4518.461538,4242.051282,4669.230769,4012.820512,4065.641025
231,4444.102564,4529.743589,4543.589743,4284.102564,4505.641025,4202.564102,4443.589743,4218.461538,4240.512820,4514.871794,4240.000000,4672.307692,4024.102564,4070.256410
232,4443.589743,4534.871794,4542.051282,4283.076923,4509.230769,4202.564102,4441.538461,4216.923076,4238.974358,4512.820512,4245.641025,4671.794871,4018.974358,4070.769230
233,4442.051282,4535.384615,4538.461538,4288.717948,4509.230769,4203.076923,4442.051282,4215.384615,4234.871794,4511.282051,4251.794871,4671.282051,4004.615384,4066.153846
234,4442.564102,4532.820512,4540.000000,4292.820512,4507.179487,4202.564102,4445.128205,4216.410256,4236.410256,4513.846153,4247.692307,4672.307692,4005.128205,4066.666666
235,4443.076923,4533.846153,4545.641025,4291.794871,4507.179487,4201.538461,4445.641025,4219.487179,4238.974358,4523.076923,4244.615384,4672.307692,4014.358974,4070.256410
236,4444.102564,4532.820512,4545.641025,4290.256410,4507.692307,4203.076923,4443.589743,4220.000000,4241.538461,4523.589743,4245.128205,4671.794871,4018.974358,4067.692307
237,4444.615384,4529.230769,4546.153846,4289.743589,4506.153846,4202.564102,4442.051282,4218.974358,4243.076923,4520.000000,4242.564102,4670.256410,4014.358974,4069.743589
238,4445.641025,4531.282051,4548.205128,4291.282051,4511.282051,4201.025641,4443.076923,4218.974358,4244.615384,4522.564102,4245.128205,4670.256410,4010.769230,4076.410256
239,4451.794871,4535.897435,4545.641025,4289.230769,4519.487179,4207.692307,4445.641025,4217.948717,4244.615384,4523.589743,4248.205128,4672.820512,4013.846153,4075.897435
240,4453.846153,4538.461538,4545.641025,4287.179487,4512.820512,4212.820512,4445.128205,4214.871794,4243.589743,4523.076923,4247.692307,4672.307692,4017.948717,4073.846153
241,4450.769230,4537.948717,4550.769230,4293.333333,4508.717948,4212.820512,4444.102564,4215.897435,4243.076923,4522.564102,4249.743589,4673.333333,4022.051282,4076.410256
242,4450.769230,4538.461538,4546.666666,4295.897435,4517.948717,4210.256410,4446.153846,4217.948717,4242.051282,4520.000000,4251.282051,4673.846153,4017.435897,4074.871794
243,4445.128205,4535.897435,4536.923076,4287.692307,4516.923076,4205.128205,4444.615384,4209.230769,4233.333333,4515.384615,4248.205128,4665.641025,4000.512820,4067.692307
244,4435.384615,4529.230769,4535.897435,4281.538461,4504.615384,4199.487179,4437.948717,4200.000000,4221.538461,4506.153846,4241.538461,4654.358974,3990.769231,4060.000000
245,4436.923076,4531.282051,4535.384615,4285.128205,4504.102564,4198.974358,4437.948717,4204.102564,4228.205128,4504.615384,4232.820512,4655.897435,4007.179487,4056.923076
246,4446.666666,4540.000000,4538.461538,4290.256410,4515.897435,4207.179487,4443.589743,4213.846153,4238.461538,4513.846153,4235.897435,4666.153846,4022.051282,4064.615384
247,4447.692307,4539.487179,4542.051282,4291.282051,4517.435897,4211.282051,4444.102564,4211.282051,4231.794871,4515.897435,4247.179487,4665.641025,4009.743589,4073.846153
248,4442.051282,4533.846153,4536.410256,4291.282051,4510.256410,4202.564102,4440.000000,4202.564102,4226.153846,4504.615384,4247.179487,4657.435897,4000.000000,4069.230769
249,4444.615384,4537.435897,4537.948717,4293.846153,4513.846153,4201.538461,4442.564102,4205.641025,4234.358974,4503.589743,4248.205128,4660.512820,4010.256410,4070.256410
250,4458.461538,4549.743589,4553.333333,4300.000000,4520.512820,4215.384615,4448.205128,4218.461538,4243.076923,4517.435897,4256.923076,4672.820512,4022.051282,4086.666666
251,4460.512820,4549.230769,4557.435897,4301.538461,4518.461538,4221.538461,4448.717948,4223.589743,4245.128205,4529.230769,4253.846153,4675.897435,4020.512820,4088.205128
252,4447.692307,4536.923076,4543.076923,4294.871794,4514.358974,4209.743589,4443.076923,4216.410256,4240.512820,4522.051282,4249.230769,4667.692307,4011.282051,4069.743589
253,4449.230769,4535.897435,4537.435897,4293.333333,4510.769230,4203.589743,4436.923076,4214.358974,4234.358974,4509.230769,4258.974358,4663.076923,4010.769230,4067.692307
254,4462.564102,4546.153846,4544.615384,4298.461538,4506.153846,4207.692307,4438.974358,4220.512820,4238.974358,4514.871794,4267.179487,4666.666666,4020.512820,4077.948717
255,4456.410256,4541.025641,4541.538461,4292.820512,4508.205128,4207.179487,4438.461538,4216.410256,4240.000000,4521.025641,4256.923076,4666.153846,4021.538461,4072.820512
