,AF3,F7,F3,FC5,T7,P7,O1,O2,P8,T8,FC6,F4,F8,AF4
0,4460.512820,4528.205128,4506.666666,4254.358974,4514.871794,4170.769230,4425.128205,4186.666666,4200.512820,4493.846153,4207.179487,4634.871794,3964.102565,4064.102564
1,4461.025641,4527.692307,4502.051282,4254.871794,4506.153846,4170.256410,4425.641025,4186.666666,4203.589743,4494.871794,4194.358974,4633.846153,3963.589744,4062.051282
2,4460.000000,4526.666666,4498.461538,4260.512820,4501.025641,4167.692307,4422.051282,4183.589743,4196.923076,4486.666666,4191.282051,4632.307692,3965.641026,4058.974358
3,4460.512820,4517.948717,4498.974358,4256.410256,4505.641025,4161.538461,4417.435897,4183.076923,4191.794871,4488.717948,4197.948717,4631.282051,3958.461539,4054.358974
4,4461.538461,4516.923076,4498.974358,4253.846153,4506.153846,4163.076923,4418.974358,4186.153846,4196.923076,4499.487179,4202.564102,4633.333333,3950.256411,4053.846153
5,4457.948717,4520.000000,4497.435897,4249.743589,4493.846153,4165.641025,4423.589743,4184.615384,4198.461538,4497.435897,4196.410256,4631.282051,3955.897436,4056.923076
6,4461.538461,4521.538461,4504.102564,4244.615384,4486.666666,4168.717948,4426.153846,4189.230769,4199.487179,4494.358974,4194.358974,4631.794871,3965.128206,4062.564102
7,4472.820512,4527.179487,4508.717948,4251.282051,4499.487179,4173.333333,4427.692307,4199.487179,4207.179487,4501.538461,4206.666666,4640.000000,3969.230770,4066.666666
8,4474.871794,4532.307692,4504.615384,4264.102564,4509.743589,4174.358974,4427.692307,4200.000000,4210.256410,4511.794871,4214.358974,4646.153846,3975.897436,4069.743589
9,4475.897435,4532.307692,4508.717948,4265.128205,4506.666666,4173.846153,4427.179487,4200.000000,4211.282051,4519.487179,4214.358974,4650.256410,3980.512821,4074.358974
10,4470.256410,4526.666666,4512.307692,4256.923076,4504.102564,4172.820512,4426.153846,4198.974358,4208.717948,4511.282051,4213.846153,4646.666666,3975.384616,4070.256410
11,4462.564102,4524.102564,4505.128205,4254.871794,4502.564102,4171.282051,4424.615384,4192.307692,4204.615384,4495.384615,4212.307692,4637.948717,3973.846154,4065.641025
12,4466.153846,4531.794871,4506.666666,4258.974358,4504.615384,4174.871794,4427.179487,4195.897435,4206.666666,4501.025641,4212.820512,4638.974358,3976.410257,4066.666666
13,4466.153846,4533.333333,4506.153846,4256.923076,4507.179487,4177.948717,4431.794871,4205.128205,4208.205128,4513.846153,4211.794871,4641.025641,3967.179488,4065.128205
14,4455.384615,4522.564102,4495.897435,4250.769230,4506.153846,4172.307692,4431.794871,4203.076923,4202.564102,4507.179487,4206.666666,4633.333333,3957.948718,4059.487179
15,4452.820512,4517.948717,4494.871794,4249.743589,4500.512820,4169.230769,4427.692307,4195.384615,4199.487179,4497.435897,4203.589743,4627.692307,3960.512821,4054.871794
16,4458.461538,4524.102564,4496.923076,4254.358974,4494.871794,4172.307692,4426.666666,4194.871794,4201.538461,4496.410256,4204.615384,4630.769230,3966.153847,4053.846153
17,4458.461538,4527.692307,4493.846153,4257.435897,4499.487179,4169.230769,4428.205128,4198.974358,4202.564102,4499.487179,4202.564102,4631.794871,3966.666667,4055.384615
18,4458.461538,4530.769230,4497.435897,4255.384615,4508.205128,4171.794871,4427.692307,4197.435897,4206.666666,4507.179487,4203.076923,4631.282051,3967.179488,4061.025641
19,4461.025641,4534.871794,4498.974358,4255.897435,4504.615384,4176.923076,4426.666666,4191.794871,4207.179487,4508.205128,4208.717948,4633.846153,3972.307693,4064.615384
20,4460.512820,4533.846153,4495.897435,4259.487179,4501.025641,4174.358974,4428.205128,4194.358974,4203.589743,4504.102564,4211.794871,4633.846153,3976.923077,4065.641025
21,4459.487179,4532.307692,4498.461538,4255.897435,4509.743589,4169.743589,4429.743589,4201.538461,4206.666666,4505.641025,4211.282051,4633.846153,3976.410257,4064.102564
22,4457.948717,4530.769230,4501.538461,4254.871794,4502.051282,4169.230769,4429.230769,4199.487179,4212.820512,4505.128205,4211.282051,4635.384615,3973.333334,4063.589743
23,4460.000000,4532.307692,4502.564102,4265.128205,4490.256410,4171.282051,4428.717948,4199.487179,4214.871794,4508.717948,4218.461538,4643.589743,3980.000000,4068.717948
24,4462.051282,4535.897435,4507.179487,4265.128205,4502.564102,4171.794871,4430.256410,4205.128205,4213.846153,4515.897435,4221.538461,4652.820512,3985.128206,4073.846153
25,4459.487179,4535.897435,4507.692307,4252.820512,4503.076923,4170.769230,4429.230769,4201.025641,4210.769230,4508.205128,4215.897435,4648.205128,3975.897436,4070.256410
26,4458.461538,4531.282051,4502.051282,4249.230769,4488.717948,4168.717948,4426.666666,4193.846153,4204.615384,4494.358974,4211.794871,4638.974358,3969.230770,4065.641025
27,4460.000000,4524.102564,4501.025641,4253.846153,4493.333333,4170.769230,4428.717948,4196.410256,4203.076923,4499.487179,4211.794871,4641.538461,3975.384616,4066.153846
28,4455.384615,4522.051282,4501.538461,4253.846153,4501.538461,4173.846153,4431.794871,4198.974358,4203.589743,4509.230769,4211.282051,4642.051282,3972.820513,4060.512820
29,4449.743589,4524.615384,4494.358974,4250.769230,4493.333333,4170.256410,4426.153846,4192.307692,4194.871794,4498.461538,4202.564102,4631.794871,3956.410257,4051.794871
30,4455.384615,4527.692307,4491.794871,4253.846153,4494.871794,4167.179487,4420.512820,4187.692307,4188.717948,4484.615384,4195.384615,4627.692307,3949.743590,4053.333333
31,4461.025641,4531.794871,4497.435897,4256.923076,4510.769230,4170.256410,4424.102564,4192.307692,4197.435897,4488.205128,4199.487179,4632.307692,3955.384616,4058.461538
32,4456.923076,4529.743589,4496.410256,4250.769230,4505.128205,4170.256410,4424.615384,4195.384615,4201.025641,4499.487179,4201.025641,4631.282051,3958.974359,4054.358974
33,4454.358974,4526.666666,4495.897435,4248.717948,4486.666666,4168.717948,4427.179487,4197.948717,4200.000000,4504.102564,4197.948717,4628.717948,3961.025642,4055.384615
34,4457.948717,4529.743589,4504.102564,4258.974358,4489.743589,4176.410256,4436.410256,4203.076923,4209.230769,4508.205128,4205.128205,4634.871794,3963.589744,4063.589743
35,4461.025641,4536.923076,4502.564102,4262.564102,4502.051282,4184.615384,4441.025641,4202.051282,4210.769230,4512.820512,4212.820512,4636.410256,3962.051283,4061.538461
36,4461.538461,4538.974358,4499.487179,4261.025641,4500.000000,4185.641025,4440.512820,4200.000000,4205.128205,4510.769230,4212.307692,4633.333333,3962.564103,4055.384615
37,4460.000000,4534.871794,4506.153846,4264.102564,4495.384615,4182.564102,4441.538461,4200.000000,4205.641025,4502.564102,4212.307692,4634.358974,3968.717949,4055.384615
38,4463.076923,4533.846153,4506.666666,4268.205128,4500.512820,4181.538461,4439.487179,4199.487179,4204.102564,4502.051282,4210.256410,4638.974358,3975.384616,4054.871794
39,4471.794871,4538.974358,4506.666666,4266.666666,4502.051282,4185.128205,4434.871794,4200.000000,4206.666666,4510.769230,4204.615384,4642.051282,3974.871795,4052.307692
40,4475.897435,4539.487179,4511.282051,4261.538461,4497.948717,4183.589743,4431.282051,4198.974358,4213.846153,4508.205128,4205.641025,4642.051282,3969.743590,4049.230769
41,4470.256410,4531.794871,4506.666666,4262.051282,4494.358974,4175.384615,4428.717948,4198.461538,4208.717948,4500.512820,4208.717948,4638.974358,3970.769231,4045.641025
42,4473.333333,4532.820512,4506.666666,4271.282051,4494.358974,4180.000000,4436.410256,4205.128205,4206.666666,4508.205128,4214.871794,4641.538461,3978.974359,4050.256410
43,4477.948717,4538.974358,4513.333333,4273.846153,4494.358974,4187.692307,4447.179487,4211.282051,4217.948717,4512.820512,4219.487179,4648.205128,3978.461539,4055.384615
44,4470.256410,4532.820512,4506.666666,4262.051282,4495.384615,4177.948717,4440.000000,4205.128205,4211.794871,4501.025641,4209.230769,4642.051282,3963.076924,4045.128205
45,4461.025641,4529.743589,4497.948717,4257.435897,4496.410256,4170.256410,4428.205128,4198.461538,4193.846153,4492.307692,4195.897435,4630.256410,3960.512821,4033.333333
46,4458.461538,4532.307692,4501.538461,4263.076923,4493.846153,4173.846153,4430.769230,4198.461538,4196.410256,4493.333333,4199.487179,4630.256410,3972.820513,4034.358974
47,4463.589743,4532.820512,4508.717948,4265.641025,4494.871794,4178.974358,4434.358974,4201.025641,4203.076923,4494.871794,4205.641025,4635.897435,3976.410257,4041.538461
48,4467.179487,4533.333333,4506.153846,4264.102564,4498.974358,4179.487179,4427.692307,4198.974358,4199.487179,4497.948717,4200.512820,4635.897435,3967.692308,4044.102564
49,4461.025641,4529.743589,4493.846153,4257.948717,4495.897435,4173.333333,4422.564102,4195.897435,4197.435897,4495.384615,4193.846153,4628.717948,3962.051283,4035.384615
50,4454.358974,4520.000000,4488.717948,4251.794871,4494.358974,4166.153846,4422.564102,4195.384615,4196.923076,4486.666666,4193.846153,4622.564102,3960.000000,4025.641025
51,4457.948717,4521.025641,4495.384615,4250.256410,4496.410256,4168.205128,4424.102564,4200.000000,4198.461538,4490.769230,4194.871794,4628.205128,3957.435898,4030.769230
52,4465.641025,4526.153846,4500.000000,4255.384615,4491.794871,4176.923076,4433.333333,4207.179487,4204.102564,4499.487179,4189.230769,4633.333333,3962.564103,4040.512820
53,4460.512820,4518.461538,4493.846153,4254.871794,4491.282051,4179.487179,4439.487179,4207.179487,4201.025641,4492.307692,4184.615384,4624.615384,3967.692308,4032.307692
54,4447.692307,4513.846153,4486.153846,4238.461538,4496.410256,4174.358974,4432.820512,4201.025641,4190.769230,4481.025641,4185.641025,4615.897435,3963.589744,4016.410256
55,4449.230769,4517.435897,4488.717948,4234.871794,4496.410256,4173.846153,4433.846153,4203.589743,4191.282051,4480.512820,4184.102564,4617.948717,3951.282052,4015.384615
56,4464.102564,4523.589743,4501.538461,4251.282051,4502.564102,4184.615384,4445.128205,4214.871794,4201.025641,4491.282051,4186.153846,4627.179487,3952.307693,4029.230769
57,4465.641025,4523.076923,4505.641025,4255.384615,4509.743589,4189.230769,4445.641025,4218.461538,4212.307692,4502.564102,4189.230769,4634.871794,3971.794872,4036.923076
58,4456.923076,4521.025641,4499.487179,4246.666666,4505.641025,4180.512820,4443.076923,4216.410256,4213.846153,4505.641025,4182.051282,4635.384615,3978.974359,4033.333333
59,4458.974358,4523.589743,4498.461538,4243.076923,4504.102564,4175.384615,4446.666666,4218.974358,4206.666666,4499.487179,4185.128205,4631.794871,3965.128206,4029.743589
60,4458.974358,4520.000000,4497.435897,4239.487179,4508.717948,4173.846153,4441.025641,4216.923076,4203.076923,4490.769230,4195.897435,4627.179487,3957.948718,4027.179487
61,4456.923076,4519.487179,4492.307692,4240.000000,4500.000000,4169.743589,4430.256410,4211.794871,4204.102564,4487.692307,4190.769230,4626.153846,3969.230770,4025.128205
62,4468.717948,4530.256410,4500.512820,4252.307692,4493.846153,4174.358974,4433.333333,4212.820512,4208.717948,4494.871794,4185.128205,4632.820512,3976.923077,4033.846153
63,4480.000000,4540.000000,4511.282051,4259.487179,4509.230769,4183.076923,4443.076923,4216.410256,4212.820512,4503.076923,4197.435897,4642.051282,3977.435898,4045.641025
64,4481.025641,4540.512820,4509.743589,4259.487179,4521.025641,4181.538461,4442.051282,4216.923076,4211.282051,4506.153846,4206.666666,4645.128205,3980.512821,4047.179487
65,4477.435897,4537.435897,4505.128205,4256.923076,4510.769230,4172.820512,4434.871794,4213.846153,4208.205128,4506.153846,4201.538461,4641.025641,3975.897436,4041.025641
66,4474.871794,4531.794871,4506.153846,4248.717948,4502.051282,4170.769230,4433.846153,4212.307692,4208.205128,4505.128205,4195.897435,4637.948717,3966.666667,4037.435897
67,4480.000000,4530.256410,4508.205128,4250.256410,4507.179487,4172.820512,4435.897435,4215.384615,4212.820512,4508.205128,4202.051282,4642.564102,3977.435898,4044.615384
68,4488.205128,4536.923076,4510.256410,4258.974358,4510.256410,4169.743589,4432.307692,4215.897435,4214.871794,4508.205128,4206.666666,4646.666666,3994.871795,4055.384615
69,4480.512820,4537.948717,4511.282051,4258.461538,4502.564102,4166.666666,4425.128205,4209.743589,4210.256410,4496.410256,4204.102564,4645.128205,3989.743590,4056.410256
70,4450.769230,4536.410256,4517.948717,4256.410256,4496.923076,4172.820512,4431.282051,4212.307692,4209.743589,4496.923076,4209.743589,4650.256410,3986.153847,4055.384615
71,4403.076923,4541.025641,4525.641025,4260.512820,4500.512820,4181.025641,4442.051282,4217.948717,4218.974358,4510.769230,4209.230769,4658.461538,3997.435898,4060.000000
72,4337.948717,4534.871794,4520.000000,4256.410256,4501.025641,4173.846153,4434.871794,4209.743589,4214.871794,4505.641025,4190.769230,4653.846153,3990.256411,4054.871794
73,4278.461538,4521.025641,4510.256410,4242.564102,4493.846153,4164.615384,4425.128205,4203.076923,4203.589743,4494.871794,4188.717948,4645.128205,3969.230770,4043.589743
74,4237.435897,4518.974358,4511.794871,4242.564102,4490.769230,4170.256410,4430.256410,4207.179487,4204.102564,4500.512820,4198.974358,4645.128205,3970.256411,4042.051282
75,4202.564102,4525.641025,4510.256410,4250.769230,4495.897435,4172.820512,4432.820512,4209.230769,4208.205128,4504.615384,4192.820512,4644.615384,3974.358975,4042.051282
76,4177.435897,4527.692307,4507.692307,4250.769230,4496.923076,4166.666666,4427.692307,4211.794871,4208.717948,4497.435897,4187.692307,4642.564102,3969.230770,4040.000000
77,4167.692307,4526.666666,4514.871794,4248.717948,4497.948717,4168.717948,4430.769230,4217.948717,4207.692307,4495.384615,4194.358974,4646.666666,3972.820513,4045.641025
78,4163.589743,4530.256410,4515.384615,4249.230769,4497.435897,4171.794871,4432.820512,4216.410256,4205.641025,4491.282051,4191.794871,4648.717948,3975.897436,4049.230769
79,4174.871794,4530.256410,4510.769230,4249.230769,4491.794871,4166.153846,4430.256410,4212.307692,4209.743589,4489.230769,4189.743589,4645.641025,3968.205129,4047.179487
80,4215.897435,4532.307692,4515.384615,4254.358974,4499.487179,4172.820512,4437.435897,4218.974358,4221.538461,4504.615384,4205.128205,4647.692307,3972.820513,4053.333333
81,4253.846153,4536.410256,4522.564102,4261.538461,4512.307692,4182.051282,4444.615384,4224.615384,4226.153846,4515.384615,4217.435897,4652.307692,3986.153847,4063.589743
82,4264.102564,4535.897435,4517.435897,4256.923076,4506.666666,4174.871794,4440.512820,4221.538461,4222.564102,4513.333333,4212.307692,4650.256410,3987.692308,4063.589743
83,4273.846153,4535.384615,4509.743589,4254.358974,4494.358974,4172.307692,4437.948717,4216.410256,4220.512820,4513.846153,4209.743589,4647.179487,3984.102565,4056.410256
84,4294.871794,4535.384615,4512.820512,4256.923076,4500.000000,4180.000000,4441.025641,4219.487179,4221.538461,4515.897435,4212.820512,4648.205128,3982.564103,4053.333333
85,4312.820512,4531.282051,4516.923076,4255.384615,4509.230769,4179.487179,4441.025641,4218.974358,4217.435897,4507.692307,4209.743589,4648.205128,3982.051283,4056.923076
86,4327.692307,4530.256410,4516.923076,4254.871794,4504.615384,4176.923076,4440.512820,4215.384615,4212.820512,4501.538461,4207.692307,4652.820512,3984.615385,4060.000000
87,4338.461538,4538.974358,4520.512820,4258.461538,4497.435897,4183.076923,4443.076923,4217.435897,4218.461538,4509.230769,4216.410256,4658.461538,3986.666667,4063.589743
88,4341.538461,4541.025641,4521.538461,4257.435897,4499.487179,4186.153846,4444.102564,4219.487179,4221.538461,4513.333333,4218.461538,4655.897435,3981.025642,4064.615384
89,4342.564102,4529.230769,4511.282051,4251.282051,4504.615384,4177.948717,4437.948717,4214.358974,4214.358974,4509.230769,4204.615384,4652.820512,3971.282052,4055.897435
90,4349.230769,4523.076923,4512.820512,4252.307692,4497.948717,4171.794871,4430.769230,4213.333333,4209.743589,4508.717948,4204.102564,4655.897435,3973.846154,4051.794871
91,4358.461538,4531.794871,4524.615384,4261.025641,4492.820512,4175.897435,4434.358974,4215.897435,4211.794871,4508.717948,4215.384615,4656.923076,3981.025642,4060.512820
92,4368.205128,4537.948717,4523.589743,4263.589743,4503.076923,4184.615384,4441.538461,4215.897435,4216.923076,4502.051282,4209.230769,4655.384615,3981.025642,4065.641025
93,4376.923076,4535.384615,4522.051282,4257.435897,4509.743589,4185.641025,4442.051282,4222.051282,4216.410256,4498.461538,4199.487179,4656.410256,3981.025642,4061.538461
94,4377.948717,4531.794871,4525.641025,4252.307692,4503.076923,4182.051282,4440.512820,4228.717948,4214.358974,4506.666666,4207.179487,4658.974358,3982.564103,4060.000000
95,4376.410256,4530.256410,4523.589743,4257.948717,4499.487179,4184.615384,4442.564102,4224.615384,4216.923076,4511.794871,4212.307692,4661.025641,3978.974359,4062.051282
96,4377.435897,4532.307692,4521.025641,4263.076923,4503.076923,4185.641025,4443.589743,4217.435897,4218.974358,4506.153846,4207.692307,4660.000000,3971.794872,4062.051282
97,4380.000000,4533.846153,4521.025641,4260.512820,4502.051282,4176.410256,4436.923076,4216.410256,4209.230769,4497.435897,4200.512820,4655.384615,3967.692308,4058.974358
98,4385.128205,4532.820512,4518.974358,4257.948717,4500.512820,4172.307692,4429.230769,4217.948717,4204.615384,4501.025641,4192.820512,4652.307692,3967.179488,4057.948717
99,4390.769230,4531.794871,4512.820512,4257.435897,4504.102564,4176.410256,4427.692307,4212.307692,4208.717948,4502.051282,4191.794871,4648.717948,3968.205129,4058.974358
100,4393.333333,4531.282051,4505.641025,4253.846153,4503.589743,4175.897435,4427.179487,4205.128205,4204.102564,4489.743589,4195.384615,4648.205128,3964.102565,4053.846153
101,4399.487179,4531.282051,4509.743589,4254.358974,4498.461538,4174.871794,4427.179487,4209.230769,4203.589743,4489.743589,4202.564102,4654.871794,3967.179488,4057.435897
102,4409.230769,4535.384615,4521.538461,4261.538461,4505.641025,4177.435897,4430.769230,4215.384615,4215.384615,4507.179487,4212.307692,4657.948717,3980.000000,4070.256410
103,4403.589743,4529.230769,4519.487179,4253.333333,4509.743589,4172.307692,4425.128205,4206.666666,4211.282051,4512.307692,4210.769230,4649.230769,3977.948718,4063.076923
104,4392.820512,4516.923076,4508.717948,4240.512820,4490.256410,4163.589743,4415.384615,4197.435897,4195.384615,4502.051282,4196.410256,4645.128205,3964.615385,4048.717948
105,4399.487179,4521.025641,4507.692307,4250.769230,4477.948717,4169.230769,4422.051282,4202.051282,4197.435897,4499.487179,4195.384615,4647.179487,3962.051283,4051.282051
106,4409.230769,4525.641025,4507.692307,4257.435897,4486.666666,4173.333333,4429.230769,4203.076923,4204.102564,4497.948717,4193.846153,4640.512820,3961.538462,4050.256410
107,4407.692307,4521.025641,4508.205128,4247.692307,4493.333333,4166.666666,4426.153846,4197.435897,4198.461538,4491.282051,4181.025641,4636.923076,3956.410257,4044.615384
108,4408.717948,4527.179487,4514.871794,4253.846153,4498.974358,4171.282051,4427.179487,4205.128205,4203.589743,4491.282051,4189.743589,4648.205128,3959.487180,4053.846153
109,4408.205128,4536.410256,4518.974358,4267.179487,4502.564102,4182.051282,4431.794871,4215.897435,4213.333333,4497.948717,4204.615384,4652.307692,3963.076924,4059.487179
110,4388.205128,4532.820512,4514.358974,4258.974358,4500.512820,4178.974358,4430.769230,4213.333333,4209.743589,4496.923076,4194.871794,4639.487179,3957.948718,4050.256410
111,4351.282051,4521.025641,4507.179487,4251.282051,4501.538461,4169.230769,4429.230769,4206.666666,4205.128205,4493.846153,4180.512820,4630.769230,3957.435898,4044.102564
112,4327.179487,4518.974358,4505.128205,4257.948717,4501.025641,4171.282051,4426.666666,4204.615384,4206.666666,4497.948717,4190.256410,4635.897435,3964.615385,4045.128205
113,4324.615384,4532.307692,4514.871794,4263.076923,4496.410256,4180.000000,4427.179487,4208.717948,4210.769230,4507.179487,4210.256410,4649.230769,3974.358975,4054.871794
114,4326.153846,4544.102564,4526.666666,4265.128205,4504.615384,4183.589743,4432.820512,4214.871794,4217.435897,4518.974358,4218.461538,4660.512820,3984.615385,4071.282051
115,4316.410256,4536.923076,4521.025641,4263.076923,4505.641025,4178.974358,4431.282051,4215.897435,4216.410256,4514.871794,4208.205128,4655.384615,3988.205129,4075.384615
116,4306.153846,4523.076923,4510.256410,4256.410256,4495.897435,4170.769230,4425.641025,4209.743589,4208.717948,4499.487179,4193.333333,4647.179487,3977.948718,4066.666666
117,4303.076923,4521.025641,4507.179487,4251.282051,4496.923076,4169.743589,4428.205128,4203.589743,4207.179487,4495.897435,4195.897435,4645.641025,3964.102565,4055.384615
118,4307.179487,4523.076923,4505.641025,4250.256410,4499.487179,4171.794871,4429.230769,4202.051282,4207.692307,4501.025641,4205.641025,4640.512820,3961.538462,4047.692307
119,4315.384615,4519.487179,4505.641025,4251.794871,4497.948717,4170.256410,4425.641025,4202.564102,4205.128205,4502.564102,4200.000000,4635.384615,3965.641026,4046.666666
120,4325.128205,4516.923076,4504.102564,4253.846153,4495.384615,4167.179487,4426.153846,4202.051282,4204.102564,4505.128205,4187.692307,4635.897435,3964.102565,4046.666666
121,4335.897435,4521.025641,4502.051282,4250.256410,4490.769230,4166.666666,4427.179487,4203.076923,4207.692307,4504.615384,4188.717948,4635.897435,3959.487180,4046.666666
122,4348.717948,4523.076923,4504.615384,4244.615384,4491.794871,4174.358974,4427.179487,4211.794871,4212.820512,4501.538461,4198.461538,4636.410256,3966.153847,4051.794871
123,4359.487179,4522.051282,4506.153846,4250.256410,4501.538461,4185.641025,4436.923076,4219.487179,4218.974358,4510.256410,4203.076923,4641.538461,3978.461539,4059.487179
124,4367.179487,4531.282051,4507.179487,4260.000000,4506.153846,4187.692307,4441.538461,4217.435897,4217.948717,4513.333333,4202.564102,4646.153846,3979.487180,4058.974358
125,4372.820512,4535.897435,4510.769230,4263.076923,4503.076923,4181.538461,4431.794871,4209.230769,4210.256410,4503.589743,4202.564102,4647.179487,3973.333334,4056.923076
126,4376.410256,4528.717948,4510.769230,4264.102564,4499.487179,4181.025641,4427.692307,4206.666666,4207.692307,4501.025641,4204.615384,4645.641025,3973.333334,4060.512820
127,4377.948717,4527.179487,4508.717948,4262.051282,4503.589743,4185.128205,4432.307692,4210.256410,4210.256410,4507.692307,4201.025641,4640.512820,3971.282052,4058.974358
128,4374.358974,4526.153846,4502.564102,4251.282051,4507.179487,4176.410256,4423.589743,4204.615384,4205.641025,4504.102564,4189.230769,4633.846153,3960.512821,4046.153846
129,4371.282051,4523.589743,4494.871794,4249.230769,4492.820512,4164.615384,4413.333333,4195.384615,4194.358974,4494.871794,4187.179487,4628.717948,3957.435898,4040.512820
130,4377.435897,4531.282051,4500.512820,4264.615384,4486.153846,4171.794871,4421.538461,4195.384615,4193.846153,4495.384615,4196.923076,4630.769230,3972.307693,4053.333333
131,4381.025641,4534.358974,4504.615384,4262.051282,4498.461538,4179.487179,4425.128205,4197.435897,4199.487179,4503.589743,4196.923076,4634.871794,3976.410257,4056.923076
132,4381.538461,4521.025641,4496.923076,4247.179487,4505.128205,4168.205128,4417.435897,4192.820512,4196.923076,4501.025641,4191.282051,4632.307692,3965.641026,4047.692307
133,4392.820512,4520.000000,4503.589743,4256.410256,4505.128205,4165.641025,4420.000000,4194.871794,4196.923076,4495.384615,4200.512820,4633.333333,3970.256411,4053.333333
134,4409.743589,4532.820512,4516.923076,4267.692307,4506.666666,4181.025641,4430.256410,4206.153846,4208.205128,4506.153846,4205.641025,4644.615384,3982.051283,4067.179487
135,4414.358974,4534.358974,4513.846153,4262.051282,4506.153846,4185.128205,4431.794871,4210.256410,4214.358974,4520.512820,4198.974358,4648.717948,3977.435898,4066.666666
136,4414.871794,4531.794871,4511.282051,4261.538461,4509.743589,4173.846153,4425.641025,4205.128205,4212.307692,4514.871794,4202.051282,4644.102564,3969.230770,4058.461538
137,4417.435897,4532.820512,4512.307692,4265.641025,4508.205128,4167.179487,4419.487179,4203.589743,4209.230769,4501.538461,4201.025641,4639.487179,3971.282052,4054.871794
138,4410.256410,4530.256410,4507.692307,4263.589743,4494.871794,4172.820512,4421.025641,4208.205128,4209.230769,4507.179487,4188.205128,4641.538461,3973.333334,4056.410256
139,4394.871794,4530.256410,4507.692307,4263.589743,4494.871794,4177.948717,4426.153846,4206.153846,4209.743589,4512.307692,4192.820512,4643.589743,3966.153847,4056.410256
140,4387.179487,4530.256410,4510.256410,4264.102564,4500.000000,4170.256410,4419.487179,4197.435897,4204.102564,4502.051282,4198.974358,4637.948717,3954.871795,4050.769230
141,4391.794871,4525.641025,4508.717948,4264.102564,4494.871794,4169.230769,4416.410256,4202.564102,4201.025641,4504.102564,4195.897435,4636.410256,3962.051283,4049.743589
142,4401.538461,4530.256410,4514.358974,4266.666666,4498.461538,4183.076923,4426.153846,4215.384615,4208.717948,4517.948717,4202.564102,4646.153846,3983.589744,4064.102564
143,4405.128205,4538.974358,4520.512820,4268.205128,4503.076923,4182.051282,4429.230769,4215.384615,4213.333333,4514.871794,4207.692307,4649.230769,3981.538462,4073.333333
144,4403.589743,4530.769230,4514.871794,4262.051282,4496.923076,4172.820512,4424.615384,4205.641025,4204.615384,4500.512820,4201.538461,4641.025641,3963.589744,4063.076923
145,4407.692307,4520.512820,4507.692307,4258.461538,4493.333333,4178.974358,4426.153846,4202.564102,4198.974358,4501.538461,4197.435897,4640.512820,3959.487180,4048.717948
146,4411.794871,4523.076923,4507.179487,4262.564102,4498.974358,4181.538461,4427.692307,4201.538461,4202.051282,4503.589743,4187.692307,4639.487179,3954.871795,4042.564102
147,4409.743589,4521.538461,4508.205128,4263.076923,4499.487179,4173.333333,4424.615384,4203.076923,4202.051282,4487.179487,4175.384615,4632.820512,3949.230770,4044.615384
148,4413.333333,4518.974358,4507.179487,4259.487179,4495.384615,4174.871794,4426.153846,4212.307692,4205.128205,4485.641025,4190.256410,4635.384615,3958.974359,4052.307692
149,4417.948717,4529.743589,4507.179487,4261.538461,4498.974358,4183.076923,4428.717948,4210.256410,4208.205128,4514.358974,4208.717948,4641.025641,3972.307693,4054.358974
150,4404.615384,4534.871794,4506.153846,4264.615384,4503.589743,4177.435897,4420.512820,4198.974358,4200.000000,4522.051282,4198.974358,4633.846153,3968.205129,4048.717948
151,4390.769230,4524.615384,4504.102564,4262.564102,4498.974358,4168.205128,4412.307692,4197.435897,4191.794871,4498.461538,4182.051282,4629.743589,3958.974359,4047.692307
152,4392.820512,4522.564102,4507.692307,4264.615384,4495.384615,4174.358974,4417.435897,4202.051282,4194.871794,4492.820512,4184.615384,4641.538461,3963.589744,4056.923076
153,4396.923076,4528.717948,4511.794871,4263.589743,4503.076923,4181.538461,4425.128205,4203.076923,4202.051282,4509.230769,4194.871794,4648.205128,3971.282052,4059.487179
154,4394.871794,4527.692307,4505.641025,4254.358974,4505.641025,4173.333333,4419.487179,4201.025641,4202.051282,4511.282051,4195.897435,4638.461538,3965.128206,4050.256410
155,4396.410256,4527.179487,4496.923076,4254.358974,4500.000000,4169.230769,4414.871794,4197.435897,4197.435897,4501.538461,4196.410256,4631.794871,3953.846154,4044.615384
156,4404.102564,4530.769230,4500.000000,4263.076923,4504.615384,4183.589743,4422.564102,4197.948717,4197.435897,4504.615384,4197.948717,4635.897435,3957.948718,4050.256410
157,4410.769230,4530.256410,4508.205128,4267.179487,4507.179487,4188.205128,4429.230769,4206.153846,4206.666666,4514.871794,4197.435897,4637.435897,3970.769231,4051.282051
158,4413.333333,4523.589743,4506.666666,4268.205128,4506.153846,4180.000000,4426.153846,4207.179487,4209.743589,4516.410256,4194.358974,4632.820512,3972.820513,4045.128205
159,4421.025641,4525.641025,4503.076923,4269.230769,4510.256410,4176.923076,4424.102564,4201.538461,4204.102564,4509.230769,4194.358974,4635.384615,3969.230770,4052.307692
160,4433.846153,4536.410256,4508.717948,4269.230769,4510.769230,4179.487179,4428.205128,4205.641025,4205.641025,4508.717948,4204.615384,4644.102564,3977.435898,4066.666666
161,4435.897435,4537.948717,4511.794871,4269.230769,4510.769230,4184.615384,4428.717948,4211.282051,4209.230769,4514.358974,4212.307692,4648.717948,3989.230770,4066.666666
162,4431.282051,4529.743589,4507.692307,4272.820512,4512.820512,4184.615384,4425.641025,4204.615384,4206.666666,4517.948717,4204.102564,4647.692307,3978.974359,4058.461538
163,4437.948717,4526.153846,4506.153846,4270.256410,4506.153846,4181.025641,4426.666666,4198.461538,4206.666666,4517.435897,4197.435897,4646.666666,3965.641026,4057.435897
164,4442.564102,4524.615384,4503.076923,4259.487179,4497.435897,4181.538461,4427.692307,4204.615384,4208.717948,4516.410256,4202.564102,4645.641025,3974.871795,4062.051282
165,4441.025641,4522.051282,4500.000000,4254.871794,4500.512820,4184.102564,4426.666666,4212.307692,4209.743589,4518.461538,4204.615384,4647.179487,3987.692308,4067.692307
166,4451.282051,4527.179487,4503.076923,4263.076923,4509.230769,4182.564102,4428.717948,4214.871794,4216.410256,4522.564102,4207.179487,4651.794871,3986.666667,4068.205128
167,4463.076923,4529.230769,4505.641025,4271.794871,4515.384615,4184.615384,4431.282051,4214.358974,4218.461538,4528.205128,4213.333333,4652.820512,3985.128206,4064.615384
168,4460.000000,4529.230769,4507.692307,4272.820512,4521.538461,4189.230769,4429.230769,4215.384615,4215.384615,4532.820512,4209.743589,4649.743589,3991.282052,4062.564102
169,4462.564102,4536.410256,4513.333333,4268.717948,4525.641025,4189.230769,4433.333333,4218.974358,4217.435897,4532.307692,4204.615384,4647.692307,3995.384616,4064.615384
170,4471.794871,4538.461538,4511.282051,4264.615384,4523.076923,4191.794871,4441.538461,4216.923076,4216.410256,4523.076923,4205.128205,4649.743589,3993.846154,4065.641025
171,4475.384615,4536.923076,4512.307692,4274.358974,4521.538461,4194.871794,4442.564102,4216.410256,4215.897435,4520.512820,4203.076923,4651.282051,3985.641026,4070.769230
172,4477.948717,4540.512820,4517.435897,4283.589743,4524.102564,4197.948717,4442.051282,4221.025641,4218.461538,4528.717948,4207.179487,4651.794871,3986.153847,4078.974358
173,4479.487179,4539.487179,4514.871794,4271.794871,4527.692307,4199.487179,4443.589743,4219.487179,4217.435897,4531.794871,4212.820512,4653.333333,3996.923077,4076.410256
174,4477.435897,4537.435897,4514.871794,4254.358974,4526.153846,4194.871794,4441.025641,4213.846153,4216.923076,4527.692307,4206.666666,4656.410256,4000.000000,4071.794871
175,4475.384615,4536.410256,4520.000000,4255.897435,4522.051282,4192.307692,4439.487179,4214.871794,4218.974358,4525.641025,4206.666666,4657.435897,3993.846154,4072.820512
176,4475.384615,4534.358974,4516.923076,4264.615384,4517.948717,4192.307692,4442.051282,4216.923076,4217.948717,4527.692307,4213.846153,4655.897435,3990.256411,4073.333333
177,4472.820512,4539.487179,4516.410256,4269.743589,4523.076923,4194.871794,4442.564102,4215.897435,4216.410256,4524.615384,4211.794871,4658.974358,3998.461539,4072.820512
178,4465.128205,4542.564102,4525.641025,4279.487179,4534.871794,4197.435897,4445.128205,4218.974358,4219.487179,4519.487179,4208.717948,4662.564102,4002.564102,4076.923076
179,4449.230769,4531.282051,4518.461538,4274.871794,4528.717948,4194.871794,4444.615384,4214.871794,4214.358974,4520.000000,4212.307692,4657.948717,3989.230770,4071.794871
180,4431.794871,4524.615384,4502.564102,4254.358974,4511.794871,4183.589743,4435.384615,4201.538461,4204.615384,4516.923076,4203.076923,4647.179487,3970.256411,4057.948717
181,4426.153846,4528.717948,4506.666666,4250.256410,4513.846153,4179.487179,4433.846153,4198.461538,4203.589743,4506.153846,4190.769230,4643.589743,3968.205129,4057.435897
182,4432.820512,4529.230769,4517.948717,4264.102564,4524.102564,4189.743589,4443.589743,4206.153846,4210.769230,4506.153846,4200.512820,4652.820512,3981.538462,4065.641025
183,4436.923076,4531.282051,4518.461538,4267.179487,4522.564102,4195.384615,4446.666666,4206.153846,4214.358974,4514.871794,4214.358974,4656.923076,3984.615385,4069.743589
184,4426.666666,4532.820512,4517.435897,4257.948717,4516.923076,4191.794871,4442.051282,4200.000000,4206.666666,4511.794871,4205.641025,4651.282051,3974.871795,4066.153846
185,4420.512820,4523.589743,4517.948717,4258.974358,4516.923076,4192.820512,4441.538461,4204.102564,4205.641025,4507.179487,4188.717948,4648.205128,3971.794872,4063.076923
186,4427.179487,4517.948717,4513.846153,4261.025641,4518.461538,4197.948717,4445.641025,4213.333333,4212.307692,4513.333333,4190.256410,4649.743589,3974.871795,4064.102564
187,4424.102564,4527.179487,4513.846153,4256.410256,4524.615384,4194.871794,4446.153846,4217.948717,4213.333333,4515.384615,4203.076923,4650.769230,3972.820513,4065.128205
188,4402.051282,4530.256410,4512.820512,4256.923076,4521.538461,4184.102564,4437.948717,4213.333333,4206.666666,4507.179487,4200.000000,4646.153846,3967.179488,4058.461538
189,4386.666666,4523.589743,4507.179487,4260.512820,4507.692307,4183.076923,4432.307692,4203.076923,4204.615384,4502.051282,4187.179487,4643.076923,3962.051283,4053.846153
190,4390.256410,4530.769230,4506.666666,4262.051282,4510.769230,4196.410256,4441.025641,4206.666666,4209.230769,4503.589743,4188.717948,4646.153846,3964.615385,4062.564102
191,4393.846153,4534.871794,4510.769230,4263.589743,4525.128205,4201.025641,4445.128205,4215.897435,4213.333333,4506.153846,4194.871794,4649.230769,3975.384616,4066.153846
192,4394.871794,4529.743589,4513.333333,4268.717948,4522.051282,4193.333333,4434.871794,4210.256410,4216.410256,4507.179487,4197.948717,4647.692307,3975.384616,4061.025641
193,4402.051282,4533.333333,4513.846153,4266.153846,4513.846153,4190.256410,4430.256410,4204.102564,4215.897435,4511.794871,4206.153846,4646.666666,3969.743590,4062.564102
194,4414.871794,4535.384615,4508.205128,4256.410256,4516.923076,4193.333333,4433.333333,4206.153846,4217.435897,4521.025641,4209.230769,4647.692307,3977.435898,4070.256410
195,4426.666666,4528.205128,4507.179487,4257.435897,4521.025641,4189.743589,4433.333333,4210.256410,4219.487179,4523.589743,4202.051282,4646.666666,3981.025642,4065.641025
196,4429.230769,4529.230769,4511.282051,4260.512820,4513.846153,4186.153846,4432.307692,4210.769230,4214.871794,4514.871794,4200.000000,4644.615384,3972.307693,4055.897435
197,4426.666666,4530.256410,4508.717948,4255.384615,4508.717948,4187.179487,4429.230769,4208.717948,4213.846153,4510.769230,4197.948717,4640.512820,3974.358975,4056.410256
198,4429.743589,4520.512820,4505.128205,4253.846153,4514.871794,4185.641025,4425.641025,4206.666666,4215.384615,4512.820512,4187.692307,4639.487179,3976.923077,4060.000000
199,4437.435897,4519.487179,4506.153846,4254.358974,4517.435897,4185.128205,4426.153846,4206.666666,4215.384615,4508.717948,4191.794871,4641.538461,3964.102565,4054.871794
200,4441.025641,4526.153846,4505.128205,4252.820512,4508.717948,4186.153846,4426.666666,4205.128205,4213.846153,4507.692307,4204.615384,4642.564102,3958.974359,4052.307692
201,4440.512820,4528.717948,4502.564102,4253.333333,4507.179487,4185.128205,4425.641025,4203.589743,4214.358974,4516.923076,4201.538461,4642.051282,3971.794872,4057.435897
202,4443.076923,4527.692307,4504.615384,4255.897435,4513.333333,4185.641025,4426.666666,4205.128205,4215.384615,4515.897435,4197.435897,4640.512820,3977.948718,4057.435897
203,4444.102564,4524.102564,4502.564102,4250.769230,4510.256410,4185.128205,4428.717948,4202.564102,4217.435897,4506.153846,4201.025641,4641.025641,3973.333334,4054.871794
204,4442.564102,4521.025641,4497.435897,4245.128205,4505.641025,4183.076923,4428.205128,4200.000000,4214.871794,4506.153846,4197.948717,4640.512820,3973.846154,4055.897435
205,4448.717948,4521.025641,4496.410256,4247.692307,4506.666666,4182.051282,4426.666666,4200.000000,4208.717948,4510.256410,4193.846153,4635.384615,3976.923077,4057.435897
206,4457.948717,4525.641025,4498.461538,4251.282051,4509.230769,4188.717948,4430.256410,4203.589743,4212.820512,4516.410256,4198.461538,4636.923076,3974.358975,4056.410256
207,4463.076923,4528.205128,4502.051282,4253.846153,4520.512820,4194.871794,4437.948717,4212.307692,4220.512820,4523.589743,4200.000000,4646.666666,3974.358975,4057.435897
208,4469.230769,4527.179487,4505.128205,4254.358974,4528.205128,4191.282051,4434.871794,4209.743589,4216.410256,4515.897435,4201.025641,4649.230769,3973.846154,4057.948717
209,4475.897435,4527.179487,4506.666666,4258.461538,4519.487179,4184.102564,4428.205128,4199.487179,4211.282051,4502.564102,4209.743589,4644.615384,3970.256411,4056.410256
210,4478.461538,4532.820512,4507.692307,4263.589743,4513.333333,4189.230769,4430.769230,4201.538461,4215.897435,4507.179487,4211.282051,4645.641025,3975.384616,4060.000000
211,4478.461538,4538.461538,4509.743589,4267.179487,4520.000000,4197.948717,4431.282051,4210.256410,4217.948717,4521.025641,4198.461538,4648.717948,3983.076924,4063.589743
212,4480.000000,4535.384615,4508.205128,4264.102564,4522.564102,4192.820512,4431.282051,4208.717948,4215.897435,4523.076923,4191.282051,4647.692307,3978.974359,4064.615384
213,4479.487179,4534.358974,4506.666666,4254.358974,4520.000000,4191.282051,4436.923076,4210.256410,4214.871794,4519.487179,4202.564102,4646.666666,3977.948718,4063.589743
214,4476.410256,4535.384615,4510.256410,4251.282051,4518.461538,4195.384615,4434.358974,4213.846153,4214.871794,4515.384615,4212.820512,4649.743589,3977.435898,4061.025641
215,4475.897435,4529.230769,4509.743589,4258.974358,4515.897435,4190.769230,4428.205128,4209.230769,4214.358974,4511.794871,4208.205128,4653.333333,3965.641026,4063.076923
216,4476.923076,4526.666666,4509.743589,4265.128205,4516.923076,4187.179487,4427.692307,4206.153846,4214.358974,4516.923076,4201.025641,4650.769230,3969.230770,4066.153846
217,4467.692307,4530.256410,4511.794871,4260.000000,4516.923076,4192.307692,4428.717948,4203.589743,4213.846153,4517.435897,4197.948717,4645.641025,3987.179488,4063.589743
218,4457.948717,4530.256410,4510.769230,4253.846153,4515.897435,4199.487179,4434.358974,4204.615384,4216.410256,4511.794871,4203.589743,4649.743589,3989.743590,4063.076923
219,4456.410256,4529.743589,4509.230769,4257.435897,4522.051282,4199.487179,4437.948717,4210.769230,4218.461538,4516.923076,4217.948717,4655.897435,3986.153847,4072.820512
220,4447.692307,4531.282051,4508.717948,4261.025641,4518.461538,4190.769230,4431.794871,4210.256410,4212.820512,4522.051282,4217.948717,4653.333333,3987.179488,4071.282051
221,4434.871794,4524.102564,4504.615384,4258.974358,4507.692307,4185.128205,4424.615384,4198.461538,4207.179487,4512.307692,4202.564102,4645.641025,3978.461539,4057.948717
222,4435.897435,4519.487179,4505.128205,4258.974358,4512.307692,4194.358974,4428.717948,4196.923076,4212.307692,4512.820512,4205.128205,4646.153846,3969.743590,4060.512820
223,4445.128205,4532.307692,4514.871794,4265.128205,4522.564102,4204.102564,4435.897435,4212.307692,4227.179487,4531.282051,4225.641025,4656.923076,3984.102565,4076.410256
224,4449.230769,4540.512820,4518.461538,4268.205128,4523.076923,4201.025641,4434.358974,4219.487179,4234.871794,4535.384615,4222.051282,4663.076923,3998.461539,4078.974358
225,4447.179487,4532.307692,4512.307692,4258.974358,4518.461538,4197.435897,4429.743589,4213.846153,4225.128205,4526.666666,4205.128205,4655.897435,3992.307693,4070.769230
226,4445.128205,4528.205128,4508.717948,4252.307692,4514.358974,4195.897435,4428.205128,4203.589743,4214.871794,4522.051282,4210.256410,4648.205128,3981.538462,4067.179487
227,4437.948717,4528.205128,4506.153846,4257.435897,4514.358974,4193.333333,4428.205128,4200.512820,4212.307692,4517.948717,4216.410256,4647.692307,3976.410257,4062.564102
228,4427.179487,4529.230769,4504.102564,4257.948717,4515.384615,4193.333333,4426.153846,4200.000000,4210.256410,4509.743589,4208.717948,4647.179487,3975.384616,4060.000000
229,4431.282051,4531.282051,4506.666666,4253.846153,4515.384615,4197.435897,4428.205128,4198.974358,4211.794871,4511.794871,4206.666666,4646.153846,3978.974359,4064.615384
230,4440.512820,4530.256410,4511.794871,4263.076923,4521.025641,4201.025641,4431.794871,4203.076923,4217.948717,4521.538461,4210.256410,4647.692307,3981.025642,4063.076923
231,4437.948717,4529.743589,4509.743589,4269.230769,4523.076923,4198.461538,4428.717948,4204.102564,4217.948717,4517.435897,4208.205128,4645.128205,3974.871795,4055.384615
232,4438.461538,4534.871794,4509.743589,4262.564102,4519.487179,4198.461538,4427.179487,4201.538461,4220.000000,4513.846153,4209.230769,4645.641025,3976.923077,4058.461538
233,4447.179487,4532.307692,4515.384615,4263.076923,4523.076923,4200.512820,4430.256410,4204.615384,4225.641025,4524.615384,4209.230769,4647.179487,3984.615385,4064.102564
234,4445.128205,4520.000000,4512.820512,4262.564102,4519.487179,4190.256410,4429.230769,4205.641025,4220.512820,4524.102564,4200.512820,4639.487179,3973.846154,4057.435897
235,4442.051282,4518.974358,4503.076923,4252.307692,4505.641025,4181.538461,4422.051282,4194.871794,4206.153846,4510.256410,4195.897435,4630.256410,3960.000000,4048.205128
236,4447.179487,4526.666666,4503.589743,4254.871794,4504.615384,4184.102564,4416.410256,4186.666666,4200.512820,4507.179487,4199.487179,4631.282051,3963.589744,4048.717948
237,4446.153846,4527.179487,4509.743589,4261.538461,4511.794871,4184.615384,4418.974358,4187.179487,4202.564102,4507.692307,4196.410256,4635.897435,3971.794872,4054.358974
238,4443.076923,4527.692307,4507.179487,4257.948717,4515.384615,4184.615384,4425.128205,4187.179487,4202.051282,4504.615384,4192.820512,4636.923076,3971.794872,4057.435897
239,4447.179487,4535.897435,4505.641025,4264.102564,4517.948717,4192.307692,4427.692307,4189.743589,4205.641025,4509.230769,4203.076923,4641.538461,3974.358975,4057.435897
240,4449.743589,4541.538461,4514.358974,4276.410256,4523.076923,4200.000000,4426.666666,4198.974358,4215.384615,4516.410256,4214.871794,4646.666666,3981.538462,4060.512820
241,4441.025641,4535.897435,4517.948717,4270.769230,4524.615384,4200.512820,4428.717948,4201.538461,4218.461538,4515.897435,4209.743589,4644.615384,3981.025642,4062.564102
242,4434.871794,4532.307692,4511.282051,4259.487179,4521.538461,4198.974358,4431.794871,4199.487179,4215.384615,4517.435897,4203.589743,4643.076923,3973.333334,4058.974358
243,4440.512820,4538.461538,4506.666666,4264.102564,4524.102564,4197.948717,4430.256410,4203.589743,4216.410256,4524.102564,4208.717948,4646.153846,3972.307693,4058.974358
244,4446.666666,4540.512820,4508.717948,4271.282051,4525.128205,4191.794871,4428.717948,4205.641025,4219.487179,4525.128205,4207.179487,4649.230769,3974.871795,4061.025641
245,4444.102564,4532.820512,4511.282051,4264.102564,4513.333333,4184.615384,4428.205128,4200.512820,4215.897435,4518.974358,4195.897435,4647.692307,3978.461539,4056.410256
246,4434.358974,4524.102564,4502.564102,4252.307692,4502.051282,4183.076923,4423.076923,4199.487179,4211.282051,4511.282051,4195.384615,4640.512820,3978.461539,4052.820512
247,4430.769230,4520.000000,4494.358974,4252.820512,4504.615384,4183.589743,4415.384615,4198.461538,4208.717948,4506.153846,4203.589743,4632.820512,3970.769231,4054.871794
248,4431.282051,4520.000000,4498.974358,4260.512820,4506.666666,4184.102564,4414.871794,4190.769230,4205.128205,4504.615384,4207.692307,4636.410256,3968.205129,4053.333333
249,4430.256410,4525.641025,4503.076923,4261.538461,4506.666666,4183.589743,4417.435897,4190.256410,4207.692307,4510.256410,4205.128205,4641.538461,3976.923077,4051.794871
250,4431.794871,4529.743589,4499.487179,4261.538461,4511.282051,4184.102564,4418.974358,4194.358974,4210.769230,4513.333333,4198.461538,4640.000000,3983.589744,4054.358974
251,4436.923076,4528.205128,4501.538461,4266.153846,4511.794871,4184.615384,4421.025641,4189.230769,4204.615384,4512.307692,4196.923076,4638.974358,3975.897436,4053.846153
252,4442.564102,4532.307692,4508.717948,4269.230769,4513.333333,4186.666666,4422.564102,4183.589743,4203.589743,4516.410256,4204.102564,4641.538461,3968.717949,4055.384615
253,4441.538461,4536.410256,4508.717948,4266.666666,4518.461538,4187.692307,4420.000000,4177.435897,4206.153846,4514.358974,4207.692307,4641.025641,3974.871795,4060.000000
254,4430.769230,4527.179487,4501.025641,4258.461538,4510.769230,4185.128205,4418.461538,4173.846153,4202.051282,4505.128205,4201.538461,4637.435897,3977.948718,4055.897435
255,4423.076923,4522.051282,4497.948717,4252.307692,4501.538461,4183.076923,4418.461538,4177.948717,4201.025641,4507.692307,4195.384615,4632.307692,3968.205129,4046.666666
256,4428.205128,4532.307692,4498.974358,4255.897435,4506.153846,4183.589743,4416.923076,4177.948717,4207.179487,4513.846153,4193.846153,4630.256410,3967.692308,4047.692307
257,4432.820512,4540.000000,4504.102564,4262.051282,4509.230769,4184.615384,4413.846153,4172.307692,4203.589743,4507.692307,4196.410256,4635.384615,3977.435898,4054.871794
258,4430.769230,4536.410256,4506.666666,4262.051282,4504.615384,4183.589743,4415.384615,4172.820512,4201.538461,4504.102564,4199.487179,4638.461538,3976.410257,4056.410256
259,4430.769230,4533.846153,4503.589743,4262.051282,4509.230769,4183.589743,4418.974358,4178.974358,4205.128205,4512.307692,4197.948717,4633.846153,3971.794872,4055.384615
