,AF3,F7,F3,FC5,T7,P7,O1,O2,P8,T8,FC6,F4,F8,AF4
0,4388.717948,4525.128205,4520.000000,4301.538461,4484.102564,4194.871794,4456.410256,4266.666666,4284.102564,4525.641025,4186.153846,4645.128205,4017.435897,4083.589743
1,4391.282051,4524.102564,4522.051282,4301.025641,4479.487179,4194.871794,4456.923076,4266.153846,4279.487179,4527.179487,4192.307692,4647.179487,4019.487179,4083.076923
2,4392.307692,4528.205128,4525.641025,4299.487179,4475.384615,4194.871794,4456.410256,4261.538461,4278.974358,4532.820512,4190.769230,4647.179487,4025.641025,4085.128205
3,4392.820512,4527.692307,4523.589743,4302.564102,4479.487179,4195.384615,4456.410256,4264.102564,4284.615384,4536.410256,4190.769230,4649.230769,4027.692307,4087.692307
4,4396.923076,4529.743589,4522.564102,4308.717948,4486.153846,4198.461538,4460.512820,4273.333333,4288.717948,4536.410256,4195.897435,4653.333333,4028.205128,4088.717948
5,4394.871794,4532.820512,4525.128205,4305.641025,4483.076923,4197.435897,4459.487179,4269.743589,4287.179487,4528.717948,4193.846153,4650.769230,4025.641025,4085.641025
6,4385.128205,4527.692307,4518.461538,4297.948717,4477.435897,4190.769230,4449.743589,4255.897435,4277.948717,4517.948717,4180.512820,4644.615384,4021.025641,4075.897435
7,4384.102564,4525.641025,4511.794871,4297.948717,4479.487179,4190.256410,4442.564102,4252.307692,4271.794871,4522.564102,4176.923076,4645.128205,4019.487179,4068.717948
8,4396.410256,4532.820512,4519.487179,4307.692307,4487.692307,4195.384615,4449.230769,4257.435897,4281.538461,4535.897435,4192.820512,4650.256410,4024.615384,4075.897435
9,4398.974358,4530.769230,4525.128205,4312.820512,4487.692307,4193.333333,4457.948717,4258.461538,4288.717948,4535.897435,4198.974358,4650.769230,4023.076923,4080.000000
10,4387.692307,4520.512820,4518.974358,4301.025641,4480.512820,4189.230769,4449.743589,4250.769230,4280.512820,4527.179487,4187.179487,4645.641025,4012.307692,4068.205128
11,4383.589743,4521.538461,4516.410256,4289.743589,4478.974358,4190.256410,4442.564102,4251.282051,4277.948717,4527.692307,4187.179487,4645.128205,4016.923076,4066.153846
12,4391.282051,4528.717948,4522.564102,4296.923076,4482.564102,4192.307692,4452.820512,4260.000000,4286.153846,4533.846153,4197.435897,4647.692307,4028.717948,4075.384615
13,4393.846153,4530.256410,4526.153846,4305.641025,4482.051282,4191.282051,4456.923076,4263.076923,4288.717948,4533.333333,4195.384615,4643.589743,4029.230769,4073.846153
14,4388.205128,4522.051282,4517.948717,4302.051282,4478.461538,4187.692307,4445.641025,4258.974358,4282.564102,4524.615384,4188.717948,4640.000000,4026.153846,4066.153846
15,4382.051282,4518.461538,4510.256410,4299.487179,4478.461538,4185.641025,4441.538461,4254.358974,4276.923076,4517.948717,4186.666666,4639.487179,4018.461538,4063.076923
16,4382.564102,4527.692307,4514.871794,4305.641025,4484.102564,4187.692307,4448.717948,4252.307692,4274.871794,4517.948717,4186.153846,4638.974358,4002.051282,4063.076923
17,4385.641025,4530.769230,4522.051282,4305.641025,4484.102564,4188.205128,4448.205128,4249.230769,4273.333333,4517.435897,4186.666666,4641.538461,3993.846154,4064.102564
18,4389.743589,4522.051282,4521.538461,4301.025641,4480.000000,4190.256410,4444.102564,4251.794871,4272.820512,4518.974358,4190.769230,4646.153846,4007.692307,4066.666666
19,4393.846153,4518.974358,4522.051282,4304.615384,4480.512820,4188.205128,4449.743589,4254.871794,4274.871794,4521.025641,4189.743589,4649.230769,4018.974358,4068.205128
20,4387.179487,4516.410256,4522.564102,4302.051282,4483.076923,4184.615384,4451.282051,4250.256410,4273.846153,4511.794871,4180.512820,4645.128205,4002.051282,4061.538461
21,4377.435897,4508.205128,4518.461538,4289.743589,4480.512820,4186.153846,4446.666666,4248.205128,4269.230769,4499.487179,4175.897435,4637.948717,3982.051283,4053.333333
22,4380.000000,4511.794871,4518.461538,4287.692307,4474.358974,4185.641025,4448.205128,4250.769230,4269.743589,4500.512820,4183.076923,4636.410256,3992.820513,4052.820512
23,4384.615384,4521.538461,4521.025641,4294.871794,4471.794871,4183.076923,4449.230769,4250.769230,4271.794871,4509.230769,4185.641025,4640.512820,4010.769230,4057.435897
24,4387.692307,4524.615384,4519.487179,4297.435897,4475.897435,4185.128205,4449.230769,4250.769230,4273.333333,4515.897435,4185.641025,4644.102564,4008.205128,4060.512820
25,4389.230769,4527.179487,4513.846153,4296.923076,4481.538461,4189.743589,4454.358974,4252.820512,4275.897435,4517.435897,4187.692307,4645.128205,3998.461539,4061.025641
26,4385.641025,4522.051282,4508.205128,4292.820512,4478.974358,4186.666666,4452.307692,4253.333333,4273.846153,4516.410256,4182.564102,4642.051282,3994.358975,4053.846153
27,4380.512820,4511.794871,4506.153846,4285.641025,4472.307692,4178.974358,4442.051282,4247.179487,4267.179487,4514.358974,4175.384615,4636.923076,3992.307693,4047.179487
28,4384.102564,4514.358974,4507.692307,4287.179487,4471.282051,4178.974358,4443.589743,4244.102564,4264.615384,4510.256410,4180.512820,4635.897435,3993.333334,4051.794871
29,4383.076923,4514.358974,4508.717948,4289.230769,4467.692307,4176.923076,4449.230769,4242.051282,4263.589743,4497.948717,4184.102564,4639.487179,3991.282052,4053.333333
30,4374.358974,4500.512820,4505.641025,4278.974358,4460.000000,4167.179487,4436.923076,4232.820512,4254.871794,4484.615384,4178.461538,4634.871794,3977.948718,4045.128205
31,4373.846153,4500.000000,4503.076923,4272.820512,4460.512820,4165.641025,4428.205128,4228.205128,4249.230769,4486.153846,4175.384615,4629.743589,3973.846154,4040.000000
32,4380.000000,4514.871794,4504.615384,4279.487179,4467.179487,4177.948717,4434.871794,4235.897435,4251.794871,4496.410256,4174.871794,4632.820512,3991.282052,4041.538461
33,4385.128205,4515.384615,4507.692307,4291.282051,4475.384615,4182.051282,4436.923076,4240.000000,4259.487179,4502.051282,4179.487179,4637.948717,4002.564102,4048.717948
34,4385.641025,4511.794871,4507.179487,4298.974358,4479.487179,4180.000000,4428.205128,4237.948717,4262.564102,4500.512820,4192.307692,4640.000000,3987.179488,4053.846153
35,4383.076923,4517.435897,4505.641025,4292.307692,4474.358974,4179.487179,4421.538461,4238.461538,4257.948717,4496.923076,4193.333333,4636.410256,3977.435898,4050.256410
36,4382.051282,4518.461538,4505.641025,4284.102564,4472.307692,4176.923076,4422.051282,4241.025641,4260.512820,4503.589743,4179.487179,4635.897435,3992.820513,4046.153846
37,4383.589743,4514.871794,4505.641025,4286.666666,4474.871794,4175.897435,4424.615384,4243.076923,4271.794871,4518.461538,4181.025641,4641.538461,4003.589743,4048.205128
38,4387.179487,4514.358974,4506.153846,4288.205128,4472.820512,4178.461538,4423.076923,4246.666666,4272.820512,4515.897435,4193.333333,4645.128205,3996.923077,4051.794871
39,4391.794871,4513.333333,4511.794871,4288.717948,4471.282051,4179.487179,4420.000000,4250.256410,4267.692307,4503.076923,4195.384615,4647.692307,3994.358975,4057.435897
40,4395.384615,4511.794871,4513.333333,4292.820512,4473.333333,4179.487179,4421.025641,4250.256410,4269.743589,4506.666666,4193.333333,4652.307692,4001.538461,4061.025641
41,4392.307692,4512.820512,4508.205128,4290.256410,4472.820512,4176.410256,4418.974358,4242.564102,4266.153846,4506.666666,4187.692307,4646.666666,4000.000000,4056.923076
42,4387.692307,4513.846153,4507.179487,4285.128205,4472.307692,4174.871794,4411.794871,4236.923076,4255.384615,4495.897435,4175.384615,4633.846153,3992.307693,4051.794871
43,4385.641025,4512.820512,4508.717948,4287.179487,4476.410256,4175.897435,4411.282051,4238.974358,4255.384615,4495.384615,4169.743589,4637.435897,3992.307693,4054.871794
44,4387.179487,4512.820512,4508.205128,4288.205128,4475.384615,4176.410256,4414.358974,4238.974358,4264.102564,4504.615384,4170.769230,4646.153846,4000.512820,4062.051282
45,4387.692307,4514.358974,4508.205128,4285.641025,4472.307692,4177.435897,4416.923076,4237.948717,4267.179487,4505.641025,4167.692307,4644.102564,4003.076923,4065.641025
46,4383.076923,4519.487179,4512.820512,4285.128205,4475.384615,4183.076923,4424.102564,4244.102564,4265.641025,4506.666666,4165.128205,4644.102564,3997.948718,4069.743589
47,4381.538461,4521.538461,4517.948717,4286.153846,4482.051282,4186.666666,4430.256410,4252.820512,4270.256410,4510.769230,4165.128205,4649.230769,4001.538461,4077.948717
48,4384.615384,4515.897435,4521.538461,4287.179487,4481.538461,4186.666666,4432.820512,4258.974358,4278.461538,4515.384615,4162.051282,4652.820512,4014.358974,4083.076923
49,4384.102564,4513.846153,4522.564102,4285.641025,4479.487179,4190.256410,4436.923076,4267.692307,4284.615384,4526.153846,4164.102564,4655.897435,4017.435897,4083.076923
50,4378.974358,4516.410256,4518.461538,4281.025641,4481.025641,4190.769230,4440.000000,4272.307692,4284.102564,4526.666666,4165.128205,4655.897435,4005.641025,4084.102564
51,4376.923076,4517.435897,4515.384615,4280.512820,4480.000000,4186.666666,4440.000000,4268.717948,4280.000000,4513.333333,4155.897435,4650.769230,4001.538461,4083.076923
52,4377.948717,4516.923076,4516.923076,4284.102564,4477.435897,4187.179487,4439.487179,4269.230769,4282.564102,4513.333333,4149.743589,4651.282051,4011.282051,4085.128205
53,4382.051282,4518.461538,4525.128205,4285.641025,4480.512820,4192.307692,4444.102564,4278.461538,4292.307692,4528.717948,4159.487179,4663.076923,4018.461538,4095.384615
54,4388.717948,4524.615384,4531.282051,4288.205128,4485.128205,4192.820512,4449.230769,4282.564102,4297.948717,4531.794871,4168.717948,4672.820512,4015.897435,4102.564102
55,4388.205128,4527.179487,4527.692307,4292.307692,4481.025641,4188.205128,4447.692307,4275.897435,4291.794871,4523.589743,4165.128205,4667.692307,4004.102564,4098.974358
56,4380.512820,4521.025641,4521.538461,4290.256410,4472.820512,4184.615384,4440.000000,4266.666666,4283.076923,4516.410256,4154.358974,4654.871794,4003.076923,4094.871794
57,4376.923076,4514.871794,4520.512820,4283.076923,4473.333333,4181.025641,4436.923076,4263.076923,4281.538461,4513.846153,4146.153846,4651.794871,4017.435897,4096.923076
58,4380.512820,4517.435897,4524.615384,4286.666666,4477.948717,4182.564102,4440.512820,4268.717948,4288.717948,4520.000000,4149.230769,4656.923076,4022.564102,4100.000000
59,4383.589743,4522.564102,4525.128205,4292.307692,4476.923076,4183.076923,4437.435897,4270.769230,4290.256410,4525.128205,4161.025641,4658.974358,4010.256410,4100.000000
60,4380.512820,4521.538461,4521.538461,4287.692307,4471.282051,4177.948717,4427.692307,4259.487179,4280.000000,4519.487179,4162.051282,4657.435897,4005.128205,4098.974358
61,4378.974358,4524.615384,4521.025641,4286.666666,4472.820512,4177.948717,4425.128205,4254.871794,4277.435897,4520.512820,4156.410256,4658.974358,4017.435897,4101.538461
62,4384.102564,4529.743589,4523.076923,4290.769230,4477.948717,4183.076923,4430.769230,4264.615384,4285.641025,4529.230769,4157.435897,4660.000000,4026.153846,4104.615384
63,4383.076923,4527.179487,4522.564102,4290.769230,4481.025641,4182.051282,4431.794871,4265.641025,4286.153846,4523.589743,4156.923076,4657.435897,4018.974358,4100.000000
64,4378.461538,4522.051282,4520.512820,4289.230769,4480.512820,4182.051282,4431.794871,4261.538461,4282.051282,4514.871794,4158.461538,4661.025641,4016.923076,4099.487179
65,4382.051282,4526.666666,4523.589743,4292.820512,4481.538461,4185.641025,4438.461538,4268.205128,4288.205128,4527.179487,4167.179487,4666.666666,4028.717948,4109.743589
66,4384.615384,4531.794871,4524.615384,4290.256410,4482.051282,4182.564102,4439.487179,4273.333333,4292.307692,4540.000000,4167.179487,4665.128205,4031.794871,4111.282051
67,4377.948717,4525.128205,4521.025641,4285.641025,4476.923076,4180.512820,4433.333333,4268.205128,4286.153846,4532.820512,4161.538461,4659.487179,4023.589743,4102.051282
68,4375.897435,4518.461538,4520.000000,4291.282051,4472.820512,4183.589743,4430.769230,4263.076923,4283.076923,4523.589743,4162.564102,4657.948717,4021.025641,4100.000000
69,4381.538461,4518.461538,4522.564102,4294.358974,4469.743589,4178.974358,4430.769230,4262.051282,4285.641025,4523.589743,4162.051282,4660.000000,4021.025641,4102.564102
70,4379.487179,4512.820512,4518.974358,4286.666666,4468.205128,4174.358974,4427.692307,4258.461538,4283.589743,4523.589743,4157.948717,4660.000000,4020.512820,4100.512820
71,4371.282051,4504.615384,4513.846153,4280.000000,4467.692307,4175.384615,4425.128205,4256.923076,4281.538461,4521.025641,4158.974358,4658.461538,4016.410256,4096.923076
72,4376.923076,4512.307692,4518.974358,4285.641025,4470.256410,4180.512820,4430.256410,4264.615384,4285.641025,4525.128205,4166.153846,4663.076923,4016.410256,4101.538461
73,4387.692307,4525.641025,4526.666666,4290.769230,4473.846153,4183.589743,4436.410256,4271.282051,4288.717948,4531.282051,4166.666666,4668.717948,4026.666666,4109.230769
74,4383.589743,4518.974358,4524.615384,4287.179487,4473.846153,4181.025641,4435.897435,4266.153846,4288.205128,4527.692307,4165.128205,4665.641025,4030.256410,4108.205128
75,4377.435897,4509.230769,4520.512820,4286.666666,4474.358974,4180.512820,4430.256410,4261.538461,4285.641025,4523.076923,4172.307692,4665.128205,4015.384615,4102.051282
76,4383.076923,4520.000000,4521.538461,4293.333333,4477.948717,4181.025641,4427.179487,4260.000000,4280.512820,4524.615384,4178.974358,4667.692307,4008.717948,4102.564102
77,4385.641025,4531.282051,4523.589743,4298.461538,4481.538461,4179.487179,4429.743589,4258.461538,4282.051282,4527.179487,4169.743589,4663.076923,4022.564102,4107.179487
78,4377.435897,4527.179487,4517.435897,4293.846153,4477.948717,4180.000000,4430.256410,4262.564102,4288.205128,4524.615384,4157.435897,4658.974358,4025.641025,4103.589743
79,4374.871794,4519.487179,4509.230769,4288.717948,4468.205128,4181.538461,4426.666666,4263.076923,4283.076923,4518.974358,4163.076923,4659.487179,4012.307692,4095.897435
80,4381.538461,4518.974358,4511.282051,4292.307692,4471.282051,4180.000000,4425.128205,4256.923076,4275.897435,4518.461538,4175.384615,4659.487179,4010.256410,4098.461538
81,4380.512820,4518.974358,4514.358974,4292.307692,4480.000000,4177.435897,4424.615384,4251.794871,4274.871794,4518.461538,4173.846153,4657.435897,4016.923076,4100.000000
82,4371.282051,4517.948717,4510.769230,4285.641025,4476.923076,4176.410256,4423.076923,4245.641025,4270.256410,4509.230769,4153.846153,4652.820512,4010.769230,4089.743589
83,4369.230769,4518.461538,4506.666666,4286.666666,4469.743589,4175.897435,4423.589743,4241.538461,4266.153846,4502.051282,4143.589743,4649.743589,4005.641025,4083.589743
84,4373.846153,4514.358974,4510.256410,4289.230769,4467.179487,4175.897435,4425.128205,4245.128205,4269.743589,4509.230769,4157.948717,4650.256410,4009.743589,4091.794871
85,4376.410256,4511.794871,4514.871794,4283.076923,4467.179487,4176.410256,4426.153846,4251.282051,4271.794871,4515.897435,4171.794871,4653.846153,4007.692307,4094.358974
86,4376.410256,4515.897435,4515.384615,4284.102564,4470.769230,4178.461538,4427.179487,4250.256410,4268.205128,4511.794871,4163.589743,4656.410256,4002.051282,4083.076923
87,4376.410256,4518.974358,4511.282051,4294.358974,4475.384615,4179.487179,4426.666666,4248.205128,4265.641025,4507.179487,4154.871794,4654.871794,4005.128205,4074.358974
88,4377.435897,4516.923076,4506.666666,4293.333333,4472.307692,4177.948717,4426.153846,4251.794871,4270.769230,4512.820512,4165.641025,4653.846153,4013.333333,4075.897435
89,4377.435897,4515.897435,4512.307692,4286.666666,4470.769230,4177.435897,4426.666666,4256.410256,4276.923076,4518.461538,4173.846153,4658.974358,4013.333333,4078.461538
90,4380.512820,4522.564102,4522.564102,4291.794871,4479.487179,4182.051282,4430.256410,4260.512820,4282.051282,4516.923076,4170.769230,4667.179487,4013.333333,4081.025641
91,4386.666666,4529.743589,4524.102564,4296.410256,4485.641025,4188.717948,4438.461538,4263.076923,4286.666666,4518.461538,4168.717948,4667.692307,4017.948717,4085.641025
92,4386.666666,4526.153846,4514.358974,4291.794871,4482.564102,4186.666666,4437.948717,4261.538461,4284.102564,4523.589743,4166.666666,4657.435897,4011.282051,4080.000000
93,4379.487179,4517.435897,4505.641025,4290.769230,4476.410256,4176.410256,4426.153846,4251.282051,4276.410256,4519.487179,4163.076923,4651.794871,4002.051282,4073.333333
94,4376.923076,4516.410256,4509.743589,4292.307692,4473.333333,4174.358974,4422.051282,4242.051282,4271.282051,4510.256410,4161.025641,4653.333333,4009.230769,4076.923076
95,4381.538461,4520.512820,4513.846153,4287.179487,4471.282051,4176.410256,4427.692307,4242.051282,4268.717948,4510.769230,4161.538461,4654.358974,4016.410256,4076.923076
96,4382.051282,4518.974358,4509.743589,4287.692307,4473.333333,4174.358974,4429.230769,4243.589743,4267.692307,4514.871794,4163.589743,4652.820512,4005.641025,4071.794871
97,4381.538461,4517.948717,4511.282051,4296.923076,4481.025641,4180.000000,4429.230769,4249.743589,4270.769230,4517.948717,4167.692307,4657.435897,4001.538461,4075.897435
98,4384.102564,4517.435897,4516.923076,4299.487179,4482.564102,4184.102564,4432.307692,4252.307692,4272.820512,4516.410256,4167.692307,4661.025641,4007.692307,4080.000000
99,4382.051282,4516.923076,4514.358974,4296.410256,4476.923076,4179.487179,4432.820512,4244.615384,4269.230769,4502.564102,4162.564102,4653.846153,4001.025641,4069.743589
100,4378.974358,4523.076923,4512.307692,4298.974358,4477.435897,4183.076923,4432.820512,4244.615384,4269.230769,4494.871794,4160.000000,4650.769230,3993.333334,4064.615384
101,4384.102564,4524.615384,4515.897435,4302.564102,4485.641025,4187.692307,4437.948717,4255.384615,4271.794871,4509.743589,4160.000000,4653.333333,3998.461539,4071.282051
102,4387.179487,4516.923076,4511.794871,4298.461538,4484.615384,4185.128205,4441.538461,4255.897435,4271.794871,4517.435897,4160.512820,4651.794871,3997.435898,4071.282051
103,4380.512820,4516.410256,4505.641025,4293.333333,4478.974358,4186.153846,4438.461538,4245.641025,4269.230769,4502.051282,4162.051282,4647.692307,3985.128206,4065.641025
104,4374.871794,4520.512820,4507.692307,4290.769230,4481.538461,4183.589743,4434.358974,4243.076923,4262.051282,4493.333333,4158.461538,4644.615384,3984.102565,4061.538461
105,4374.871794,4514.358974,4508.205128,4288.717948,4479.487179,4173.333333,4431.794871,4245.128205,4257.948717,4500.000000,4154.871794,4641.538461,3990.769231,4058.461538
106,4374.871794,4505.641025,4505.128205,4290.256410,4472.820512,4172.820512,4429.743589,4245.128205,4263.076923,4504.102564,4157.948717,4642.051282,3986.666667,4058.974358
107,4376.410256,4507.692307,4507.179487,4294.358974,4475.897435,4179.487179,4428.205128,4247.179487,4267.179487,4500.512820,4161.025641,4646.666666,3985.128206,4065.641025
108,4380.512820,4510.769230,4509.230769,4296.923076,4481.538461,4178.974358,4431.794871,4250.256410,4267.692307,4498.461538,4162.051282,4649.230769,3995.384616,4068.717948
109,4385.641025,4512.820512,4511.794871,4295.384615,4478.461538,4176.410256,4433.333333,4249.743589,4266.153846,4503.589743,4166.153846,4651.282051,3995.897436,4066.666666
110,4389.743589,4517.948717,4517.435897,4293.846153,4477.435897,4175.384615,4432.820512,4247.692307,4267.692307,4507.179487,4171.794871,4654.358974,3988.717949,4070.256410
111,4392.307692,4522.564102,4524.102564,4296.923076,4482.564102,4177.435897,4432.820512,4252.820512,4275.384615,4505.641025,4175.897435,4657.948717,3997.948718,4077.948717
112,4394.358974,4519.487179,4522.564102,4298.461538,4483.589743,4180.512820,4438.461538,4256.410256,4278.461538,4507.179487,4178.461538,4661.025641,4010.256410,4077.948717
113,4395.897435,4517.435897,4520.000000,4300.512820,4482.564102,4181.538461,4445.128205,4254.871794,4277.435897,4517.435897,4184.615384,4662.051282,4006.666666,4076.410256
114,4396.923076,4518.974358,4525.128205,4306.153846,4483.076923,4182.564102,4443.589743,4255.384615,4281.025641,4522.051282,4191.794871,4667.179487,4008.205128,4081.025641
115,4397.948717,4518.974358,4528.717948,4306.153846,4487.692307,4184.102564,4440.000000,4255.897435,4282.051282,4515.897435,4189.743589,4670.256410,4016.410256,4084.102564
116,4403.589743,4524.102564,4525.641025,4304.102564,4492.307692,4187.692307,4441.025641,4254.358974,4280.512820,4514.871794,4190.769230,4669.743589,4015.897435,4084.615384
117,4409.743589,4535.897435,4531.282051,4307.179487,4495.384615,4193.333333,4444.615384,4260.512820,4287.692307,4529.230769,4201.538461,4676.923076,4014.358974,4087.179487
118,4409.230769,4535.384615,4540.000000,4308.717948,4496.410256,4192.820512,4444.615384,4268.717948,4291.282051,4537.948717,4199.487179,4681.538461,4015.897435,4084.615384
119,4405.641025,4524.615384,4534.358974,4311.282051,4490.256410,4185.128205,4443.589743,4265.641025,4283.076923,4522.564102,4188.717948,4673.333333,4013.846153,4077.435897
120,4403.076923,4524.102564,4523.076923,4314.871794,4486.666666,4183.076923,4443.589743,4255.384615,4276.410256,4507.692307,4187.179487,4666.153846,4013.333333,4076.410256
121,4402.564102,4530.769230,4522.564102,4310.769230,4494.358974,4188.717948,4444.102564,4251.282051,4276.923076,4508.717948,4185.641025,4664.615384,4012.820512,4073.333333
122,4400.000000,4530.769230,4523.589743,4305.128205,4497.435897,4192.820512,4445.641025,4253.333333,4275.384615,4510.769230,4180.000000,4655.897435,4001.025641,4067.179487
123,4400.512820,4528.717948,4521.025641,4308.205128,4492.820512,4193.333333,4448.717948,4258.461538,4274.871794,4510.769230,4178.461538,4655.897435,3995.384616,4071.794871
124,4407.179487,4528.205128,4523.076923,4312.307692,4494.871794,4193.333333,4449.743589,4262.051282,4280.000000,4513.333333,4181.025641,4668.205128,4008.717948,4078.974358
125,4405.641025,4526.153846,4527.179487,4312.820512,4495.384615,4194.358974,4448.205128,4258.461538,4279.487179,4513.333333,4187.692307,4670.256410,4012.820512,4073.333333
126,4397.435897,4525.128205,4520.512820,4307.179487,4487.692307,4191.282051,4444.615384,4250.769230,4271.794871,4512.307692,4191.282051,4660.000000,4002.564102,4064.615384
127,4398.461538,4523.076923,4512.307692,4301.025641,4487.179487,4184.102564,4441.538461,4249.230769,4271.282051,4512.820512,4184.102564,4655.897435,3997.435898,4066.153846
128,4401.538461,4517.435897,4513.333333,4301.538461,4487.692307,4182.051282,4442.564102,4250.769230,4272.820512,4506.153846,4174.358974,4656.410256,3998.461539,4068.205128
129,4394.358974,4514.871794,4511.794871,4303.076923,4482.051282,4183.076923,4443.589743,4251.282051,4270.769230,4496.410256,4172.820512,4653.846153,4002.051282,4064.615384
130,4392.307692,4518.974358,4510.769230,4302.564102,4481.538461,4181.025641,4443.076923,4255.384615,4271.794871,4498.974358,4182.051282,4655.897435,4006.153846,4062.051282
131,4401.538461,4519.487179,4516.410256,4304.102564,4485.128205,4181.538461,4444.615384,4258.461538,4275.384615,4511.794871,4193.846153,4663.589743,4002.564102,4066.153846
132,4400.000000,4512.307692,4515.384615,4300.512820,4480.000000,4180.512820,4444.615384,4248.717948,4273.846153,4509.743589,4193.333333,4662.564102,3995.384616,4067.692307
133,4390.769230,4507.692307,4507.179487,4291.282051,4469.230769,4174.358974,4440.000000,4239.487179,4269.230769,4494.358974,4185.641025,4656.923076,3994.871795,4062.051282
134,4390.256410,4509.743589,4505.128205,4293.846153,4468.205128,4174.358974,4439.487179,4245.128205,4269.743589,4490.769230,4180.512820,4657.948717,3995.384616,4058.974358
135,4392.820512,4509.230769,4511.794871,4302.051282,4474.871794,4180.512820,4444.615384,4249.743589,4272.307692,4496.923076,4179.487179,4661.538461,3993.333334,4057.948717
136,4395.897435,4510.256410,4514.871794,4295.384615,4477.948717,4180.000000,4446.153846,4248.717948,4270.769230,4501.025641,4185.128205,4662.051282,3993.846154,4058.461538
137,4402.051282,4517.948717,4516.410256,4288.717948,4479.487179,4180.000000,4446.153846,4251.282051,4267.179487,4500.512820,4190.256410,4665.641025,3998.974359,4064.615384
138,4404.102564,4516.410256,4519.487179,4297.435897,4483.589743,4183.589743,4446.666666,4247.692307,4261.025641,4487.179487,4185.128205,4669.230769,3996.410257,4066.666666
139,4402.564102,4509.230769,4520.000000,4306.153846,4479.487179,4179.487179,4445.128205,4240.000000,4257.435897,4475.384615,4181.025641,4665.128205,3989.230770,4062.564102
140,4407.692307,4513.846153,4522.564102,4302.564102,4477.435897,4176.923076,4442.564102,4247.692307,4265.641025,4491.282051,4188.205128,4668.205128,3994.871795,4064.102564
141,4415.384615,4527.179487,4531.282051,4305.641025,4488.205128,4188.205128,4448.717948,4262.564102,4278.461538,4508.717948,4200.000000,4682.564102,4003.589743,4073.846153
142,4416.410256,4531.794871,4532.820512,4311.794871,4494.358974,4194.358974,4456.923076,4260.512820,4280.000000,4503.076923,4203.076923,4686.666666,4006.153846,4077.435897
143,4410.769230,4526.666666,4525.128205,4308.717948,4487.179487,4187.692307,4452.820512,4251.282051,4276.923076,4497.435897,4193.333333,4678.461538,4010.256410,4073.333333
144,4405.641025,4521.538461,4520.512820,4301.538461,4484.102564,4185.641025,4444.615384,4248.717948,4271.794871,4496.923076,4178.461538,4670.769230,4010.256410,4070.769230
145,4398.461538,4515.897435,4513.846153,4293.333333,4480.512820,4182.051282,4443.589743,4243.589743,4259.487179,4485.641025,4166.666666,4663.076923,3996.923077,4066.153846
146,4390.769230,4509.230769,4510.256410,4287.692307,4473.846153,4173.333333,4442.564102,4235.897435,4257.948717,4483.076923,4161.025641,4656.923076,3988.717949,4062.051282
147,4390.769230,4509.743589,4518.974358,4288.205128,4477.435897,4174.871794,4441.538461,4243.589743,4269.743589,4496.410256,4164.102564,4661.025641,3995.897436,4069.743589
148,4394.871794,4514.871794,4521.538461,4294.871794,4481.025641,4182.051282,4444.102564,4253.846153,4272.820512,4498.974358,4165.128205,4667.179487,4004.615384,4079.487179
149,4393.333333,4514.358974,4516.410256,4296.923076,4479.487179,4180.000000,4447.179487,4252.820512,4266.666666,4489.230769,4161.538461,4664.102564,4009.230769,4079.487179
150,4389.743589,4514.871794,4517.948717,4289.743589,4480.000000,4178.461538,4448.717948,4249.743589,4267.692307,4488.205128,4157.435897,4660.512820,4007.692307,4078.974358
151,4389.230769,4524.615384,4520.512820,4291.282051,4483.076923,4183.076923,4455.897435,4255.384615,4274.871794,4501.538461,4156.923076,4664.615384,4007.692307,4084.102564
152,4389.230769,4527.692307,4522.051282,4295.897435,4484.102564,4183.589743,4461.025641,4259.487179,4276.923076,4506.153846,4152.820512,4667.179487,4007.692307,4084.615384
153,4387.179487,4520.000000,4523.076923,4293.333333,4482.051282,4178.461538,4456.410256,4257.948717,4275.897435,4503.076923,4149.743589,4662.564102,4003.589743,4084.102564
154,4388.717948,4518.461538,4523.589743,4294.871794,4482.564102,4178.974358,4455.384615,4261.538461,4283.076923,4510.769230,4153.333333,4665.128205,4010.769230,4093.846153
155,4388.205128,4520.512820,4524.102564,4298.461538,4481.538461,4179.487179,4457.948717,4263.589743,4289.230769,4511.282051,4152.820512,4670.769230,4017.435897,4095.384615
156,4384.102564,4517.948717,4523.076923,4291.282051,4475.897435,4174.358974,4455.897435,4257.948717,4280.512820,4498.461538,4149.743589,4668.205128,4012.820512,4088.717948
157,4384.102564,4516.923076,4523.589743,4288.717948,4475.897435,4177.948717,4455.897435,4257.435897,4277.948717,4499.487179,4154.358974,4669.230769,4007.692307,4093.846153
158,4384.102564,4515.384615,4524.615384,4290.769230,4481.025641,4183.589743,4461.025641,4260.512820,4282.051282,4507.179487,4152.820512,4672.820512,4006.666666,4099.487179
159,4378.461538,4516.923076,4521.538461,4283.076923,4480.000000,4179.487179,4461.025641,4256.410256,4277.435897,4500.512820,4143.076923,4669.230769,4008.205128,4091.282051
160,4379.487179,4524.615384,4523.589743,4285.641025,4479.487179,4178.461538,4456.923076,4253.333333,4274.358974,4497.948717,4145.128205,4669.230769,4011.282051,4090.769230
161,4387.179487,4530.256410,4527.179487,4298.461538,4486.153846,4182.564102,4459.487179,4256.410256,4280.512820,4504.615384,4152.820512,4675.384615,4006.153846,4099.487179
162,4384.615384,4524.615384,4523.589743,4297.435897,4485.128205,4181.025641,4462.051282,4253.846153,4281.025641,4504.615384,4150.769230,4673.846153,3997.948718,4093.333333
163,4373.333333,4518.461538,4520.000000,4289.230769,4479.487179,4176.410256,4454.871794,4248.717948,4275.384615,4497.435897,4143.076923,4666.153846,4004.102564,4084.615384
164,4371.282051,4521.538461,4520.512820,4288.717948,4480.000000,4174.358974,4450.256410,4250.769230,4273.333333,4495.384615,4136.410256,4665.128205,4012.820512,4087.692307
165,4377.948717,4523.589743,4522.051282,4291.282051,4483.589743,4174.358974,4456.410256,4253.333333,4278.974358,4506.666666,4141.538461,4669.743589,4011.794871,4091.794871
166,4378.461538,4521.025641,4523.589743,4289.230769,4483.076923,4174.871794,4456.410256,4248.717948,4282.051282,4510.256410,4150.256410,4669.230769,4003.589743,4086.153846
167,4372.820512,4514.871794,4516.923076,4291.282051,4480.512820,4173.846153,4449.230769,4243.076923,4275.384615,4499.487179,4147.179487,4665.128205,4001.538461,4083.589743
168,4374.871794,4513.846153,4512.307692,4298.974358,4480.000000,4173.333333,4451.282051,4247.692307,4274.358974,4503.589743,4142.051282,4668.205128,4015.384615,4093.846153
169,4383.076923,4522.564102,4520.512820,4299.487179,4483.076923,4178.461538,4459.487179,4255.897435,4286.153846,4519.487179,4148.717948,4674.871794,4023.076923,4102.051282
170,4384.615384,4530.769230,4525.641025,4290.256410,4483.589743,4178.461538,4460.512820,4256.923076,4290.769230,4516.410256,4153.846153,4671.282051,4017.435897,4096.410256
171,4382.051282,4530.769230,4518.974358,4287.692307,4481.538461,4171.794871,4454.358974,4250.769230,4279.487179,4502.051282,4147.179487,4665.128205,4012.307692,4088.717948
172,4380.512820,4526.153846,4517.435897,4292.820512,4482.051282,4172.307692,4447.179487,4245.128205,4272.307692,4496.410256,4146.153846,4664.615384,4013.846153,4091.794871
173,4380.000000,4528.717948,4522.051282,4287.692307,4482.564102,4176.923076,4449.743589,4244.615384,4275.384615,4502.564102,4151.794871,4667.692307,4019.487179,4096.923076
174,4380.512820,4524.615384,4523.076923,4285.641025,4482.051282,4178.461538,4458.974358,4248.717948,4276.410256,4513.333333,4157.435897,4671.282051,4027.179487,4095.897435
175,4380.512820,4514.871794,4522.051282,4295.384615,4477.948717,4177.948717,4462.564102,4249.743589,4275.897435,4517.435897,4161.025641,4671.794871,4025.128205,4093.333333
176,4378.461538,4514.871794,4523.076923,4295.384615,4473.333333,4175.897435,4456.410256,4243.589743,4275.897435,4509.743589,4161.538461,4668.205128,4013.333333,4091.282051
177,4374.871794,4516.410256,4517.948717,4286.153846,4472.307692,4170.256410,4449.230769,4239.487179,4275.384615,4506.153846,4156.410256,4665.641025,4010.256410,4086.666666
178,4370.256410,4506.666666,4509.230769,4285.128205,4469.230769,4166.153846,4451.282051,4240.512820,4271.794871,4510.256410,4152.307692,4666.153846,4014.871794,4082.051282
179,4368.717948,4500.512820,4512.307692,4288.717948,4467.692307,4169.230769,4457.435897,4243.076923,4272.820512,4505.641025,4155.897435,4667.692307,4016.410256,4084.102564
180,4373.333333,4509.743589,4522.564102,4286.153846,4470.256410,4173.846153,4455.897435,4240.512820,4276.410256,4501.538461,4160.512820,4669.743589,4014.358974,4086.153846
181,4376.410256,4515.897435,4523.076923,4284.102564,4473.846153,4174.871794,4453.846153,4240.000000,4278.461538,4507.179487,4163.589743,4671.794871,4012.820512,4084.615384
182,4374.871794,4514.358974,4521.538461,4289.230769,4474.358974,4174.871794,4460.000000,4248.717948,4281.538461,4513.333333,4170.256410,4674.358974,4015.897435,4087.179487
183,4378.461538,4516.410256,4525.128205,4294.358974,4473.846153,4177.435897,4463.589743,4256.923076,4285.641025,4518.461538,4176.923076,4677.435897,4018.461538,4092.820512
184,4383.589743,4518.974358,4526.153846,4296.410256,4475.384615,4180.000000,4462.564102,4257.435897,4287.692307,4518.974358,4171.794871,4679.487179,4015.897435,4091.282051
185,4380.512820,4519.487179,4523.076923,4294.358974,4475.897435,4179.487179,4461.538461,4251.282051,4283.589743,4506.153846,4161.025641,4675.384615,4011.794871,4086.666666
186,4376.923076,4518.461538,4522.564102,4292.820512,4475.384615,4178.974358,4458.974358,4245.128205,4275.897435,4495.384615,4160.000000,4669.743589,4012.307692,4087.179487
187,4380.000000,4515.384615,4525.128205,4295.897435,4478.974358,4178.974358,4456.923076,4244.615384,4273.333333,4506.666666,4164.615384,4669.743589,4014.358974,4087.692307
188,4378.974358,4514.358974,4521.025641,4291.282051,4478.461538,4174.358974,4454.358974,4246.666666,4277.948717,4510.769230,4163.076923,4668.205128,4011.794871,4083.076923
189,4374.871794,4514.871794,4513.846153,4284.615384,4470.256410,4168.717948,4451.794871,4245.128205,4279.487179,4500.000000,4160.512820,4664.102564,4007.692307,4080.512820
190,4378.461538,4518.974358,4517.435897,4291.794871,4471.282051,4175.897435,4454.358974,4242.564102,4277.435897,4494.871794,4161.538461,4664.102564,4008.205128,4083.589743
191,4382.564102,4522.564102,4523.076923,4299.487179,4476.923076,4181.538461,4455.897435,4241.538461,4274.871794,4498.974358,4162.564102,4667.179487,4004.615384,4083.589743
192,4379.487179,4515.897435,4522.051282,4292.307692,4472.307692,4174.871794,4449.743589,4239.487179,4273.846153,4505.128205,4162.051282,4667.692307,3997.948718,4082.051282
193,4374.358974,4509.230769,4516.410256,4285.128205,4465.641025,4171.794871,4449.743589,4237.435897,4273.333333,4505.128205,4161.538461,4663.076923,4003.589743,4082.051282
194,4376.410256,4518.974358,4515.897435,4288.205128,4471.282051,4178.461538,4457.435897,4242.051282,4276.923076,4499.487179,4161.025641,4661.025641,4015.384615,4082.051282
195,4384.102564,4530.769230,4518.974358,4295.897435,4480.000000,4184.102564,4462.051282,4250.256410,4284.102564,4503.076923,4165.128205,4666.666666,4013.846153,4083.589743
196,4388.717948,4528.205128,4523.076923,4302.564102,4477.948717,4182.051282,4459.487179,4249.230769,4284.102564,4510.769230,4173.333333,4671.794871,4004.102564,4086.666666
197,4386.153846,4526.153846,4522.051282,4301.025641,4474.871794,4175.897435,4451.794871,4239.487179,4276.923076,4503.589743,4172.307692,4669.743589,4004.102564,4084.615384
198,4384.102564,4526.153846,4518.461538,4296.923076,4478.461538,4174.358974,4446.153846,4238.461538,4273.333333,4497.435897,4163.589743,4664.102564,4015.897435,4081.025641
199,4382.564102,4517.948717,4521.538461,4293.333333,4475.897435,4179.487179,4448.205128,4242.564102,4275.384615,4504.102564,4168.717948,4663.589743,4017.948717,4081.025641
200,4379.487179,4511.794871,4521.538461,4287.692307,4467.179487,4177.435897,4449.743589,4240.512820,4275.897435,4508.205128,4182.051282,4666.666666,4005.641025,4081.025641
201,4377.948717,4516.410256,4512.820512,4285.128205,4465.128205,4168.717948,4443.589743,4237.435897,4271.794871,4503.076923,4174.358974,4664.102564,3999.487180,4076.410256
202,4378.461538,4517.948717,4510.256410,4286.153846,4466.666666,4167.692307,4440.000000,4237.948717,4269.230769,4498.461538,4154.871794,4658.461538,4005.641025,4070.256410
203,4384.102564,4514.871794,4518.461538,4290.256410,4466.666666,4169.230769,4441.025641,4239.487179,4272.820512,4500.512820,4161.025641,4661.025641,4007.692307,4070.769230
204,4386.666666,4513.846153,4524.102564,4294.871794,4466.666666,4165.128205,4437.435897,4238.974358,4274.871794,4503.589743,4177.435897,4667.179487,4005.128205,4075.897435
205,4381.538461,4513.846153,4517.948717,4295.897435,4466.153846,4160.512820,4431.794871,4234.358974,4268.717948,4497.948717,4176.410256,4668.205128,4002.564102,4072.820512
206,4377.948717,4514.358974,4511.794871,4290.769230,4468.717948,4163.589743,4434.871794,4232.820512,4263.589743,4489.743589,4167.692307,4663.589743,3996.410257,4065.641025
207,4374.871794,4513.846153,4508.717948,4281.538461,4467.179487,4163.076923,4437.948717,4233.846153,4261.025641,4487.179487,4164.102564,4655.384615,3989.230770,4060.512820
208,4372.307692,4512.820512,4507.179487,4281.025641,4463.076923,4157.948717,4437.435897,4234.358974,4261.025641,4489.743589,4166.153846,4654.358974,3991.794872,4062.051282
209,4377.948717,4511.794871,4513.846153,4292.307692,4467.179487,4162.051282,4441.538461,4237.948717,4265.128205,4495.897435,4168.717948,4663.589743,3997.435898,4068.205128
210,4381.025641,4509.230769,4517.948717,4297.948717,4470.256410,4167.179487,4448.205128,4241.025641,4268.717948,4496.923076,4172.307692,4666.153846,3991.282052,4065.641025
211,4375.384615,4510.256410,4511.282051,4288.717948,4466.153846,4165.128205,4444.615384,4235.384615,4265.641025,4491.794871,4175.384615,4660.512820,3982.564103,4053.846153
212,4373.846153,4517.435897,4505.128205,4281.538461,4464.102564,4163.589743,4438.974358,4227.692307,4260.512820,4492.307692,4168.205128,4654.871794,3989.230770,4053.846153
213,4377.948717,4513.846153,4504.615384,4288.717948,4466.153846,4165.641025,4440.000000,4228.205128,4262.564102,4495.897435,4161.025641,4652.307692,3997.435898,4060.000000
214,4380.512820,4503.076923,4507.692307,4293.846153,4464.615384,4164.615384,4440.512820,4233.333333,4267.692307,4495.897435,4168.717948,4658.461538,3995.384616,4061.025641
215,4382.564102,4508.205128,4518.974358,4290.769230,4463.076923,4167.692307,4440.512820,4237.948717,4268.205128,4494.871794,4176.923076,4667.179487,3994.358975,4063.589743
216,4385.128205,4517.435897,4521.538461,4286.666666,4466.153846,4170.256410,4444.102564,4240.512820,4267.692307,4496.410256,4175.384615,4669.743589,3996.923077,4065.641025
217,4387.179487,4515.897435,4513.846153,4286.666666,4466.666666,4165.641025,4442.564102,4240.512820,4270.256410,4497.948717,4181.025641,4668.717948,3997.948718,4065.641025
218,4385.128205,4508.205128,4513.333333,4289.230769,4460.512820,4163.589743,4432.820512,4236.923076,4269.743589,4497.948717,4181.538461,4664.615384,3992.307693,4062.564102
219,4378.461538,4501.025641,4512.307692,4289.230769,4461.025641,4166.666666,4433.333333,4233.333333,4265.128205,4495.897435,4169.743589,4661.025641,3985.128206,4052.820512
220,4377.948717,4503.589743,4512.820512,4288.717948,4469.743589,4171.794871,4445.641025,4236.923076,4270.256410,4494.871794,4170.769230,4664.615384,3988.205129,4051.794871
221,4386.153846,4512.307692,4516.923076,4290.769230,4472.820512,4177.435897,4447.179487,4242.051282,4274.871794,4492.307692,4173.846153,4668.205128,3993.846154,4061.538461
222,4389.230769,4515.897435,4516.923076,4292.307692,4468.717948,4180.512820,4444.102564,4240.512820,4269.743589,4490.256410,4165.641025,4663.076923,3991.794872,4061.025641
223,4385.641025,4513.333333,4516.410256,4291.282051,4469.230769,4178.461538,4446.666666,4237.435897,4267.692307,4496.923076,4165.128205,4660.000000,3984.102565,4052.307692
224,4379.487179,4505.641025,4514.358974,4288.205128,4469.230769,4173.846153,4444.102564,4234.358974,4263.589743,4495.384615,4168.205128,4658.461538,3974.358975,4049.230769
225,4377.435897,4501.025641,4510.256410,4288.205128,4467.692307,4173.333333,4440.000000,4232.820512,4253.846153,4481.025641,4154.358974,4656.410256,3973.846154,4048.717948
226,4379.487179,4508.717948,4512.307692,4290.769230,4469.743589,4177.435897,4445.128205,4230.256410,4253.333333,4475.897435,4143.076923,4658.974358,3987.179488,4049.230769
227,4377.948717,4513.846153,4513.846153,4288.205128,4467.692307,4177.435897,4444.615384,4228.717948,4261.025641,4478.461538,4144.615384,4660.000000,3985.641026,4046.666666
228,4376.410256,4505.641025,4512.820512,4282.051282,4464.102564,4173.846153,4434.871794,4233.846153,4258.974358,4480.000000,4146.153846,4657.435897,3967.179488,4044.102564
229,4382.564102,4506.153846,4520.512820,4286.153846,4466.153846,4168.205128,4433.846153,4234.871794,4255.384615,4483.589743,4147.179487,4661.538461,3971.794872,4052.307692
230,4394.871794,4517.948717,4525.641025,4298.461538,4470.256410,4167.692307,4442.051282,4231.282051,4260.512820,4490.256410,4151.282051,4670.769230,3991.794872,4064.615384
231,4402.564102,4524.102564,4522.564102,4304.615384,4475.384615,4176.923076,4445.641025,4237.435897,4266.666666,4496.410256,4158.974358,4677.948717,3996.923077,4068.205128
232,4402.051282,4521.025641,4525.641025,4309.230769,4480.000000,4183.589743,4444.102564,4244.102564,4270.256410,4502.564102,4167.179487,4678.974358,3994.358975,4066.153846
233,4399.487179,4518.974358,4526.666666,4311.794871,4478.974358,4178.461538,4442.051282,4240.512820,4266.666666,4501.025641,4164.615384,4672.820512,3992.820513,4063.589743
234,4394.358974,4518.974358,4517.435897,4299.487179,4472.307692,4172.820512,4439.487179,4232.820512,4256.410256,4490.769230,4151.794871,4664.615384,3983.076924,4055.384615
235,4388.205128,4513.846153,4511.794871,4284.615384,4467.692307,4173.333333,4436.923076,4227.692307,4254.358974,4480.512820,4144.102564,4662.051282,3975.384616,4051.282051
236,4389.743589,4512.820512,4516.923076,4289.743589,4470.256410,4175.384615,4440.000000,4229.230769,4262.564102,4480.000000,4152.307692,4666.666666,3988.205129,4060.000000
237,4396.410256,4517.948717,4524.102564,4298.974358,4472.820512,4174.871794,4444.615384,4233.846153,4263.589743,4482.564102,4158.461538,4672.307692,4000.512820,4062.564102
238,4392.820512,4514.871794,4522.564102,4290.769230,4468.717948,4173.333333,4441.538461,4227.692307,4256.923076,4483.589743,4152.307692,4671.794871,3990.769231,4055.897435
239,4388.717948,4509.230769,4514.871794,4282.051282,4463.076923,4171.794871,4434.358974,4224.615384,4254.358974,4487.179487,4148.717948,4668.205128,3978.461539,4054.358974
240,4391.794871,4514.358974,4514.871794,4290.256410,4465.641025,4172.307692,4436.410256,4232.307692,4257.948717,4487.692307,4151.282051,4667.179487,3981.025642,4056.410256
241,4392.307692,4517.948717,4519.487179,4300.000000,4470.769230,4172.820512,4446.153846,4233.846153,4261.538461,4488.205128,4151.282051,4666.666666,3986.666667,4054.358974
242,4387.692307,4507.692307,4512.307692,4295.384615,4469.230769,4169.743589,4444.102564,4228.717948,4259.487179,4492.307692,4146.153846,4665.641025,3987.179488,4051.282051
243,4386.153846,4502.564102,4508.717948,4286.666666,4466.153846,4169.743589,4434.358974,4223.589743,4254.358974,4490.256410,4143.076923,4665.128205,3986.153847,4050.769230
244,4389.743589,4510.256410,4516.923076,4289.743589,4468.717948,4170.769230,4435.384615,4224.102564,4256.410256,4485.641025,4147.692307,4666.153846,3985.128206,4052.307692
245,4390.256410,4514.358974,4516.410256,4297.948717,4471.282051,4167.692307,4439.487179,4226.153846,4259.487179,4486.153846,4149.230769,4665.128205,3983.589744,4052.307692
246,4387.692307,4513.846153,4506.666666,4293.846153,4468.717948,4165.641025,4433.846153,4223.076923,4255.384615,4485.641025,4140.512820,4662.051282,3985.641026,4051.794871
247,4383.589743,4509.230769,4506.153846,4278.461538,4463.589743,4164.615384,4426.153846,4219.487179,4250.256410,4478.461538,4125.128205,4658.461538,3984.102565,4048.205128
248,4377.435897,4498.974358,4506.153846,4269.743589,4461.025641,4160.512820,4426.153846,4220.512820,4247.692307,4472.307692,4113.846153,4653.333333,3970.256411,4040.512820
249,4376.410256,4501.025641,4503.076923,4274.871794,4464.102564,4160.000000,4430.256410,4222.564102,4249.230769,4477.435897,4115.897435,4652.820512,3970.256411,4045.128205
250,4385.641025,4513.846153,4511.794871,4281.538461,4467.692307,4165.641025,4429.230769,4222.564102,4254.358974,4486.666666,4123.076923,4662.051282,3987.692308,4060.512820
251,4391.794871,4515.897435,4521.025641,4284.615384,4467.692307,4169.230769,4427.692307,4220.512820,4254.871794,4485.128205,4122.564102,4668.205128,3992.307693,4067.692307
252,4391.282051,4517.948717,4522.564102,4288.205128,4472.307692,4171.794871,4431.282051,4221.025641,4252.307692,4482.564102,4120.000000,4666.666666,3982.564103,4072.820512
253,4390.769230,4525.128205,4528.205128,4288.717948,4477.435897,4174.358974,4438.461538,4228.205128,4255.384615,4492.820512,4118.974358,4670.769230,3984.615385,4082.051282
254,4389.743589,4517.948717,4532.820512,4293.333333,4473.846153,4173.846153,4440.512820,4232.820512,4260.000000,4500.512820,4113.846153,4678.461538,3993.333334,4083.589743
255,4385.128205,4511.282051,4530.769230,4296.410256,4468.205128,4173.846153,4442.564102,4231.282051,4258.461538,4491.282051,4112.820512,4676.923076,3991.794872,4081.025641
