,AF3,F7,F3,FC5,T7,P7,O1,O2,P8,T8,FC6,F4,F8,AF4
0,4394.358974,4490.769230,4499.487179,4250.256410,4404.102564,4172.307692,4953.846153,4182.051282,4217.435897,4469.743589,4164.102564,4590.769230,3924.102565,3951.794872
1,4394.358974,4489.743589,4496.923076,4251.282051,4405.641025,4174.871794,4957.948717,4171.794871,4214.871794,4472.307692,4168.717948,4584.615384,3913.846154,3942.051283
2,4398.974358,4495.897435,4495.897435,4254.358974,4405.641025,4172.307692,4961.025641,4155.897435,4218.461538,4471.794871,4173.846153,4585.641025,3915.384616,3943.589744
3,4398.461538,4498.974358,4494.871794,4252.820512,4402.564102,4169.230769,4956.410256,4151.794871,4212.307692,4467.179487,4172.820512,4589.743589,3931.282052,3948.717949
4,4394.358974,4493.333333,4494.871794,4253.333333,4402.051282,4170.769230,4953.846153,4151.282051,4203.589743,4458.461538,4177.435897,4587.692307,3926.153847,3947.692308
5,4395.897435,4491.794871,4497.948717,4248.717948,4405.128205,4171.282051,4964.102564,4155.384615,4206.153846,4455.897435,4175.384615,4584.102564,3912.307693,3947.692308
6,4408.717948,4503.589743,4504.102564,4247.692307,4410.769230,4171.282051,4977.948717,4166.666666,4218.461538,4470.769230,4171.282051,4592.820512,3923.589744,3956.410257
7,4413.846153,4506.153846,4510.256410,4256.923076,4413.333333,4176.923076,4985.128205,4170.256410,4224.615384,4483.076923,4172.307692,4603.076923,3931.794872,3958.974359
8,4408.717948,4495.384615,4509.743589,4256.923076,4409.230769,4180.000000,4986.153846,4165.128205,4220.000000,4478.461538,4172.307692,4600.512820,3922.564103,3955.897436
9,4407.692307,4492.307692,4506.666666,4254.358974,4407.692307,4173.846153,4982.564102,4160.512820,4216.410256,4476.410256,4173.846153,4595.897435,3923.589744,3957.948718
10,4406.666666,4492.307692,4507.179487,4260.000000,4409.230769,4168.205128,4980.000000,4153.333333,4213.333333,4475.384615,4174.358974,4595.384615,3926.666667,3956.923077
11,4398.461538,4489.743589,4505.128205,4255.897435,4407.179487,4167.692307,4977.435897,4151.794871,4205.128205,4466.666666,4164.102564,4590.256410,3915.384616,3954.871795
12,4393.333333,4488.717948,4503.076923,4246.666666,4406.666666,4168.205128,4976.923076,4155.897435,4200.512820,4457.435897,4154.871794,4584.102564,3907.692308,3956.923077
13,4400.512820,4488.205128,4506.153846,4249.230769,4410.256410,4165.641025,4983.589743,4154.871794,4207.692307,4453.846153,4160.512820,4587.692307,3914.871795,3956.410257
14,4409.743589,4489.743589,4507.692307,4252.307692,4409.743589,4168.205128,4995.384615,4156.923076,4215.384615,4464.102564,4172.307692,4597.435897,3923.076924,3958.974359
15,4414.358974,4498.974358,4510.769230,4255.384615,4407.179487,4178.461538,5007.179487,4169.743589,4220.512820,4486.153846,4176.410256,4601.538461,3933.333334,3970.256411
16,4414.358974,4503.589743,4517.435897,4260.000000,4412.307692,4181.538461,5010.769230,4173.846153,4224.615384,4495.384615,4177.435897,4602.564102,3941.538462,3975.384616
17,4413.846153,4497.435897,4519.487179,4257.435897,4415.897435,4173.846153,5008.717948,4166.153846,4222.564102,4484.615384,4185.641025,4606.153846,3937.948718,3969.743590
18,4412.307692,4494.871794,4513.333333,4255.384615,4412.820512,4170.769230,5008.717948,4160.512820,4215.897435,4474.358974,4186.153846,4607.179487,3933.333334,3968.205129
19,4407.179487,4494.871794,4505.128205,4255.384615,4414.358974,4171.794871,5008.205128,4157.948717,4206.153846,4468.205128,4171.282051,4598.461538,3929.230770,3963.589744
20,4405.641025,4491.282051,4501.538461,4250.769230,4415.897435,4170.769230,5006.153846,4151.794871,4201.025641,4468.717948,4162.051282,4594.358974,3925.128206,3957.948718
21,4408.717948,4495.897435,4508.205128,4256.923076,4414.358974,4171.282051,5012.820512,4151.794871,4208.205128,4475.897435,4171.794871,4599.487179,3930.769231,3964.615385
22,4411.282051,4509.743589,4514.358974,4267.692307,4414.358974,4174.871794,5021.025641,4162.051282,4215.384615,4477.435897,4182.564102,4603.589743,3936.410257,3971.794872
23,4409.743589,4510.256410,4511.794871,4264.102564,4414.358974,4173.846153,5018.461538,4167.692307,4215.897435,4478.461538,4175.384615,4602.051282,3927.692308,3967.692308
24,4409.743589,4495.897435,4511.794871,4262.564102,4413.333333,4169.743589,5017.435897,4167.179487,4217.435897,4487.179487,4166.666666,4604.615384,3927.692308,3965.128206
25,4411.794871,4495.384615,4511.794871,4265.641025,4415.897435,4173.333333,5024.102564,4167.179487,4219.487179,4495.384615,4181.025641,4609.230769,3942.564103,3969.743590
26,4412.820512,4510.256410,4513.333333,4266.153846,4417.948717,4181.025641,5029.230769,4169.230769,4216.410256,4491.794871,4196.923076,4608.205128,3941.538462,3970.256411
27,4414.358974,4516.410256,4516.410256,4269.230769,4418.461538,4179.487179,5028.717948,4170.769230,4215.384615,4483.076923,4188.205128,4609.230769,3930.769231,3968.717949
28,4415.384615,4508.717948,4515.384615,4267.179487,4420.512820,4173.333333,5026.666666,4162.051282,4215.897435,4480.512820,4182.564102,4614.871794,3929.230770,3970.256411
29,4413.333333,4505.641025,4514.871794,4260.512820,4418.461538,4174.358974,5024.615384,4158.461538,4213.333333,4485.641025,4188.205128,4615.384615,3927.179488,3971.794872
30,4410.769230,4506.153846,4518.461538,4263.589743,4412.307692,4172.307692,5024.102564,4167.179487,4210.256410,4488.717948,4175.897435,4611.794871,3917.948718,3969.230770
31,4412.820512,4504.102564,4520.000000,4276.923076,4412.820512,4169.230769,5025.128205,4166.153846,4211.794871,4485.128205,4167.692307,4613.333333,3921.538462,3966.153847
32,4414.358974,4505.128205,4520.000000,4276.410256,4415.897435,4170.769230,5023.076923,4156.923076,4217.948717,4487.179487,4183.589743,4616.410256,3933.333334,3968.717949
33,4414.871794,4505.128205,4522.564102,4263.589743,4413.333333,4169.743589,5018.461538,4161.538461,4223.589743,4492.820512,4188.717948,4616.410256,3928.717949,3971.794872
34,4420.512820,4505.641025,4527.692307,4263.076923,4413.333333,4170.256410,5018.461538,4166.666666,4224.615384,4493.333333,4185.128205,4618.461538,3924.615385,3974.358975
35,4418.974358,4499.487179,4528.717948,4269.230769,4414.871794,4172.307692,5014.871794,4161.538461,4220.000000,4489.743589,4197.435897,4618.461538,3928.717949,3972.307693
36,4409.230769,4487.179487,4523.589743,4265.128205,4407.692307,4165.641025,5005.641025,4161.025641,4217.948717,4487.179487,4195.384615,4616.410256,3924.102565,3970.769231
37,4416.923076,4494.871794,4527.179487,4262.051282,4408.205128,4165.641025,5007.179487,4170.256410,4227.692307,4496.923076,4187.692307,4624.102564,3927.179488,3980.512821
38,4431.282051,4520.512820,4537.948717,4270.256410,4422.051282,4177.948717,5017.435897,4176.923076,4236.923076,4505.641025,4200.000000,4632.307692,3945.128206,3990.769231
39,4429.230769,4522.051282,4534.871794,4277.948717,4422.564102,4181.538461,5018.461538,4172.307692,4228.717948,4503.589743,4206.153846,4629.743589,3951.794872,3989.230770
40,4424.615384,4509.230769,4529.230769,4280.512820,4415.384615,4177.435897,5013.846153,4172.820512,4222.051282,4502.051282,4197.435897,4627.692307,3945.641026,3987.692308
41,4425.128205,4511.282051,4529.230769,4280.000000,4422.564102,4180.512820,5016.410256,4183.076923,4231.282051,4507.179487,4198.461538,4627.692307,3943.589744,3991.794872
42,4422.051282,4515.897435,4524.102564,4278.461538,4427.179487,4186.153846,5022.564102,4180.512820,4238.461538,4512.307692,4206.153846,4623.589743,3941.538462,3990.769231
43,4422.051282,4515.897435,4522.051282,4278.974358,4422.051282,4185.641025,5026.666666,4174.358974,4239.487179,4515.897435,4204.615384,4622.564102,3945.128206,3988.205129
44,4424.615384,4519.487179,4524.102564,4274.871794,4425.128205,4184.615384,5025.641025,4182.051282,4244.615384,4515.897435,4197.948717,4620.000000,3953.333334,3988.717949
45,4423.076923,4522.564102,4520.512820,4271.282051,4430.256410,4185.641025,5023.076923,4180.000000,4242.051282,4512.820512,4191.282051,4614.871794,3948.205129,3989.743590
46,4420.512820,4522.564102,4520.000000,4278.461538,4425.128205,4184.615384,5025.641025,4168.205128,4233.333333,4506.666666,4191.794871,4612.307692,3942.564103,3989.743590
47,4414.358974,4518.974358,4521.025641,4281.538461,4423.076923,4183.076923,5026.153846,4171.282051,4229.230769,4492.820512,4190.769230,4606.153846,3940.512821,3982.564103
48,4410.769230,4516.923076,4517.435897,4278.974358,4428.205128,4184.102564,5024.102564,4170.256410,4225.641025,4488.717948,4186.666666,4599.487179,3935.897436,3974.871795
49,4412.820512,4515.897435,4512.307692,4274.358974,4425.641025,4182.564102,5020.512820,4155.897435,4218.461538,4502.051282,4189.743589,4604.102564,3932.307693,3976.410257
50,4409.230769,4512.307692,4507.179487,4270.256410,4418.461538,4175.384615,5013.846153,4149.230769,4210.256410,4501.025641,4182.564102,4605.641025,3936.923077,3972.307693
51,4402.051282,4513.333333,4504.615384,4270.769230,4419.487179,4172.307692,5008.717948,4151.282051,4206.153846,4486.153846,4167.179487,4600.000000,3938.461539,3958.974359
52,4402.051282,4517.435897,4512.820512,4273.846153,4423.076923,4173.333333,5009.230769,4150.769230,4212.307692,4487.179487,4176.923076,4601.538461,3929.230770,3955.897436
53,4406.153846,4512.307692,4517.948717,4270.769230,4421.538461,4172.820512,5012.307692,4153.846153,4219.487179,4492.820512,4196.410256,4610.769230,3928.717949,3961.538462
54,4403.076923,4505.641025,4514.358974,4265.641025,4415.384615,4169.743589,5010.256410,4162.564102,4216.923076,4489.230769,4180.512820,4613.333333,3938.974359,3957.948718
55,4400.000000,4509.743589,4514.358974,4265.128205,4411.794871,4170.769230,5010.256410,4164.615384,4217.435897,4487.179487,4166.153846,4611.794871,3944.102565,3950.769231
56,4403.589743,4509.230769,4520.512820,4268.205128,4417.948717,4174.871794,5012.307692,4165.128205,4223.589743,4492.307692,4187.692307,4613.846153,3942.564103,3954.871795
57,4406.153846,4504.102564,4522.051282,4267.179487,4420.000000,4172.820512,5006.153846,4170.256410,4223.076923,4497.948717,4197.435897,4613.846153,3936.410257,3956.410257
58,4406.666666,4513.333333,4516.410256,4262.051282,4417.435897,4175.384615,4999.487179,4171.282051,4224.615384,4502.564102,4181.538461,4612.820512,3931.282052,3951.794872
59,4408.717948,4518.974358,4514.871794,4267.692307,4421.025641,4180.512820,5001.025641,4169.230769,4232.820512,4505.128205,4181.538461,4614.871794,3932.307693,3954.358975
60,4407.692307,4511.282051,4516.923076,4280.000000,4426.666666,4179.487179,4996.410256,4170.769230,4233.333333,4504.615384,4191.794871,4615.897435,3930.769231,3957.948718
61,4407.179487,4510.769230,4520.512820,4277.435897,4424.102564,4177.948717,4986.153846,4169.743589,4224.102564,4505.641025,4187.692307,4613.333333,3925.641026,3953.846154
62,4410.769230,4517.435897,4522.051282,4273.846153,4423.589743,4184.102564,4985.128205,4167.179487,4226.153846,4507.692307,4183.076923,4614.871794,3936.923077,3954.871795
63,4412.307692,4517.948717,4523.076923,4283.589743,4428.717948,4187.179487,4986.153846,4171.282051,4235.384615,4498.461538,4178.974358,4618.974358,3950.256411,3962.051283
64,4403.589743,4515.384615,4523.076923,4280.000000,4429.230769,4183.589743,4976.923076,4170.256410,4228.205128,4487.692307,4169.743589,4612.307692,3936.410257,3960.512821
65,4396.410256,4512.307692,4518.461538,4266.153846,4428.717948,4182.051282,4963.589743,4158.974358,4215.897435,4490.769230,4166.666666,4601.538461,3916.410257,3955.384616
66,4399.487179,4511.794871,4510.256410,4269.743589,4426.666666,4183.076923,4956.923076,4156.923076,4213.333333,4493.333333,4171.794871,4598.974358,3915.897436,3953.333334
67,4405.128205,4516.923076,4511.282051,4280.000000,4428.205128,4182.051282,4955.384615,4163.076923,4218.461538,4490.256410,4180.512820,4601.538461,3925.128206,3951.282052
68,4401.025641,4515.384615,4516.410256,4278.974358,4429.743589,4176.410256,4944.615384,4157.948717,4221.025641,4493.333333,4189.743589,4601.538461,3929.743590,3954.871795
69,4392.820512,4506.666666,4510.769230,4269.743589,4426.666666,4171.794871,4926.666666,4149.743589,4216.923076,4494.358974,4184.615384,4599.487179,3925.128206,3955.384616
70,4396.410256,4509.230769,4507.179487,4264.615384,4426.153846,4175.384615,4919.487179,4152.307692,4216.923076,4490.769230,4169.230769,4600.000000,3926.666667,3948.205129
71,4398.974358,4511.794871,4511.794871,4272.820512,4428.205128,4183.076923,4918.461538,4155.384615,4218.974358,4492.820512,4166.153846,4597.948717,3936.923077,3943.076924
72,4392.820512,4507.179487,4512.307692,4279.487179,4429.230769,4180.512820,4905.128205,4151.282051,4213.333333,4488.205128,4171.794871,4591.794871,3943.076924,3942.051283
73,4388.717948,4507.692307,4506.666666,4273.333333,4427.692307,4171.282051,4891.794871,4151.282051,4209.230769,4477.435897,4174.358974,4592.307692,3942.051283,3941.025642
74,4388.205128,4509.230769,4508.205128,4269.743589,4427.179487,4174.871794,4889.743589,4156.923076,4218.974358,4482.051282,4167.692307,4600.512820,3942.564103,3941.538462
75,4389.230769,4499.487179,4515.384615,4272.820512,4429.230769,4183.076923,4885.128205,4160.000000,4226.666666,4492.820512,4161.025641,4601.025641,3938.461539,3938.974359
76,4389.743589,4494.871794,4518.461538,4270.256410,4428.717948,4177.948717,4876.410256,4158.461538,4222.564102,4492.307692,4173.846153,4597.435897,3927.179488,3936.923077
77,4388.205128,4498.974358,4511.794871,4262.564102,4427.179487,4169.230769,4868.717948,4155.384615,4215.384615,4484.615384,4186.153846,4598.974358,3933.333334,3936.410257
78,4381.025641,4494.358974,4506.153846,4253.846153,4426.666666,4171.794871,4856.410256,4152.307692,4212.820512,4480.000000,4172.820512,4598.974358,3945.128206,3929.743590
79,4382.564102,4493.333333,4510.769230,4251.794871,4427.179487,4174.358974,4846.666666,4153.333333,4223.589743,4480.000000,4163.076923,4597.948717,3942.564103,3927.179488
80,4389.230769,4501.025641,4511.794871,4258.974358,4427.179487,4170.256410,4844.615384,4156.410256,4226.153846,4478.974358,4170.769230,4600.000000,3942.564103,3934.358975
81,4384.102564,4501.538461,4506.666666,4264.615384,4429.230769,4174.358974,4838.461538,4154.358974,4216.923076,4482.564102,4173.333333,4599.487179,3950.769231,3941.025642
82,4382.564102,4500.000000,4508.717948,4269.230769,4430.256410,4183.076923,4830.256410,4154.871794,4221.538461,4484.102564,4171.794871,4597.948717,3944.102565,3939.487180
83,4392.820512,4506.153846,4513.333333,4271.282051,4427.179487,4179.487179,4826.666666,4160.000000,4230.256410,4478.974358,4176.923076,4601.025641,3931.794872,3937.435898
84,4397.948717,4508.205128,4510.769230,4263.589743,4424.102564,4168.205128,4815.384615,4156.923076,4220.000000,4478.461538,4182.564102,4600.512820,3940.000000,3939.487180
85,4392.820512,4500.000000,4508.717948,4259.487179,4424.615384,4168.205128,4803.589743,4150.769230,4210.769230,4482.564102,4175.384615,4596.410256,3947.179488,3941.538462
86,4391.282051,4495.897435,4507.179487,4263.589743,4427.692307,4173.333333,4800.512820,4154.358974,4217.948717,4478.974358,4153.333333,4594.358974,3941.538462,3935.897436
87,4388.717948,4496.410256,4499.487179,4262.051282,4424.615384,4166.666666,4794.871794,4151.282051,4213.846153,4469.230769,4149.230769,4589.230769,3939.487180,3927.179488
88,4382.051282,4496.410256,4496.923076,4259.487179,4415.384615,4157.948717,4783.076923,4137.435897,4201.025641,4465.128205,4171.282051,4583.076923,3934.871795,3925.641026
89,4384.102564,4493.333333,4504.102564,4262.051282,4415.897435,4158.974358,4781.025641,4138.461538,4205.128205,4466.153846,4169.743589,4584.102564,3930.256411,3926.666667
90,4391.794871,4499.487179,4505.641025,4260.512820,4423.076923,4166.666666,4784.102564,4148.717948,4211.282051,4467.692307,4149.743589,4587.692307,3935.897436,3933.846154
91,4393.333333,4510.256410,4502.051282,4258.974358,4425.128205,4169.743589,4748.205128,4148.717948,4207.692307,4469.230769,4157.948717,4587.179487,3936.923077,3938.974359
92,4385.128205,4503.589743,4503.589743,4264.102564,4425.641025,4167.179487,4655.897435,4149.230769,4210.769230,4470.769230,4172.820512,4586.153846,3926.666667,3930.256411
93,4382.051282,4491.282051,4504.615384,4265.128205,4427.692307,4167.692307,4560.512820,4156.923076,4221.025641,4474.871794,4168.205128,4590.256410,3934.358975,3928.717949
94,4391.282051,4491.282051,4506.666666,4259.487179,4424.102564,4169.230769,4505.128205,4157.948717,4218.974358,4475.897435,4167.692307,4596.923076,3955.897436,3941.025642
95,4395.897435,4493.846153,4509.743589,4258.974358,4417.435897,4164.615384,4468.717948,4155.384615,4210.769230,4477.948717,4169.230769,4600.512820,3959.487180,3945.641026
96,4391.282051,4491.282051,4509.743589,4263.076923,4416.923076,4162.051282,4433.846153,4155.384615,4215.897435,4480.000000,4168.717948,4600.000000,3955.897436,3943.076924
97,4386.666666,4488.717948,4508.717948,4262.051282,4417.948717,4166.153846,4408.717948,4152.307692,4227.692307,4475.897435,4177.948717,4596.923076,3961.025642,3943.589744
98,4385.128205,4488.717948,4507.179487,4257.435897,4415.384615,4167.179487,4387.692307,4150.769230,4223.076923,4474.358974,4174.358974,4591.794871,3963.076924,3942.051283
99,4380.512820,4490.256410,4502.051282,4253.846153,4418.461538,4158.974358,4368.205128,4153.846153,4210.256410,4475.384615,4158.461538,4585.128205,3960.000000,3941.025642
100,4375.384615,4489.230769,4497.948717,4247.692307,4420.000000,4152.307692,4351.794871,4148.205128,4208.205128,4469.230769,4157.435897,4583.589743,3954.358975,3940.000000
101,4377.948717,4481.025641,4501.025641,4246.153846,4413.846153,4154.358974,4337.948717,4138.461538,4213.333333,4466.666666,4164.102564,4589.230769,3950.769231,3938.974359
102,4383.076923,4481.538461,4506.153846,4252.820512,4417.948717,4162.564102,4334.358974,4143.076923,4214.358974,4469.230769,4165.641025,4591.282051,3950.256411,3947.179488
103,4383.589743,4490.256410,4506.666666,4254.358974,4425.641025,4166.666666,4332.820512,4153.846153,4215.897435,4472.307692,4169.743589,4587.692307,3948.205129,3957.435898
104,4385.128205,4487.692307,4504.102564,4255.384615,4418.461538,4162.564102,4326.153846,4154.871794,4223.076923,4482.564102,4170.769230,4592.307692,3951.282052,3958.974359
105,4392.307692,4483.076923,4508.205128,4261.025641,4411.794871,4162.564102,4320.512820,4155.384615,4230.256410,4489.230769,4174.871794,4603.076923,3961.538462,3960.512821
106,4392.307692,4492.307692,4508.717948,4258.974358,4415.897435,4165.641025,4317.435897,4152.820512,4228.717948,4480.512820,4185.128205,4600.512820,3963.076924,3962.051283
107,4382.564102,4494.871794,4496.923076,4253.333333,4420.000000,4164.102564,4310.256410,4144.615384,4213.846153,4471.282051,4180.512820,4585.641025,3957.948718,3955.897436
108,4382.564102,4487.692307,4495.897435,4260.000000,4421.538461,4166.666666,4307.692307,4143.589743,4211.282051,4477.435897,4170.256410,4584.102564,3961.538462,3952.820513
109,4391.282051,4494.871794,4504.102564,4265.641025,4425.128205,4169.743589,4311.282051,4147.692307,4221.025641,4480.512820,4171.282051,4590.256410,3963.589744,3955.897436
110,4389.743589,4506.153846,4500.000000,4258.461538,4422.564102,4166.666666,4309.743589,4143.589743,4215.384615,4475.384615,4172.307692,4587.692307,3957.435898,3954.358975
111,4386.666666,4503.076923,4496.410256,4259.487179,4420.000000,4166.666666,4308.717948,4144.102564,4210.256410,4474.871794,4173.846153,4587.692307,3958.974359,3953.846154
112,4394.358974,4503.076923,4506.666666,4269.743589,4425.641025,4171.282051,4312.820512,4152.307692,4216.410256,4475.897435,4174.871794,4595.897435,3962.051283,3962.564103
113,4397.948717,4505.128205,4509.230769,4271.282051,4429.230769,4170.256410,4312.307692,4151.282051,4217.435897,4476.410256,4165.641025,4594.358974,3958.461539,3964.615385
114,4389.230769,4499.487179,4498.974358,4261.025641,4421.538461,4168.717948,4308.205128,4150.769230,4222.564102,4478.974358,4165.128205,4585.128205,3952.820513,3956.410257
115,4385.641025,4495.384615,4494.358974,4253.333333,4417.435897,4167.692307,4309.230769,4153.333333,4233.333333,4482.051282,4181.025641,4586.666666,3950.769231,3952.820513
116,4386.153846,4495.897435,4500.000000,4260.000000,4422.564102,4164.102564,4309.230769,4143.076923,4220.512820,4475.897435,4182.051282,4590.256410,3957.435898,3956.410257
117,4384.615384,4494.871794,4500.512820,4266.666666,4422.564102,4162.564102,4304.615384,4133.333333,4201.025641,4470.769230,4167.179487,4587.179487,3962.564103,3960.000000
118,4386.666666,4501.025641,4499.487179,4264.615384,4415.897435,4166.666666,4308.205128,4142.564102,4205.641025,4475.897435,4163.589743,4586.666666,3950.769231,3960.000000
119,4390.769230,4510.256410,4501.538461,4264.102564,4416.410256,4169.743589,4315.384615,4150.256410,4213.333333,4478.461538,4169.743589,4587.179487,3937.435898,3958.974359
120,4389.230769,4507.692307,4500.000000,4268.205128,4424.102564,4167.692307,4313.846153,4145.128205,4210.769230,4475.897435,4170.769230,4585.128205,3944.615385,3963.589744
121,4385.128205,4504.102564,4498.461538,4258.974358,4423.589743,4166.666666,4313.333333,4147.692307,4213.333333,4474.871794,4167.179487,4589.230769,3957.435898,3967.692308
122,4390.769230,4508.205128,4501.025641,4250.769230,4417.435897,4167.692307,4317.948717,4155.897435,4220.512820,4480.512820,4168.205128,4593.846153,3955.897436,3962.051283
123,4394.871794,4508.205128,4501.025641,4262.564102,4421.538461,4166.666666,4318.461538,4153.846153,4222.051282,4487.692307,4179.487179,4589.230769,3952.307693,3955.897436
124,4387.692307,4500.000000,4500.512820,4263.076923,4425.641025,4164.102564,4320.512820,4149.230769,4219.487179,4487.692307,4186.666666,4589.743589,3958.974359,3959.487180
125,4382.051282,4490.256410,4502.564102,4246.153846,4413.846153,4164.615384,4324.615384,4150.769230,4217.948717,4475.897435,4174.871794,4596.410256,3958.974359,3961.538462
126,4386.666666,4488.717948,4501.538461,4248.717948,4408.717948,4166.666666,4326.666666,4146.666666,4217.948717,4470.256410,4163.589743,4595.384615,3953.333334,3957.435898
127,4394.358974,4501.538461,4503.589743,4265.128205,4423.076923,4167.692307,4332.307692,4143.589743,4215.897435,4482.564102,4171.794871,4595.384615,3961.025642,3962.051283
128,4398.461538,4512.820512,4511.794871,4265.641025,4431.794871,4169.743589,4344.615384,4151.282051,4220.000000,4493.846153,4180.000000,4603.589743,3973.846154,3972.820513
129,4396.410256,4502.051282,4510.256410,4260.000000,4430.256410,4170.256410,4349.743589,4157.435897,4225.641025,4490.769230,4173.846153,4603.076923,3973.846154,3970.256411
130,4394.358974,4495.384615,4507.692307,4264.615384,4428.717948,4168.717948,4350.256410,4152.307692,4221.025641,4487.692307,4174.358974,4598.974358,3969.230770,3962.564103
131,4396.923076,4503.589743,4515.897435,4266.153846,4430.256410,4170.256410,4358.974358,4150.769230,4217.435897,4491.282051,4181.025641,4604.615384,3970.256411,3964.615385
132,4394.358974,4502.051282,4518.461538,4258.974358,4428.205128,4171.794871,4370.256410,4154.358974,4218.974358,4492.307692,4177.948717,4604.615384,3969.743590,3963.076924
133,4390.256410,4496.923076,4510.769230,4250.769230,4425.641025,4171.282051,4373.333333,4152.820512,4217.948717,4492.307692,4168.205128,4598.461538,3971.794872,3962.564103
134,4395.897435,4501.025641,4513.846153,4248.717948,4428.205128,4170.769230,4374.358974,4151.794871,4215.897435,4489.743589,4166.153846,4599.487179,3982.051283,3972.307693
135,4400.000000,4499.487179,4521.025641,4255.384615,4429.743589,4170.256410,4383.589743,4154.358974,4216.410256,4481.538461,4173.846153,4603.589743,3982.051283,3971.794872
136,4393.333333,4486.666666,4514.358974,4255.384615,4428.205128,4169.230769,4391.794871,4151.794871,4210.256410,4481.538461,4182.564102,4602.564102,3972.307693,3956.923077
137,4386.666666,4480.000000,4504.102564,4247.179487,4424.102564,4167.692307,4388.717948,4145.641025,4205.128205,4482.564102,4173.333333,4597.948717,3971.794872,3954.871795
138,4388.717948,4483.589743,4507.179487,4251.794871,4417.435897,4165.641025,4389.230769,4148.717948,4212.307692,4474.358974,4153.846153,4596.410256,3981.538462,3963.076924
139,4396.410256,4491.794871,4517.948717,4262.564102,4418.461538,4167.692307,4403.589743,4152.820512,4220.000000,4478.461538,4157.948717,4603.076923,3989.230770,3964.102565
140,4398.974358,4500.000000,4519.487179,4258.974358,4429.230769,4171.282051,4411.282051,4147.179487,4216.410256,4493.846153,4178.461538,4608.717948,3993.333334,3963.589744
141,4398.974358,4500.000000,4515.384615,4255.897435,4433.333333,4169.743589,4411.282051,4146.153846,4214.358974,4487.179487,4188.205128,4605.128205,3988.717949,3967.692308
142,4403.589743,4495.897435,4516.923076,4268.717948,4426.153846,4170.256410,4417.948717,4154.871794,4222.051282,4472.820512,4183.076923,4603.076923,3982.564103,3973.846154
143,4402.051282,4489.743589,4514.871794,4262.051282,4420.512820,4166.153846,4420.512820,4152.820512,4218.974358,4484.615384,4173.333333,4603.589743,3985.641026,3972.820513
144,4394.871794,4486.153846,4507.179487,4242.564102,4414.871794,4155.897435,4420.000000,4148.717948,4209.230769,4489.743589,4166.666666,4601.538461,3984.102565,3967.179488
145,4400.000000,4490.769230,4510.256410,4249.230769,4412.820512,4158.461538,4432.820512,4154.871794,4217.948717,4483.076923,4173.846153,4603.076923,3974.358975,3968.717949
146,4405.128205,4502.051282,4520.000000,4258.461538,4421.538461,4168.205128,4445.128205,4154.358974,4231.282051,4493.846153,4186.666666,4605.128205,3977.435898,3973.333334
147,4399.487179,4501.538461,4519.487179,4253.846153,4429.743589,4170.256410,4449.743589,4156.923076,4234.358974,4504.102564,4182.564102,4606.153846,3990.256411,3974.358975
148,4394.358974,4490.256410,4513.333333,4254.871794,4429.230769,4168.717948,4455.897435,4167.692307,4230.256410,4492.307692,4170.769230,4606.666666,3989.230770,3971.794872
149,4398.461538,4493.846153,4509.743589,4264.102564,4427.692307,4168.717948,4463.589743,4163.076923,4224.615384,4485.128205,4175.384615,4606.153846,3981.025642,3969.743590
150,4408.717948,4512.307692,4517.435897,4270.769230,4434.871794,4175.384615,4470.769230,4155.384615,4224.102564,4492.820512,4197.948717,4610.256410,3990.256411,3974.871795
151,4415.384615,4517.435897,4528.717948,4274.871794,4443.076923,4183.589743,4479.487179,4165.641025,4232.307692,4493.333333,4203.589743,4620.512820,4000.000000,3977.948718
152,4414.358974,4508.717948,4526.153846,4270.256410,4441.538461,4176.923076,4478.461538,4172.307692,4235.384615,4489.743589,4186.666666,4621.025641,3992.820513,3973.846154
153,4413.333333,4507.692307,4523.076923,4262.051282,4434.871794,4169.743589,4477.435897,4168.205128,4231.282051,4494.358974,4188.717948,4615.384615,3991.282052,3978.974359
154,4414.358974,4508.205128,4527.692307,4264.102564,4432.307692,4174.871794,4489.230769,4167.692307,4230.256410,4501.538461,4202.564102,4618.461538,3996.410257,3986.666667
155,4408.717948,4500.000000,4524.102564,4265.641025,4430.256410,4173.333333,4492.820512,4163.589743,4226.153846,4498.974358,4193.846153,4619.487179,3991.282052,3978.974359
156,4397.948717,4490.769230,4512.307692,4258.461538,4428.205128,4164.615384,4482.051282,4153.333333,4214.871794,4482.051282,4178.461538,4609.230769,3981.538462,3971.282052
157,4395.384615,4491.794871,4511.282051,4252.307692,4427.692307,4166.153846,4480.512820,4150.769230,4211.282051,4474.871794,4181.025641,4601.538461,3976.410257,3972.820513
158,4399.487179,4494.358974,4513.846153,4248.717948,4425.641025,4168.205128,4490.256410,4154.358974,4222.564102,4478.974358,4175.384615,4605.128205,3975.384616,3970.256411
159,4396.410256,4489.743589,4509.743589,4248.205128,4424.615384,4166.666666,4492.307692,4156.410256,4225.641025,4475.384615,4160.512820,4606.153846,3974.871795,3966.153847
160,4391.794871,4490.256410,4509.743589,4250.256410,4428.205128,4167.692307,4488.717948,4155.384615,4215.384615,4476.410256,4171.794871,4600.000000,3973.846154,3970.256411
161,4395.897435,4496.923076,4513.846153,4249.743589,4427.692307,4167.692307,4491.794871,4156.410256,4218.461538,4486.666666,4189.743589,4601.025641,3977.435898,3975.384616
162,4401.538461,4497.948717,4509.743589,4249.743589,4426.666666,4168.205128,4495.384615,4157.948717,4227.179487,4487.179487,4180.000000,4604.615384,3983.076924,3977.435898
163,4402.564102,4492.307692,4506.666666,4249.230769,4428.205128,4168.717948,4490.769230,4155.384615,4217.435897,4484.102564,4169.743589,4600.000000,3978.461539,3974.358975
164,4402.564102,4488.717948,4508.205128,4246.153846,4425.128205,4167.692307,4490.769230,4150.769230,4210.256410,4488.205128,4178.461538,4597.948717,3973.846154,3971.282052
165,4395.384615,4488.205128,4504.102564,4242.051282,4421.538461,4167.179487,4499.487179,4148.717948,4215.897435,4482.564102,4182.564102,4598.461538,3976.923077,3971.794872
166,4392.307692,4488.717948,4502.564102,4247.179487,4423.589743,4169.230769,4504.615384,4150.769230,4214.871794,4473.333333,4177.948717,4596.923076,3974.871795,3972.820513
167,4404.102564,4490.256410,4506.666666,4257.948717,4426.153846,4169.230769,4503.589743,4152.307692,4213.846153,4475.897435,4177.435897,4600.000000,3969.743590,3971.282052
168,4407.179487,4495.384615,4507.692307,4257.948717,4428.205128,4172.820512,4508.205128,4158.461538,4219.487179,4481.538461,4178.974358,4605.128205,3975.897436,3975.897436
169,4396.410256,4496.923076,4507.692307,4249.743589,4429.743589,4175.384615,4511.282051,4163.589743,4216.923076,4480.512820,4176.923076,4603.076923,3982.564103,3981.025642
170,4395.897435,4494.871794,4508.205128,4245.128205,4425.641025,4169.743589,4506.153846,4160.000000,4211.794871,4479.487179,4177.435897,4601.025641,3978.461539,3976.410257
171,4403.076923,4501.025641,4507.179487,4251.282051,4423.589743,4172.307692,4509.743589,4161.538461,4221.538461,4486.666666,4183.076923,4608.205128,3978.461539,3975.897436
172,4401.538461,4504.615384,4512.820512,4260.512820,4428.205128,4177.435897,4521.538461,4172.307692,4229.230769,4490.256410,4189.230769,4612.820512,3985.641026,3980.512821
173,4396.410256,4495.897435,4517.435897,4265.128205,4430.256410,4178.461538,4523.589743,4172.307692,4226.153846,4484.102564,4187.179487,4607.179487,3988.205129,3976.410257
174,4397.435897,4497.435897,4512.820512,4260.000000,4429.743589,4180.512820,4520.512820,4167.179487,4229.230769,4485.641025,4180.000000,4602.564102,3982.564103,3973.846154
175,4398.974358,4506.666666,4512.820512,4252.307692,4431.282051,4178.974358,4521.538461,4169.743589,4232.307692,4484.615384,4185.128205,4602.564102,3978.974359,3981.025642
176,4397.948717,4502.564102,4516.923076,4255.897435,4428.717948,4175.897435,4522.051282,4171.282051,4226.666666,4477.435897,4191.794871,4602.564102,3977.948718,3984.615385
177,4396.923076,4496.410256,4516.923076,4257.948717,4424.615384,4176.923076,4522.051282,4170.256410,4225.641025,4481.025641,4186.153846,4602.051282,3975.897436,3980.512821
178,4398.974358,4501.538461,4516.923076,4250.256410,4429.230769,4181.025641,4524.102564,4171.794871,4228.205128,4485.641025,4176.410256,4603.589743,3975.897436,3977.435898
179,4396.923076,4501.025641,4516.923076,4250.256410,4432.820512,4180.512820,4522.051282,4168.717948,4223.076923,4482.051282,4180.000000,4602.564102,3977.948718,3978.461539
180,4398.461538,4502.564102,4517.948717,4261.538461,4430.256410,4181.538461,4523.589743,4167.179487,4225.641025,4488.717948,4195.897435,4607.179487,3984.615385,3985.128206
181,4412.820512,4512.820512,4524.615384,4268.717948,4436.923076,4186.666666,4532.820512,4178.974358,4241.025641,4503.589743,4203.589743,4618.974358,3996.410257,3991.794872
182,4413.846153,4509.230769,4526.666666,4261.025641,4440.512820,4183.589743,4536.410256,4182.564102,4240.000000,4502.051282,4196.410256,4620.000000,3996.410257,3991.282052
183,4396.923076,4492.820512,4519.487179,4246.666666,4426.666666,4174.358974,4534.871794,4172.820512,4229.743589,4490.769230,4185.128205,4611.794871,3981.025642,3987.692308
184,4397.948717,4490.769230,4519.487179,4246.153846,4420.512820,4174.871794,4536.410256,4173.846153,4234.358974,4492.820512,4187.692307,4614.871794,3979.487180,3985.641026
185,4411.794871,4502.564102,4522.051282,4261.538461,4428.717948,4181.538461,4538.974358,4178.974358,4240.512820,4500.000000,4194.358974,4619.487179,3990.769231,3984.615385
186,4410.256410,4505.128205,4520.000000,4266.666666,4431.282051,4177.435897,4536.410256,4169.743589,4234.358974,4493.333333,4191.282051,4613.846153,3987.179488,3985.641026
187,4407.179487,4503.076923,4520.512820,4263.589743,4428.717948,4177.948717,4535.384615,4166.153846,4237.948717,4491.794871,4194.358974,4612.307692,3985.128206,3989.230770
188,4413.846153,4512.307692,4524.615384,4266.153846,4432.307692,4187.692307,4538.461538,4179.487179,4246.153846,4508.717948,4209.230769,4618.974358,3995.897436,3991.282052
189,4413.846153,4513.333333,4524.615384,4265.128205,4435.897435,4187.692307,4539.487179,4185.128205,4236.923076,4516.410256,4206.153846,4616.923076,3994.358975,3988.205129
190,4411.794871,4508.717948,4523.076923,4262.564102,4436.410256,4184.102564,4540.000000,4181.025641,4229.230769,4511.794871,4192.820512,4611.794871,3983.076924,3990.769231
191,4413.846153,4511.282051,4521.025641,4266.666666,4440.512820,4187.179487,4541.538461,4175.897435,4234.358974,4509.230769,4196.923076,4611.282051,3979.487180,3995.897436
192,4407.179487,4509.230769,4515.897435,4263.076923,4437.948717,4186.666666,4538.974358,4168.717948,4233.846153,4502.051282,4185.641025,4606.153846,3976.923077,3988.717949
193,4401.538461,4503.076923,4517.948717,4258.461538,4428.205128,4180.512820,4540.000000,4169.230769,4225.641025,4495.384615,4168.205128,4605.128205,3975.384616,3981.538462
194,4403.589743,4505.641025,4521.025641,4260.000000,4425.128205,4174.871794,4539.487179,4169.230769,4221.025641,4492.307692,4176.923076,4607.692307,3970.256411,3982.564103
195,4396.923076,4502.051282,4510.769230,4254.871794,4422.564102,4167.179487,4526.153846,4154.871794,4217.435897,4484.615384,4182.564102,4601.538461,3950.769231,3977.435898
196,4394.358974,4495.897435,4504.102564,4255.384615,4418.974358,4168.205128,4525.128205,4151.794871,4214.871794,4490.769230,4172.820512,4594.871794,3936.923077,3970.769231
197,4404.615384,4504.102564,4509.230769,4265.641025,4424.615384,4178.974358,4536.923076,4166.153846,4215.384615,4502.051282,4178.461538,4599.487179,3947.179488,3973.846154
198,4406.153846,4510.256410,4514.358974,4269.230769,4430.769230,4176.923076,4529.230769,4161.538461,4217.435897,4496.410256,4189.230769,4606.666666,3954.358975,3976.923077
199,4403.076923,4505.641025,4517.948717,4265.641025,4424.615384,4168.717948,4518.461538,4151.282051,4215.897435,4493.846153,4184.615384,4603.076923,3942.051283,3980.512821
200,4410.769230,4506.153846,4523.076923,4266.153846,4423.589743,4176.923076,4531.794871,4164.102564,4215.384615,4499.487179,4176.410256,4603.589743,3941.025642,3987.179488
201,4418.461538,4512.820512,4526.153846,4266.153846,4432.820512,4190.256410,4544.102564,4177.435897,4226.153846,4501.538461,4177.435897,4612.307692,3954.358975,3986.666667
202,4414.358974,4511.794871,4523.589743,4263.589743,4429.743589,4184.615384,4538.461538,4168.205128,4225.128205,4501.025641,4183.076923,4607.692307,3946.666667,3975.897436
203,4403.076923,4502.564102,4511.282051,4265.128205,4420.512820,4171.282051,4533.846153,4153.333333,4206.666666,4496.410256,4181.025641,4591.282051,3928.717949,3966.666667
204,4399.487179,4496.923076,4503.076923,4265.128205,4423.589743,4172.820512,4534.871794,4150.769230,4205.128205,4494.358974,4165.641025,4592.820512,3934.871795,3966.666667
205,4410.769230,4506.666666,4514.871794,4264.615384,4432.307692,4182.051282,4537.435897,4155.897435,4222.051282,4506.666666,4167.692307,4603.589743,3948.717949,3972.307693
206,4416.923076,4514.871794,4521.538461,4266.153846,4427.692307,4185.128205,4538.461538,4156.923076,4224.615384,4512.307692,4184.615384,4601.538461,3945.641026,3974.871795
207,4405.128205,4508.205128,4509.743589,4262.564102,4419.487179,4178.461538,4535.897435,4158.461538,4215.897435,4503.076923,4185.128205,4597.435897,3941.538462,3968.717949
208,4403.589743,4503.076923,4507.692307,4260.512820,4424.615384,4172.307692,4535.384615,4167.692307,4216.923076,4503.589743,4180.512820,4601.538461,3949.743590,3965.641026
209,4413.846153,4509.230769,4515.384615,4267.692307,4430.769230,4174.871794,4535.897435,4170.769230,4224.102564,4508.717948,4185.641025,4604.102564,3957.948718,3975.384616
210,4416.923076,4516.410256,4518.461538,4266.153846,4428.205128,4181.025641,4534.358974,4170.256410,4230.769230,4509.230769,4192.820512,4604.102564,3958.461539,3983.076924
211,4416.410256,4516.410256,4518.461538,4253.333333,4427.179487,4185.641025,4537.435897,4171.794871,4233.846153,4507.692307,4191.282051,4606.666666,3952.307693,3980.512821
212,4413.333333,4512.820512,4516.923076,4255.384615,4430.769230,4183.076923,4537.948717,4164.615384,4226.666666,4501.025641,4186.666666,4603.589743,3936.923077,3971.794872
213,4400.512820,4503.076923,4506.153846,4258.461538,4424.615384,4175.384615,4528.205128,4144.615384,4208.717948,4487.179487,4178.461538,4587.692307,3918.461539,3957.435898
214,4390.769230,4495.384615,4499.487179,4250.256410,4416.410256,4168.717948,4527.692307,4137.948717,4199.487179,4475.897435,4158.974358,4582.051282,3909.743590,3951.794872
215,4396.410256,4502.051282,4505.641025,4251.794871,4418.461538,4170.256410,4538.461538,4148.717948,4206.153846,4481.025641,4148.717948,4591.282051,3915.384616,3957.948718
216,4398.974358,4503.589743,4506.153846,4253.846153,4420.512820,4170.769230,4536.410256,4152.820512,4207.692307,4491.282051,4165.128205,4591.282051,3918.974359,3953.333334
217,4395.897435,4492.820512,4500.512820,4245.641025,4414.358974,4164.615384,4531.282051,4150.256410,4208.717948,4489.743589,4184.102564,4585.128205,3912.307693,3948.717949
218,4395.384615,4489.743589,4499.487179,4246.666666,4413.333333,4165.641025,4538.974358,4148.717948,4214.358974,4487.692307,4175.384615,4588.717948,3908.717949,3955.897436
219,4395.384615,4493.846153,4497.948717,4250.769230,4415.897435,4168.205128,4542.564102,4147.179487,4214.358974,4491.794871,4165.641025,4589.743589,3909.743590,3950.769231
220,4395.897435,4496.410256,4492.820512,4243.076923,4412.307692,4166.153846,4538.974358,4143.589743,4209.743589,4488.717948,4172.307692,4584.102564,3909.230770,3938.974359
221,4401.025641,4504.102564,4495.897435,4241.025641,4412.820512,4166.153846,4540.512820,4146.153846,4213.846153,4489.230769,4177.435897,4587.179487,3913.333334,3945.128206
222,4407.179487,4508.205128,4503.076923,4253.846153,4422.051282,4169.230769,4541.025641,4153.846153,4224.615384,4504.615384,4179.487179,4596.410256,3921.538462,3953.846154
223,4407.179487,4503.076923,4503.076923,4261.025641,4420.000000,4168.717948,4538.461538,4152.307692,4224.102564,4506.666666,4183.589743,4601.025641,3926.666667,3953.846154
224,4404.615384,4506.153846,4503.589743,4254.871794,4410.256410,4166.153846,4537.435897,4146.666666,4213.846153,4493.846153,4183.589743,4599.487179,3930.256411,3957.435898
225,4406.153846,4513.846153,4506.666666,4254.871794,4416.410256,4167.692307,4542.564102,4148.717948,4209.743589,4493.846153,4180.512820,4598.461538,3924.102565,3955.897436
226,4404.615384,4510.256410,4505.641025,4262.051282,4426.153846,4170.256410,4550.256410,4154.358974,4216.410256,4497.948717,4180.000000,4599.487179,3910.769231,3944.102565
227,4400.512820,4506.666666,4503.589743,4260.512820,4420.000000,4174.871794,4552.820512,4152.307692,4221.025641,4492.307692,4185.641025,4597.435897,3912.820513,3944.615385
228,4408.205128,4516.923076,4511.794871,4258.974358,4418.974358,4182.051282,4552.307692,4152.820512,4227.179487,4500.000000,4194.871794,4600.512820,3925.641026,3961.538462
229,4418.974358,4526.666666,4521.538461,4265.128205,4431.282051,4186.666666,4555.897435,4157.948717,4230.256410,4511.794871,4194.358974,4612.820512,3931.282052,3971.794872
230,4416.410256,4521.538461,4518.974358,4266.153846,4431.282051,4183.076923,4551.282051,4152.820512,4219.487179,4507.179487,4193.333333,4615.384615,3930.256411,3967.692308
231,4411.282051,4518.461538,4514.358974,4268.205128,4417.435897,4174.871794,4541.025641,4147.692307,4213.333333,4502.051282,4198.974358,4607.692307,3923.589744,3965.641026
232,4413.846153,4526.153846,4517.435897,4277.948717,4417.435897,4176.410256,4542.564102,4152.307692,4217.948717,4507.692307,4194.871794,4606.666666,3912.307693,3963.589744
233,4410.769230,4520.512820,4515.897435,4272.820512,4425.128205,4181.025641,4546.153846,4153.846153,4218.974358,4504.615384,4183.589743,4606.666666,3909.743590,3959.487180
234,4401.538461,4506.666666,4506.153846,4255.897435,4417.948717,4174.871794,4541.538461,4144.102564,4215.384615,4492.820512,4182.564102,4600.512820,3910.256411,3957.435898
235,4401.538461,4511.282051,4505.128205,4253.846153,4411.282051,4172.307692,4544.615384,4140.512820,4217.435897,4490.256410,4186.666666,4597.948717,3901.025642,3957.948718
236,4409.230769,4516.410256,4515.897435,4262.564102,4423.076923,4182.051282,4553.846153,4148.717948,4222.564102,4500.000000,4187.179487,4604.102564,3904.615385,3965.128206
237,4412.820512,4513.333333,4524.102564,4263.076923,4432.307692,4187.692307,4556.410256,4151.282051,4227.692307,4509.230769,4185.128205,4613.333333,3927.179488,3975.897436
238,4412.307692,4514.358974,4523.589743,4260.000000,4427.692307,4183.076923,4556.410256,4150.256410,4230.256410,4507.179487,4182.051282,4614.871794,3934.871795,3978.461539
239,4411.282051,4514.358974,4521.538461,4260.512820,4427.692307,4183.076923,4556.923076,4153.333333,4226.153846,4497.948717,4186.666666,4612.307692,3924.615385,3975.384616
240,4410.256410,4506.153846,4518.974358,4261.538461,4431.282051,4182.564102,4555.384615,4152.307692,4217.948717,4494.358974,4189.230769,4613.846153,3925.128206,3975.384616
241,4409.743589,4505.128205,4518.974358,4261.538461,4431.282051,4182.051282,4554.871794,4149.743589,4214.358974,4501.025641,4185.128205,4609.743589,3930.769231,3976.410257
242,4406.153846,4511.282051,4514.358974,4260.512820,4436.923076,4185.128205,4554.358974,4152.820512,4221.538461,4508.717948,4183.076923,4603.076923,3928.205129,3976.923077
243,4403.076923,4507.692307,4509.743589,4260.000000,4443.076923,4183.589743,4552.820512,4154.358974,4227.179487,4505.128205,4185.641025,4605.641025,3929.230770,3980.000000
244,4409.230769,4506.666666,4515.384615,4258.461538,4436.410256,4178.461538,4552.820512,4153.333333,4224.615384,4497.435897,4185.641025,4612.820512,3938.974359,3986.666667
245,4409.743589,4508.717948,4520.512820,4256.410256,4432.820512,4176.923076,4552.820512,4160.512820,4224.615384,4498.461538,4176.923076,4612.820512,3945.641026,3989.743590
246,4397.435897,4508.205128,4513.333333,4257.435897,4437.435897,4175.384615,4551.282051,4163.589743,4223.076923,4500.512820,4168.205128,4608.205128,3943.076924,3981.538462
247,4395.897435,4505.128205,4512.307692,4253.333333,4432.307692,4171.282051,4547.179487,4155.897435,4217.948717,4495.384615,4175.897435,4607.179487,3947.179488,3975.384616
248,4408.205128,4504.102564,4523.076923,4250.769230,4429.230769,4175.384615,4546.666666,4152.820512,4218.974358,4489.743589,4185.128205,4613.333333,3969.230770,3982.564103
249,4413.333333,4508.205128,4525.128205,4260.000000,4437.948717,4182.564102,4553.333333,4157.435897,4225.641025,4492.307692,4183.589743,4620.512820,3986.153847,3990.769231
250,4405.128205,4508.717948,4515.384615,4258.461538,4437.948717,4177.948717,4553.333333,4155.384615,4220.512820,4501.538461,4185.128205,4613.846153,3979.487180,3987.692308
251,4399.487179,4504.615384,4510.256410,4245.128205,4426.153846,4170.769230,4545.641025,4147.179487,4209.743589,4501.025641,4185.128205,4602.564102,3963.589744,3982.564103
252,4405.641025,4502.051282,4515.384615,4251.282051,4428.205128,4177.948717,4548.717948,4148.717948,4212.307692,4492.820512,4178.974358,4607.179487,3956.923077,3983.076924
253,4412.820512,4507.692307,4524.615384,4266.153846,4440.000000,4186.666666,4557.435897,4158.974358,4225.128205,4495.897435,4182.051282,4621.025641,3961.538462,3990.256411
254,4413.846153,4515.384615,4524.615384,4267.692307,4441.025641,4187.692307,4558.461538,4162.564102,4231.282051,4504.615384,4189.230769,4624.102564,3965.641026,3998.461539
255,4413.333333,4518.974358,4522.051282,4261.538461,4440.000000,4184.615384,4551.794871,4158.461538,4224.615384,4501.025641,4186.666666,4616.923076,3953.846154,3995.384616
