,AF3,F7,F3,FC5,T7,P7,O1,O2,P8,T8,FC6,F4,F8,AF4
0,4393.846153,4551.282051,4509.230769,4203.076923,4501.025641,4178.461538,4444.615384,4223.589743,4232.820512,4518.461538,4202.051282,4648.205128,3990.769231,4037.948717
1,4392.307692,4547.692307,4504.615384,4197.948717,4503.076923,4181.538461,4445.641025,4226.666666,4233.846153,4515.897435,4200.512820,4644.615384,3981.025642,4052.820512
2,4383.589743,4542.564102,4503.076923,4192.307692,4501.538461,4180.512820,4444.615384,4218.974358,4240.512820,4508.717948,4196.923076,4635.897435,3975.897436,4053.846153
3,4377.948717,4544.615384,4501.538461,4196.923076,4501.025641,4177.435897,4444.102564,4212.307692,4240.000000,4501.538461,4190.256410,4634.358974,3979.487180,4035.897435
4,4379.487179,4545.641025,4505.128205,4203.589743,4499.487179,4176.923076,4445.128205,4217.948717,4237.948717,4496.923076,4191.282051,4638.461538,3980.000000,4032.820512
5,4382.051282,4544.102564,4505.128205,4200.512820,4500.000000,4177.435897,4446.153846,4221.025641,4232.307692,4501.538461,4196.410256,4640.512820,3973.333334,4041.025641
6,4382.564102,4543.589743,4501.538461,4196.410256,4502.051282,4176.923076,4442.564102,4217.435897,4227.179487,4508.717948,4188.717948,4639.487179,3972.307693,4042.564102
7,4386.666666,4544.102564,4506.153846,4200.512820,4503.076923,4179.487179,4448.717948,4222.564102,4234.871794,4509.743589,4188.205128,4642.051282,3978.974359,4046.666666
8,4392.307692,4546.153846,4513.333333,4202.564102,4506.666666,4183.589743,4460.000000,4228.717948,4243.589743,4512.307692,4203.589743,4646.153846,3981.538462,4045.641025
9,4389.743589,4544.102564,4509.230769,4195.897435,4509.743589,4182.051282,4453.846153,4223.076923,4237.948717,4515.384615,4205.128205,4642.564102,3974.358975,4035.897435
10,4383.589743,4536.923076,4505.641025,4193.846153,4505.641025,4178.461538,4449.743589,4220.512820,4236.410256,4511.282051,4197.435897,4639.487179,3963.589744,4036.410256
11,4382.051282,4534.871794,4512.307692,4196.410256,4501.538461,4181.538461,4453.846153,4223.589743,4242.564102,4507.692307,4193.333333,4639.487179,3960.000000,4044.615384
12,4386.153846,4536.923076,4518.974358,4196.410256,4504.102564,4184.102564,4450.256410,4220.512820,4238.974358,4513.333333,4189.743589,4639.487179,3968.205129,4045.128205
13,4392.307692,4537.435897,4520.512820,4200.000000,4506.666666,4181.538461,4449.230769,4219.487179,4235.384615,4519.487179,4193.846153,4641.538461,3971.282052,4043.589743
14,4390.769230,4540.512820,4525.128205,4202.564102,4509.230769,4183.076923,4453.846153,4227.179487,4241.538461,4517.435897,4197.948717,4643.589743,3963.076924,4044.615384
15,4380.512820,4540.512820,4524.615384,4192.820512,4507.179487,4184.102564,4448.717948,4224.615384,4244.102564,4509.230769,4177.948717,4633.846153,3954.871795,4040.512820
16,4373.333333,4531.794871,4519.487179,4182.051282,4501.025641,4179.487179,4440.512820,4214.871794,4232.820512,4504.102564,4168.205128,4626.153846,3951.282052,4038.974358
17,4378.461538,4531.282051,4525.641025,4190.769230,4503.076923,4180.000000,4447.179487,4220.000000,4232.307692,4510.256410,4198.974358,4637.435897,3959.487180,4046.666666
18,4391.282051,4539.487179,4539.487179,4207.692307,4511.282051,4187.179487,4457.435897,4232.307692,4254.358974,4520.000000,4218.974358,4648.205128,3967.692308,4055.384615
19,4393.846153,4541.538461,4538.974358,4210.769230,4510.769230,4190.256410,4453.333333,4229.743589,4259.487179,4518.461538,4202.564102,4643.589743,3962.564103,4057.435897
20,4388.717948,4543.076923,4532.307692,4202.051282,4506.153846,4186.666666,4446.666666,4217.435897,4240.000000,4512.307692,4190.769230,4635.897435,3960.000000,4056.923076
21,4387.692307,4549.743589,4531.794871,4198.974358,4509.230769,4183.589743,4448.205128,4213.333333,4230.769230,4513.846153,4197.435897,4636.923076,3969.230770,4054.871794
22,4384.615384,4546.666666,4531.282051,4204.615384,4511.282051,4183.076923,4448.717948,4217.435897,4238.461538,4516.410256,4197.948717,4637.948717,3968.717949,4045.641025
23,4382.564102,4536.923076,4532.307692,4206.666666,4506.666666,4183.589743,4444.102564,4222.051282,4243.589743,4514.358974,4187.692307,4635.384615,3957.948718,4045.641025
24,4390.256410,4539.487179,4535.384615,4205.641025,4504.102564,4180.512820,4446.153846,4223.589743,4245.128205,4513.333333,4184.615384,4636.923076,3958.461539,4055.897435
25,4393.333333,4543.589743,4532.820512,4203.589743,4505.641025,4178.461538,4446.666666,4218.461538,4242.564102,4510.256410,4193.846153,4637.435897,3967.179488,4054.358974
26,4383.076923,4536.410256,4526.153846,4199.487179,4502.564102,4177.948717,4441.025641,4212.820512,4237.948717,4502.051282,4196.923076,4632.820512,3965.128206,4042.051282
27,4380.512820,4533.333333,4526.666666,4200.000000,4496.410256,4175.384615,4442.564102,4206.666666,4240.000000,4504.102564,4188.717948,4633.333333,3962.051283,4045.641025
28,4388.717948,4534.871794,4532.820512,4205.641025,4497.948717,4174.871794,4445.641025,4204.102564,4236.923076,4511.794871,4188.717948,4639.487179,3967.179488,4056.410256
29,4390.769230,4537.435897,4533.846153,4206.666666,4502.564102,4177.948717,4443.076923,4214.871794,4233.333333,4514.871794,4199.487179,4640.512820,3969.230770,4055.897435
30,4388.717948,4540.512820,4533.846153,4205.641025,4505.641025,4182.051282,4444.615384,4221.025641,4240.512820,4509.743589,4201.538461,4638.461538,3967.179488,4054.871794
31,4386.666666,4541.025641,4532.307692,4207.692307,4505.128205,4179.487179,4446.666666,4215.897435,4241.025641,4503.076923,4189.743589,4638.974358,3966.666667,4050.256410
32,4384.102564,4538.974358,4527.179487,4206.666666,4497.435897,4172.307692,4438.974358,4215.897435,4236.410256,4508.717948,4188.205128,4636.923076,3967.179488,4043.589743
33,4385.128205,4535.384615,4527.179487,4199.487179,4494.358974,4171.282051,4432.820512,4217.435897,4238.461538,4511.794871,4206.666666,4638.461538,3967.179488,4049.743589
34,4390.256410,4537.948717,4532.307692,4195.897435,4500.000000,4175.897435,4440.000000,4211.794871,4240.512820,4501.025641,4212.307692,4643.076923,3967.179488,4058.974358
35,4386.153846,4542.051282,4529.743589,4204.102564,4503.076923,4176.923076,4443.076923,4212.820512,4237.435897,4499.487179,4195.384615,4641.025641,3964.615385,4050.769230
36,4381.538461,4538.974358,4527.692307,4213.846153,4502.564102,4177.948717,4441.538461,4220.512820,4235.897435,4511.282051,4194.871794,4636.410256,3966.666667,4043.076923
37,4390.769230,4537.435897,4536.410256,4217.948717,4510.256410,4187.179487,4445.128205,4223.076923,4238.461538,4515.897435,4216.923076,4642.051282,3975.897436,4056.923076
38,4397.435897,4546.666666,4538.461538,4222.564102,4508.717948,4188.717948,4449.230769,4223.589743,4236.923076,4512.820512,4222.564102,4649.230769,3978.974359,4071.282051
39,4394.358974,4549.743589,4536.410256,4226.153846,4502.051282,4182.051282,4447.179487,4222.564102,4242.051282,4513.333333,4214.871794,4650.256410,3978.974359,4070.256410
40,4394.358974,4546.153846,4541.025641,4225.641025,4508.717948,4183.076923,4448.717948,4226.153846,4256.923076,4523.076923,4209.743589,4650.256410,3982.564103,4063.076923
41,4395.897435,4549.743589,4541.538461,4223.589743,4510.769230,4183.076923,4455.384615,4230.256410,4254.871794,4524.102564,4198.461538,4647.692307,3984.102565,4060.512820
42,4392.307692,4545.641025,4533.333333,4216.410256,4500.000000,4175.384615,4452.307692,4224.615384,4236.923076,4504.615384,4197.948717,4641.538461,3973.846154,4058.974358
43,4389.743589,4538.974358,4529.743589,4210.769230,4494.871794,4172.820512,4445.641025,4221.025641,4233.846153,4496.410256,4202.564102,4640.000000,3963.589744,4057.948717
44,4392.307692,4543.589743,4532.820512,4216.410256,4503.589743,4180.000000,4451.282051,4226.666666,4243.589743,4513.846153,4196.923076,4643.076923,3971.282052,4056.410256
45,4397.948717,4549.230769,4537.435897,4223.589743,4510.769230,4184.615384,4461.025641,4233.333333,4245.641025,4520.512820,4202.051282,4648.717948,3980.512821,4053.846153
46,4393.333333,4545.128205,4536.410256,4218.461538,4507.692307,4182.564102,4460.512820,4230.769230,4240.512820,4506.666666,4210.769230,4647.692307,3974.871795,4050.256410
47,4382.564102,4536.923076,4528.205128,4208.717948,4497.948717,4175.384615,4449.743589,4224.102564,4238.461538,4501.025641,4198.974358,4638.974358,3965.128206,4047.692307
48,4387.692307,4535.384615,4526.153846,4211.282051,4497.948717,4173.846153,4447.179487,4222.051282,4240.512820,4503.589743,4191.794871,4638.974358,3964.102565,4053.846153
49,4392.820512,4534.358974,4528.717948,4217.948717,4501.538461,4175.384615,4450.769230,4224.102564,4238.461538,4501.025641,4197.948717,4645.128205,3965.641026,4055.384615
50,4383.589743,4531.282051,4524.102564,4218.461538,4495.897435,4172.307692,4448.205128,4221.538461,4228.205128,4496.923076,4198.974358,4640.512820,3966.666667,4048.205128
51,4378.974358,4532.307692,4523.589743,4215.384615,4494.358974,4170.256410,4448.717948,4213.333333,4225.128205,4494.358974,4201.025641,4634.871794,3964.102565,4048.717948
52,4383.589743,4537.435897,4529.743589,4215.384615,4500.000000,4172.820512,4454.358974,4210.769230,4231.282051,4496.410256,4201.538461,4639.487179,3961.025642,4054.871794
53,4386.153846,4542.564102,4531.794871,4222.564102,4503.076923,4176.923076,4453.846153,4214.871794,4233.846153,4500.000000,4192.820512,4643.076923,3964.615385,4052.307692
54,4387.692307,4545.128205,4529.743589,4225.641025,4504.102564,4178.974358,4451.794871,4221.025641,4236.923076,4502.564102,4191.282051,4643.076923,3970.256411,4049.743589
55,4392.307692,4545.641025,4536.923076,4219.487179,4506.153846,4182.051282,4456.410256,4222.564102,4241.538461,4507.179487,4201.025641,4647.179487,3978.974359,4059.487179
56,4396.410256,4549.230769,4540.512820,4222.564102,4508.205128,4185.128205,4462.051282,4224.615384,4242.564102,4517.435897,4210.769230,4654.358974,3988.205129,4067.692307
57,4399.487179,4550.256410,4533.846153,4228.717948,4507.179487,4184.102564,4457.948717,4223.076923,4241.025641,4521.538461,4212.307692,4652.820512,3980.000000,4059.487179
58,4390.256410,4543.589743,4525.641025,4221.025641,4501.025641,4178.974358,4447.692307,4213.333333,4231.282051,4502.564102,4191.282051,4638.461538,3964.102565,4044.102564
59,4375.384615,4542.564102,4519.487179,4216.410256,4498.461538,4175.897435,4446.666666,4210.256410,4226.666666,4484.102564,4174.871794,4632.820512,3966.666667,4036.923076
60,4380.512820,4545.128205,4522.564102,4225.641025,4505.641025,4180.512820,4458.461538,4220.512820,4245.641025,4500.000000,4192.307692,4642.051282,3977.435898,4044.615384
61,4393.333333,4540.512820,4531.282051,4227.692307,4510.769230,4184.615384,4466.153846,4230.256410,4258.974358,4518.461538,4208.205128,4644.615384,3971.282052,4054.871794
62,4390.256410,4542.051282,4531.794871,4219.487179,4509.743589,4186.666666,4466.666666,4229.230769,4243.589743,4508.205128,4198.974358,4641.025641,3962.564103,4055.384615
63,4388.717948,4552.307692,4527.692307,4223.076923,4510.256410,4187.692307,4464.615384,4225.641025,4236.410256,4498.461538,4194.358974,4645.128205,3969.743590,4052.820512
64,4395.384615,4552.820512,4530.256410,4232.307692,4510.769230,4186.153846,4460.000000,4224.102564,4244.615384,4507.179487,4202.051282,4649.743589,3983.589744,4054.358974
65,4395.384615,4549.743589,4533.333333,4235.384615,4510.769230,4188.205128,4462.051282,4226.153846,4242.564102,4510.769230,4206.666666,4648.717948,3986.666667,4057.435897
66,4393.846153,4552.307692,4533.333333,4234.871794,4515.384615,4190.769230,4466.153846,4228.717948,4244.615384,4509.743589,4210.769230,4650.769230,3978.461539,4060.512820
67,4394.871794,4551.282051,4533.846153,4230.769230,4510.256410,4183.589743,4461.025641,4230.769230,4256.923076,4513.846153,4209.230769,4649.743589,3973.846154,4053.333333
68,4389.743589,4545.641025,4528.717948,4224.615384,4498.461538,4175.384615,4457.435897,4229.230769,4255.384615,4512.307692,4204.102564,4644.615384,3975.897436,4046.666666
69,4383.589743,4541.538461,4520.000000,4221.025641,4498.461538,4175.897435,4459.487179,4221.025641,4239.487179,4505.641025,4200.512820,4637.948717,3972.307693,4048.205128
70,4380.512820,4540.000000,4517.435897,4221.538461,4502.564102,4176.410256,4454.358974,4214.358974,4226.666666,4503.076923,4193.846153,4634.871794,3968.205129,4045.641025
71,4381.538461,4544.615384,4523.076923,4222.564102,4498.974358,4173.846153,4447.692307,4212.820512,4229.743589,4502.564102,4191.794871,4637.435897,3972.820513,4042.051282
72,4389.230769,4549.230769,4528.205128,4226.153846,4500.512820,4176.410256,4452.307692,4215.384615,4238.461538,4504.102564,4198.461538,4643.076923,3977.435898,4046.666666
73,4394.358974,4547.179487,4527.179487,4232.820512,4508.717948,4181.025641,4458.974358,4218.974358,4239.487179,4506.153846,4201.538461,4646.666666,3978.461539,4052.307692
74,4393.846153,4546.666666,4526.666666,4238.974358,4508.205128,4185.128205,4460.512820,4227.692307,4245.128205,4513.333333,4205.641025,4650.769230,3982.051283,4059.487179
75,4396.923076,4549.743589,4530.256410,4241.538461,4505.128205,4184.102564,4460.512820,4236.410256,4256.923076,4520.000000,4213.846153,4652.307692,3987.179488,4065.641025
76,4395.897435,4548.717948,4525.128205,4236.410256,4506.666666,4178.974358,4456.923076,4229.743589,4247.179487,4514.871794,4206.666666,4645.641025,3985.128206,4053.846153
77,4387.179487,4547.692307,4516.923076,4229.743589,4503.076923,4177.948717,4453.846153,4217.435897,4230.256410,4505.641025,4191.282051,4640.512820,3983.076924,4041.025641
78,4384.102564,4548.205128,4517.435897,4233.333333,4496.923076,4177.435897,4452.307692,4217.435897,4233.333333,4506.666666,4187.179487,4638.461538,3977.948718,4047.179487
79,4386.153846,4544.102564,4520.000000,4235.384615,4495.897435,4170.256410,4450.256410,4220.512820,4238.461538,4509.230769,4191.282051,4635.384615,3961.025642,4048.205128
80,4382.051282,4538.974358,4515.384615,4226.153846,4496.410256,4165.641025,4452.307692,4218.461538,4233.333333,4501.025641,4195.897435,4633.333333,3947.179488,4037.435897
81,4376.923076,4537.948717,4513.333333,4222.051282,4495.384615,4171.282051,4456.923076,4221.538461,4234.358974,4501.538461,4199.487179,4635.384615,3958.461539,4035.897435
82,4377.435897,4540.512820,4517.435897,4229.743589,4500.512820,4177.948717,4460.000000,4229.230769,4244.615384,4514.358974,4200.512820,4641.025641,3979.487180,4047.179487
83,4383.076923,4543.076923,4521.025641,4232.307692,4505.128205,4178.974358,4460.000000,4233.333333,4255.384615,4517.948717,4199.487179,4643.076923,3977.948718,4053.846153
84,4390.769230,4545.641025,4524.102564,4231.794871,4505.641025,4181.025641,4463.076923,4234.358974,4261.538461,4515.384615,4206.153846,4645.641025,3975.897436,4053.333333
85,4395.384615,4549.743589,4528.205128,4236.923076,4509.230769,4186.153846,4466.666666,4232.307692,4252.307692,4515.384615,4216.923076,4652.820512,3986.666667,4055.384615
86,4395.384615,4551.282051,4529.230769,4239.487179,4513.333333,4188.205128,4465.641025,4233.333333,4243.589743,4514.358974,4214.871794,4654.358974,3986.666667,4054.358974
87,4394.358974,4549.230769,4525.128205,4241.538461,4510.256410,4185.641025,4460.512820,4233.846153,4247.179487,4515.897435,4196.923076,4648.205128,3978.461539,4049.743589
88,4394.871794,4555.384615,4525.641025,4245.128205,4509.743589,4187.179487,4461.025641,4235.384615,4252.307692,4525.128205,4195.897435,4650.769230,3987.179488,4056.923076
89,4396.923076,4557.948717,4526.666666,4242.051282,4509.743589,4188.717948,4464.102564,4242.051282,4258.974358,4529.743589,4216.923076,4656.923076,4001.538461,4067.179487
90,4393.846153,4547.179487,4522.051282,4235.897435,4506.153846,4182.564102,4460.512820,4242.564102,4256.923076,4519.487179,4221.538461,4653.333333,3998.974359,4064.102564
91,4392.820512,4545.641025,4523.076923,4242.051282,4507.179487,4180.512820,4454.871794,4234.358974,4245.128205,4514.871794,4209.743589,4652.307692,3997.435898,4064.102564
92,4397.948717,4554.358974,4527.179487,4247.692307,4507.692307,4184.102564,4455.384615,4230.769230,4249.230769,4524.102564,4210.256410,4654.358974,4000.000000,4067.692307
93,4393.846153,4549.743589,4518.974358,4240.000000,4501.538461,4180.000000,4451.794871,4229.230769,4257.948717,4524.102564,4209.743589,4646.666666,3993.333334,4056.410256
94,4384.615384,4542.051282,4510.769230,4236.923076,4500.512820,4173.846153,4444.615384,4216.923076,4245.641025,4512.307692,4202.564102,4641.538461,3987.692308,4045.128205
95,4386.666666,4544.615384,4513.846153,4243.589743,4502.564102,4176.410256,4443.589743,4210.769230,4233.846153,4509.743589,4210.769230,4645.128205,3992.307693,4053.846153
96,4393.846153,4544.102564,4514.358974,4243.076923,4498.461538,4176.923076,4446.153846,4217.948717,4241.025641,4508.717948,4213.846153,4641.538461,3994.871795,4060.512820
97,4392.307692,4543.076923,4511.282051,4237.435897,4497.948717,4171.794871,4444.102564,4220.512820,4245.128205,4506.153846,4200.000000,4635.384615,3989.743590,4054.358974
98,4390.769230,4546.666666,4516.410256,4239.487179,4502.051282,4171.282051,4445.641025,4218.974358,4242.051282,4513.333333,4208.205128,4644.615384,3994.871795,4050.769230
99,4392.820512,4548.205128,4523.589743,4243.589743,4503.589743,4178.461538,4448.717948,4222.051282,4241.025641,4518.974358,4224.102564,4653.333333,4005.641025,4053.846153
100,4392.307692,4544.102564,4518.461538,4242.564102,4502.564102,4179.487179,4443.076923,4221.025641,4238.974358,4511.794871,4212.820512,4646.153846,3998.974359,4059.487179
101,4393.846153,4545.128205,4511.282051,4238.974358,4503.076923,4175.384615,4441.025641,4213.846153,4237.435897,4507.692307,4200.000000,4638.974358,3984.615385,4063.076923
102,4394.871794,4549.230769,4513.846153,4232.820512,4505.128205,4178.974358,4445.641025,4211.794871,4234.871794,4505.128205,4200.512820,4642.051282,3985.641026,4053.333333
103,4386.153846,4544.615384,4514.358974,4233.846153,4504.102564,4182.051282,4445.641025,4212.820512,4232.820512,4497.435897,4199.487179,4642.051282,3989.743590,4044.615384
104,4378.974358,4537.435897,4510.256410,4242.564102,4498.974358,4177.948717,4444.102564,4211.282051,4234.871794,4504.102564,4202.564102,4638.974358,3987.179488,4050.256410
105,4386.666666,4542.051282,4513.846153,4248.205128,4499.487179,4175.384615,4444.102564,4216.923076,4234.871794,4514.871794,4207.692307,4642.564102,3988.717949,4059.487179
106,4401.538461,4554.871794,4525.641025,4251.794871,4507.692307,4178.461538,4446.153846,4231.794871,4244.615384,4516.410256,4207.692307,4651.282051,4000.512820,4064.102564
107,4404.102564,4555.897435,4526.153846,4253.846153,4507.692307,4177.948717,4453.333333,4237.435897,4260.512820,4519.487179,4213.846153,4657.435897,4009.743589,4064.615384
108,4397.435897,4551.282051,4521.538461,4250.769230,4504.615384,4182.051282,4459.487179,4229.743589,4253.846153,4519.487179,4217.435897,4656.410256,4002.564102,4060.512820
109,4400.512820,4552.820512,4526.153846,4250.769230,4511.282051,4189.230769,4460.512820,4226.666666,4237.435897,4514.358974,4206.153846,4655.384615,3993.846154,4061.538461
110,4398.974358,4552.820512,4524.102564,4254.871794,4513.846153,4187.179487,4458.974358,4229.743589,4243.589743,4514.358974,4200.000000,4655.384615,3993.846154,4062.051282
111,4392.820512,4552.820512,4518.974358,4257.948717,4507.179487,4182.051282,4455.897435,4232.820512,4256.410256,4516.410256,4213.333333,4654.358974,3995.384616,4054.871794
112,4400.000000,4556.923076,4526.666666,4258.461538,4506.666666,4182.564102,4456.923076,4235.897435,4250.256410,4515.897435,4223.589743,4654.871794,3997.435898,4054.871794
113,4402.564102,4551.794871,4524.615384,4253.846153,4506.153846,4181.025641,4458.461538,4231.282051,4237.948717,4514.358974,4207.692307,4652.820512,3995.897436,4058.974358
114,4389.230769,4537.435897,4509.743589,4247.692307,4500.000000,4178.974358,4457.435897,4225.641025,4238.461538,4507.179487,4190.769230,4647.179487,3988.717949,4055.897435
115,4387.179487,4541.538461,4514.871794,4245.128205,4501.538461,4181.538461,4459.487179,4228.717948,4245.128205,4503.589743,4199.487179,4648.205128,3985.641026,4055.897435
116,4393.333333,4552.307692,4524.102564,4248.717948,4504.102564,4179.487179,4455.897435,4225.128205,4238.461538,4507.692307,4210.769230,4651.282051,3989.230770,4055.384615
117,4390.256410,4549.743589,4515.384615,4251.794871,4499.487179,4174.871794,4445.641025,4215.897435,4228.717948,4507.692307,4203.076923,4646.666666,3988.717949,4048.205128
118,4389.743589,4546.153846,4509.743589,4249.230769,4498.461538,4176.923076,4443.589743,4218.974358,4237.435897,4506.153846,4194.358974,4645.641025,3987.179488,4048.717948
119,4391.282051,4545.641025,4512.307692,4241.538461,4500.512820,4174.358974,4443.589743,4217.948717,4244.615384,4508.205128,4194.871794,4646.666666,3988.205129,4056.923076
120,4386.153846,4539.487179,4507.692307,4231.794871,4495.897435,4166.666666,4437.948717,4201.538461,4228.717948,4500.512820,4190.769230,4638.461538,3982.564103,4050.256410
121,4377.948717,4536.410256,4497.948717,4229.230769,4489.230769,4164.102564,4433.846153,4191.794871,4211.794871,4487.179487,4183.076923,4631.282051,3974.358975,4035.897435
122,4379.487179,4542.564102,4501.025641,4240.000000,4491.794871,4164.102564,4434.358974,4198.974358,4218.461538,4486.666666,4189.230769,4636.410256,3976.923077,4039.487179
123,4388.717948,4546.666666,4514.871794,4250.256410,4497.948717,4165.641025,4441.538461,4210.256410,4232.307692,4495.384615,4201.538461,4645.128205,3986.153847,4049.743589
124,4386.666666,4541.538461,4514.358974,4240.512820,4495.897435,4169.743589,4445.641025,4210.769230,4232.307692,4499.487179,4197.435897,4641.538461,3980.512821,4049.230769
125,4380.000000,4538.974358,4504.615384,4230.769230,4492.307692,4166.153846,4439.487179,4204.102564,4223.076923,4488.717948,4191.794871,4636.923076,3965.641026,4049.230769
126,4384.615384,4544.102564,4511.794871,4241.538461,4495.897435,4167.179487,4438.974358,4201.538461,4217.948717,4486.153846,4196.410256,4640.000000,3967.692308,4053.333333
127,4382.051282,4544.615384,4517.948717,4243.076923,4496.923076,4171.794871,4445.641025,4203.589743,4220.512820,4495.897435,4181.538461,4633.333333,3969.743590,4047.692307
128,4369.230769,4534.358974,4512.307692,4229.743589,4493.846153,4168.717948,4445.128205,4204.102564,4223.076923,4490.769230,4164.615384,4622.051282,3956.410257,4038.461538
129,4371.282051,4528.205128,4516.923076,4231.794871,4494.871794,4170.256410,4442.564102,4205.128205,4222.564102,4483.589743,4180.512820,4627.692307,3950.256411,4036.923076
130,4381.025641,4533.333333,4527.692307,4237.435897,4494.871794,4172.307692,4444.615384,4206.153846,4219.487179,4494.871794,4195.897435,4632.820512,3954.871795,4041.025641
131,4381.025641,4535.897435,4529.230769,4232.307692,4493.333333,4168.205128,4445.128205,4211.282051,4226.666666,4504.615384,4180.512820,4628.205128,3957.948718,4047.179487
132,4378.974358,4530.256410,4528.717948,4231.282051,4495.897435,4168.205128,4445.128205,4220.000000,4240.512820,4499.487179,4172.820512,4630.769230,3961.025642,4050.256410
133,4380.000000,4529.743589,4532.307692,4233.333333,4495.897435,4169.743589,4446.153846,4217.435897,4236.410256,4496.410256,4189.230769,4636.923076,3964.615385,4052.307692
134,4383.589743,4533.333333,4537.435897,4227.179487,4491.282051,4167.179487,4443.589743,4206.153846,4224.102564,4497.948717,4204.102564,4635.384615,3962.051283,4052.820512
135,4388.205128,4533.846153,4538.461538,4232.820512,4493.846153,4170.256410,4444.615384,4203.076923,4221.025641,4498.974358,4204.102564,4636.410256,3963.589744,4049.230769
136,4391.794871,4531.794871,4537.435897,4247.692307,4501.025641,4176.923076,4450.256410,4209.743589,4227.179487,4503.076923,4197.435897,4641.538461,3972.820513,4053.333333
137,4391.282051,4533.846153,4540.512820,4242.564102,4502.564102,4176.410256,4451.794871,4217.435897,4234.871794,4506.666666,4192.307692,4642.051282,3974.358975,4063.589743
138,4385.641025,4535.384615,4539.487179,4233.333333,4500.512820,4175.897435,4452.307692,4216.923076,4234.871794,4502.051282,4191.794871,4639.487179,3968.205129,4062.051282
139,4385.641025,4532.820512,4534.871794,4240.512820,4501.025641,4172.820512,4452.307692,4215.897435,4226.153846,4494.358974,4199.487179,4638.461538,3964.102565,4050.769230
140,4394.358974,4535.897435,4538.974358,4250.769230,4501.538461,4172.820512,4452.820512,4217.435897,4223.589743,4498.974358,4205.641025,4644.615384,3968.205129,4050.256410
141,4394.871794,4540.000000,4544.615384,4249.743589,4502.564102,4178.461538,4455.897435,4215.897435,4234.358974,4500.512820,4197.948717,4644.615384,3970.769231,4060.512820
142,4391.282051,4536.410256,4541.025641,4247.179487,4508.205128,4181.538461,4459.487179,4215.384615,4240.512820,4493.333333,4191.282051,4639.487179,3968.205129,4069.230769
143,4394.871794,4536.923076,4541.025641,4249.743589,4509.743589,4181.025641,4462.051282,4222.564102,4238.974358,4500.512820,4194.358974,4644.102564,3970.769231,4069.230769
144,4398.974358,4547.179487,4548.717948,4251.282051,4506.666666,4183.076923,4460.512820,4226.666666,4237.435897,4515.384615,4201.538461,4653.333333,3981.538462,4068.205128
145,4403.076923,4553.846153,4551.794871,4255.384615,4510.256410,4185.128205,4461.538461,4226.666666,4242.051282,4511.794871,4203.589743,4656.410256,3989.230770,4072.820512
146,4405.641025,4548.205128,4550.769230,4258.974358,4514.358974,4183.076923,4466.153846,4231.282051,4250.256410,4502.564102,4195.897435,4654.358974,3983.589744,4074.871794
147,4404.102564,4542.564102,4549.230769,4255.897435,4511.794871,4186.153846,4469.230769,4234.871794,4256.410256,4511.282051,4197.948717,4656.410256,3981.025642,4076.923076
148,4400.000000,4545.128205,4545.128205,4247.179487,4510.256410,4190.256410,4462.564102,4231.282051,4253.333333,4522.051282,4211.282051,4653.333333,3983.589744,4074.871794
149,4395.384615,4545.128205,4538.974358,4244.615384,4512.307692,4182.564102,4456.410256,4221.025641,4242.564102,4517.435897,4209.230769,4644.102564,3978.461539,4061.538461
150,4392.820512,4541.538461,4538.461538,4249.230769,4509.230769,4176.923076,4456.923076,4220.512820,4240.000000,4508.717948,4198.461538,4644.102564,3973.333334,4055.897435
151,4398.461538,4543.076923,4544.102564,4250.256410,4505.128205,4181.025641,4455.384615,4228.717948,4243.589743,4510.256410,4203.589743,4651.282051,3984.102565,4068.205128
152,4403.076923,4545.641025,4544.615384,4249.743589,4507.692307,4180.512820,4455.384615,4227.179487,4241.538461,4513.333333,4211.282051,4654.871794,3995.384616,4074.871794
153,4396.923076,4544.615384,4539.487179,4255.897435,4508.717948,4177.435897,4461.025641,4223.076923,4238.974358,4507.179487,4204.615384,4652.307692,3987.692308,4066.153846
154,4394.358974,4544.615384,4540.000000,4259.487179,4505.128205,4180.512820,4458.974358,4225.641025,4242.564102,4503.589743,4196.923076,4651.282051,3979.487180,4064.615384
155,4395.384615,4543.589743,4542.564102,4253.846153,4501.025641,4177.948717,4446.666666,4222.564102,4239.487179,4505.128205,4192.820512,4648.205128,3979.487180,4070.256410
156,4393.333333,4543.076923,4537.435897,4253.846153,4500.000000,4170.769230,4443.589743,4214.358974,4229.230769,4503.076923,4192.307692,4648.205128,3979.487180,4068.205128
157,4395.897435,4548.205128,4537.435897,4258.974358,4506.666666,4172.820512,4450.256410,4214.358974,4227.692307,4503.589743,4196.923076,4652.307692,3982.564103,4062.564102
158,4400.000000,4549.230769,4543.589743,4256.923076,4509.230769,4180.512820,4452.307692,4218.461538,4236.923076,4510.256410,4206.153846,4654.871794,3990.769231,4066.153846
159,4396.410256,4546.666666,4543.076923,4257.435897,4504.615384,4178.974358,4449.743589,4221.538461,4245.641025,4511.282051,4212.820512,4651.282051,3992.820513,4076.923076
160,4395.897435,4551.794871,4541.538461,4266.153846,4505.641025,4175.897435,4448.717948,4223.076923,4247.692307,4512.820512,4208.717948,4651.282051,3996.410257,4081.025641
161,4403.589743,4553.333333,4544.102564,4267.692307,4507.179487,4180.000000,4448.717948,4222.564102,4242.051282,4517.948717,4206.153846,4654.871794,4002.051282,4078.974358
162,4407.179487,4550.769230,4542.564102,4262.564102,4504.102564,4182.564102,4446.666666,4221.538461,4237.948717,4515.897435,4214.871794,4655.897435,4000.512820,4074.871794
163,4407.179487,4558.974358,4541.538461,4269.230769,4508.205128,4181.025641,4446.153846,4226.666666,4247.692307,4517.948717,4222.051282,4656.410256,4000.000000,4071.794871
164,4403.589743,4560.512820,4540.512820,4270.256410,4509.230769,4178.461538,4446.153846,4227.179487,4247.692307,4517.948717,4212.820512,4653.846153,4000.512820,4070.769230
165,4391.282051,4546.666666,4531.794871,4253.846153,4498.974358,4175.897435,4442.051282,4219.487179,4230.256410,4504.102564,4205.128205,4648.205128,3993.333334,4072.307692
166,4388.205128,4542.051282,4530.769230,4250.769230,4496.923076,4173.846153,4440.000000,4217.948717,4227.692307,4502.051282,4207.179487,4648.205128,3990.769231,4071.282051
167,4397.435897,4548.717948,4536.410256,4261.025641,4504.615384,4174.871794,4441.538461,4221.025641,4237.435897,4512.307692,4203.589743,4651.794871,3998.974359,4067.179487
168,4400.512820,4547.692307,4533.846153,4258.974358,4507.179487,4178.461538,4447.692307,4225.641025,4238.974358,4510.256410,4203.589743,4651.282051,3998.461539,4067.692307
169,4397.948717,4542.051282,4533.333333,4255.897435,4508.205128,4181.025641,4455.384615,4228.205128,4234.871794,4506.666666,4210.769230,4650.256410,3988.717949,4068.717948
170,4397.948717,4543.076923,4537.948717,4263.076923,4509.230769,4180.512820,4455.897435,4226.153846,4233.333333,4509.743589,4209.743589,4652.307692,3989.230770,4067.692307
171,4393.846153,4547.179487,4534.358974,4261.538461,4506.666666,4179.487179,4451.794871,4220.000000,4234.871794,4506.153846,4200.512820,4650.769230,3998.974359,4067.692307
172,4393.846153,4550.769230,4533.333333,4258.461538,4505.128205,4180.512820,4452.820512,4225.641025,4245.128205,4508.717948,4200.512820,4650.769230,4001.025641,4069.230769
173,4402.564102,4553.846153,4540.512820,4264.615384,4510.769230,4181.538461,4454.871794,4235.384615,4253.333333,4522.051282,4211.794871,4652.307692,3996.923077,4072.820512
174,4401.025641,4551.282051,4538.461538,4262.564102,4510.769230,4180.000000,4451.794871,4230.256410,4243.076923,4517.435897,4209.230769,4648.205128,3997.948718,4073.846153
175,4391.794871,4549.230769,4533.846153,4257.435897,4505.641025,4183.076923,4451.282051,4229.743589,4235.384615,4506.666666,4203.589743,4646.666666,4002.051282,4069.230769
176,4391.794871,4552.820512,4540.000000,4267.692307,4509.743589,4188.205128,4457.948717,4237.948717,4242.051282,4514.871794,4211.282051,4653.333333,4005.128205,4066.153846
177,4395.384615,4552.307692,4537.948717,4268.717948,4514.358974,4184.102564,4456.410256,4231.794871,4240.000000,4515.384615,4212.820512,4653.333333,4002.051282,4067.179487
178,4391.794871,4545.128205,4525.641025,4253.333333,4509.743589,4176.923076,4445.128205,4217.435897,4227.692307,4498.974358,4197.435897,4640.000000,3995.384616,4064.615384
179,4392.307692,4544.615384,4526.666666,4255.897435,4507.179487,4180.000000,4444.102564,4221.538461,4232.820512,4499.487179,4190.769230,4635.897435,3992.820513,4057.948717
180,4398.461538,4553.333333,4537.435897,4272.820512,4508.717948,4186.153846,4451.282051,4230.256410,4241.538461,4507.692307,4200.512820,4645.641025,3996.923077,4056.410256
181,4402.564102,4557.948717,4537.435897,4276.410256,4510.769230,4184.102564,4449.743589,4227.692307,4233.333333,4503.589743,4206.666666,4649.230769,3996.410257,4061.538461
182,4403.589743,4561.538461,4535.897435,4273.333333,4514.871794,4185.128205,4448.717948,4225.641025,4230.256410,4508.205128,4211.282051,4649.230769,3994.871795,4070.769230
183,4404.102564,4563.076923,4541.025641,4272.820512,4513.333333,4188.205128,4451.282051,4223.589743,4236.923076,4517.948717,4213.333333,4654.871794,4002.051282,4075.897435
184,4400.512820,4551.282051,4537.948717,4269.743589,4504.102564,4182.051282,4442.564102,4218.974358,4233.846153,4509.743589,4208.205128,4651.794871,4004.615384,4069.230769
185,4396.923076,4546.153846,4534.871794,4266.666666,4505.128205,4180.512820,4444.102564,4225.128205,4236.410256,4503.589743,4211.282051,4645.128205,4003.589743,4061.538461
186,4403.076923,4559.487179,4538.974358,4275.384615,4516.410256,4191.282051,4459.487179,4236.923076,4252.307692,4517.948717,4215.897435,4651.794871,4009.743589,4064.102564
187,4408.205128,4566.666666,4539.487179,4280.000000,4516.410256,4194.871794,4461.538461,4240.000000,4256.410256,4526.153846,4212.820512,4658.461538,4014.358974,4073.333333
188,4404.102564,4556.923076,4537.435897,4271.282051,4510.256410,4187.692307,4451.282051,4237.435897,4246.666666,4519.487179,4217.435897,4654.871794,4011.282051,4075.897435
189,4400.000000,4549.230769,4537.435897,4267.179487,4512.820512,4186.153846,4445.128205,4231.794871,4241.025641,4514.871794,4220.512820,4653.846153,4013.333333,4065.641025
190,4406.666666,4553.846153,4538.974358,4272.820512,4514.358974,4187.692307,4445.128205,4231.794871,4242.564102,4517.948717,4209.743589,4655.897435,4020.512820,4066.153846
191,4411.282051,4559.487179,4539.487179,4273.333333,4513.333333,4189.230769,4448.717948,4235.384615,4247.179487,4521.538461,4212.820512,4656.410256,4019.487179,4079.487179
192,4402.564102,4554.871794,4537.948717,4269.230769,4515.384615,4190.769230,4447.692307,4229.743589,4242.051282,4515.384615,4227.692307,4656.923076,4015.384615,4076.410256
193,4397.435897,4548.205128,4535.384615,4270.256410,4513.846153,4189.230769,4442.564102,4226.153846,4232.307692,4506.666666,4225.128205,4656.923076,4012.820512,4062.564102
194,4405.641025,4551.282051,4537.435897,4272.820512,4510.769230,4187.692307,4451.794871,4235.897435,4244.102564,4511.794871,4216.410256,4660.000000,4013.333333,4065.128205
195,4410.256410,4556.410256,4538.461538,4273.333333,4513.846153,4189.743589,4460.000000,4240.000000,4253.333333,4527.179487,4213.846153,4661.025641,4014.358974,4075.384615
196,4403.076923,4554.871794,4537.435897,4273.333333,4514.871794,4188.205128,4450.769230,4233.846153,4240.512820,4523.589743,4209.743589,4655.384615,4015.384615,4075.384615
197,4401.538461,4557.948717,4541.025641,4272.820512,4511.794871,4184.615384,4446.153846,4235.897435,4237.435897,4514.358974,4212.307692,4656.410256,4016.410256,4074.871794
198,4410.256410,4561.538461,4542.564102,4268.205128,4512.820512,4188.205128,4450.769230,4241.025641,4248.205128,4521.025641,4222.564102,4666.153846,4013.846153,4072.307692
199,4412.307692,4557.948717,4539.487179,4253.333333,4512.307692,4190.769230,4447.692307,4236.923076,4240.000000,4518.974358,4221.538461,4664.615384,4011.282051,4069.743589
200,4403.589743,4553.846153,4533.333333,4232.307692,4504.102564,4183.076923,4437.948717,4228.717948,4229.230769,4500.512820,4209.743589,4652.307692,4008.717948,4071.794871
201,4392.307692,4548.205128,4524.615384,4219.487179,4495.384615,4173.846153,4430.256410,4223.589743,4233.333333,4493.333333,4200.512820,4644.615384,3998.461539,4064.615384
202,4386.666666,4543.589743,4520.000000,4209.743589,4495.897435,4171.282051,4427.179487,4223.076923,4228.717948,4498.461538,4202.564102,4644.102564,3994.358975,4051.794871
203,4392.820512,4546.666666,4522.051282,4206.153846,4500.512820,4173.846153,4431.282051,4223.076923,4223.076923,4504.102564,4210.769230,4649.230769,4001.025641,4052.820512
204,4400.000000,4550.256410,4527.692307,4201.538461,4499.487179,4175.897435,4433.333333,4224.615384,4230.256410,4507.179487,4207.692307,4650.769230,4001.538461,4061.025641
205,4397.948717,4546.153846,4527.179487,4184.615384,4493.333333,4174.871794,4428.205128,4224.615384,4233.333333,4499.487179,4194.358974,4645.128205,3993.846154,4063.076923
206,4397.435897,4545.128205,4525.128205,4177.948717,4495.384615,4175.384615,4428.205128,4226.153846,4228.717948,4494.358974,4194.358974,4647.179487,3997.435898,4059.487179
207,4400.512820,4551.794871,4528.717948,4189.230769,4501.538461,4181.025641,4435.897435,4229.230769,4229.743589,4505.641025,4208.205128,4652.307692,4004.615384,4056.410256
208,4396.923076,4552.820512,4530.256410,4190.256410,4500.512820,4182.051282,4437.435897,4228.205128,4231.794871,4509.230769,4214.358974,4650.769230,4003.589743,4054.871794
209,4392.820512,4547.179487,4526.153846,4175.384615,4495.384615,4176.923076,4433.333333,4224.615384,4230.256410,4501.538461,4203.589743,4649.230769,4000.000000,4054.871794
210,4398.461538,4545.641025,4528.717948,4175.384615,4498.461538,4178.461538,4437.435897,4226.666666,4234.871794,4503.076923,4198.974358,4651.794871,4002.051282,4059.487179
211,4408.717948,4554.871794,4537.948717,4187.179487,4506.153846,4186.666666,4440.512820,4233.846153,4238.461538,4512.820512,4215.897435,4656.923076,4012.820512,4071.794871
212,4414.358974,4566.153846,4539.487179,4188.717948,4506.153846,4186.666666,4438.974358,4236.410256,4242.051282,4515.897435,4226.666666,4666.666666,4021.025641,4080.000000
213,4408.205128,4565.128205,4537.948717,4186.153846,4502.051282,4181.538461,4435.897435,4230.769230,4242.564102,4506.666666,4214.358974,4666.153846,4021.025641,4078.974358
214,4404.102564,4560.000000,4538.461538,4185.641025,4498.974358,4181.538461,4431.282051,4220.000000,4234.871794,4499.487179,4204.102564,4656.410256,4013.846153,4073.333333
215,4406.666666,4562.051282,4534.358974,4181.025641,4499.487179,4185.641025,4432.307692,4220.000000,4236.410256,4506.666666,4209.743589,4654.871794,4005.128205,4063.589743
216,4408.717948,4568.717948,4534.871794,4175.384615,4506.153846,4189.743589,4442.051282,4230.769230,4245.128205,4516.410256,4217.435897,4656.410256,4007.179487,4062.564102
217,4411.794871,4569.230769,4539.487179,4177.435897,4513.333333,4195.384615,4446.153846,4236.410256,4242.564102,4514.358974,4222.564102,4660.000000,4018.461538,4073.846153
218,4410.769230,4564.615384,4538.461538,4181.025641,4513.333333,4196.923076,4444.615384,4236.410256,4241.025641,4515.384615,4226.153846,4665.641025,4023.589743,4078.974358
219,4411.282051,4568.205128,4537.948717,4184.102564,4513.846153,4195.384615,4448.205128,4241.538461,4256.410256,4529.230769,4222.564102,4669.743589,4024.615384,4073.846153
220,4420.000000,4580.512820,4546.153846,4190.769230,4517.435897,4198.461538,4448.205128,4245.641025,4264.615384,4537.435897,4223.076923,4672.307692,4028.205128,4072.820512
221,4421.538461,4585.128205,4543.589743,4189.743589,4516.410256,4196.923076,4443.589743,4239.487179,4249.743589,4529.230769,4228.717948,4674.358974,4029.743589,4080.512820
222,4411.794871,4575.384615,4534.358974,4175.384615,4508.205128,4192.820512,4438.974358,4234.358974,4238.974358,4513.846153,4225.128205,4667.692307,4023.076923,4079.487179
223,4403.076923,4568.717948,4530.769230,4166.153846,4504.102564,4190.769230,4435.897435,4228.717948,4240.000000,4508.717948,4213.333333,4656.923076,4011.794871,4063.589743
224,4402.051282,4572.307692,4528.205128,4169.230769,4508.205128,4189.743589,4438.461538,4222.051282,4240.512820,4514.358974,4204.615384,4656.923076,4010.256410,4059.487179
225,4406.666666,4572.820512,4529.743589,4172.820512,4510.256410,4189.743589,4441.538461,4221.538461,4235.384615,4517.435897,4207.179487,4663.076923,4016.923076,4073.846153
226,4409.743589,4571.794871,4536.923076,4170.769230,4509.230769,4190.769230,4436.410256,4226.666666,4237.948717,4516.923076,4217.435897,4668.717948,4015.384615,4078.461538
227,4408.205128,4575.384615,4541.538461,4171.282051,4508.205128,4191.282051,4434.358974,4227.692307,4242.051282,4514.871794,4229.230769,4670.769230,4014.871794,4072.820512
228,4409.230769,4571.794871,4536.410256,4172.820512,4507.179487,4189.743589,4438.461538,4227.692307,4241.025641,4516.923076,4226.153846,4667.179487,4018.974358,4070.769230
229,4408.717948,4563.076923,4530.256410,4169.743589,4506.666666,4186.666666,4437.435897,4235.384615,4251.282051,4519.487179,4216.923076,4664.102564,4015.897435,4069.230769
230,4403.589743,4563.589743,4533.333333,4167.692307,4504.615384,4183.076923,4432.820512,4235.897435,4255.384615,4511.282051,4213.846153,4663.076923,4007.179487,4066.153846
231,4403.076923,4563.076923,4532.820512,4162.564102,4496.410256,4178.974358,4428.205128,4222.051282,4235.897435,4498.974358,4213.333333,4658.974358,4006.153846,4065.641025
232,4407.692307,4557.435897,4526.153846,4157.948717,4492.307692,4175.384615,4428.717948,4217.948717,4223.589743,4501.538461,4210.769230,4655.384615,4008.717948,4067.692307
233,4407.179487,4557.948717,4525.128205,4160.512820,4496.410256,4175.384615,4433.333333,4224.615384,4230.256410,4512.820512,4211.794871,4660.000000,4010.256410,4061.538461
234,4402.051282,4562.051282,4527.179487,4159.487179,4500.512820,4182.564102,4434.358974,4224.102564,4235.897435,4512.307692,4217.948717,4663.076923,4011.794871,4055.384615
235,4402.051282,4563.589743,4528.205128,4156.923076,4502.051282,4185.641025,4432.307692,4218.461538,4234.358974,4504.102564,4218.974358,4661.538461,4009.230769,4063.589743
236,4406.666666,4561.538461,4531.282051,4161.025641,4501.538461,4183.589743,4433.846153,4218.974358,4234.358974,4503.589743,4214.871794,4662.564102,4005.128205,4074.358974
237,4404.615384,4556.410256,4530.769230,4162.564102,4497.435897,4179.487179,4432.820512,4220.000000,4235.897435,4507.692307,4208.205128,4662.564102,4005.128205,4069.743589
238,4398.974358,4553.846153,4528.205128,4157.435897,4498.461538,4179.487179,4431.794871,4220.000000,4236.923076,4510.769230,4201.025641,4661.538461,4004.615384,4061.538461
239,4402.564102,4558.461538,4537.948717,4156.923076,4507.179487,4187.692307,4441.538461,4221.538461,4238.974358,4513.333333,4204.615384,4663.589743,3998.974359,4067.692307
240,4405.128205,4556.410256,4543.076923,4156.410256,4509.230769,4187.692307,4445.641025,4224.615384,4239.487179,4517.435897,4212.307692,4661.025641,3993.846154,4070.769230
241,4397.435897,4549.743589,4535.897435,4149.230769,4502.051282,4183.589743,4440.512820,4227.179487,4234.871794,4516.923076,4207.179487,4654.871794,3992.307693,4063.076923
242,4396.410256,4551.282051,4538.974358,4146.153846,4500.000000,4185.641025,4443.076923,4230.256410,4234.871794,4514.358974,4199.487179,4655.897435,3993.333334,4061.025641
243,4401.538461,4552.820512,4548.717948,4147.692307,4502.564102,4184.615384,4444.102564,4230.256410,4245.128205,4512.820512,4203.076923,4657.948717,3995.384616,4066.666666
244,4401.025641,4551.794871,4548.717948,4150.256410,4503.589743,4181.538461,4441.538461,4232.820512,4254.871794,4516.410256,4204.615384,4655.897435,3996.410257,4071.282051
245,4403.076923,4556.410256,4548.717948,4157.435897,4505.641025,4189.230769,4445.128205,4240.000000,4250.769230,4524.102564,4203.076923,4658.974358,3998.461539,4074.871794
246,4410.256410,4560.512820,4556.923076,4163.589743,4509.230769,4195.384615,4448.205128,4240.512820,4244.102564,4521.025641,4205.641025,4664.102564,4001.025641,4075.384615
247,4412.820512,4558.461538,4561.025641,4160.512820,4510.256410,4190.256410,4445.641025,4234.358974,4249.230769,4513.846153,4209.230769,4665.641025,4000.512820,4076.410256
248,4407.692307,4560.000000,4555.384615,4158.461538,4509.230769,4189.230769,4444.615384,4235.384615,4251.282051,4515.897435,4212.820512,4662.564102,3997.948718,4079.487179
249,4406.666666,4562.051282,4552.307692,4163.076923,4509.743589,4193.846153,4447.692307,4239.487179,4240.512820,4516.923076,4213.333333,4657.435897,3996.410257,4077.948717
250,4406.153846,4554.358974,4554.871794,4160.000000,4507.179487,4189.230769,4445.128205,4235.384615,4238.974358,4509.230769,4210.769230,4654.358974,3993.846154,4073.333333
251,4396.923076,4547.179487,4550.769230,4150.769230,4503.589743,4181.025641,4440.512820,4226.153846,4242.051282,4505.641025,4208.205128,4653.333333,3990.769231,4066.153846
252,4397.435897,4551.794871,4545.641025,4152.820512,4505.128205,4184.615384,4442.564102,4224.102564,4235.384615,4511.282051,4206.666666,4654.358974,3993.846154,4062.564102
253,4405.128205,4554.358974,4548.205128,4157.435897,4505.641025,4191.794871,4446.666666,4228.717948,4233.333333,4515.897435,4204.102564,4654.871794,4000.512820,4068.205128
254,4405.128205,4549.230769,4551.794871,4156.410256,4504.615384,4190.256410,4446.153846,4228.717948,4241.025641,4513.846153,4202.564102,4654.358974,4002.051282,4075.384615
255,4405.641025,4552.307692,4551.282051,4161.538461,4507.692307,4189.743589,4444.102564,4228.205128,4241.025641,4513.333333,4210.769230,4656.923076,4006.153846,4077.435897
256,4409.743589,4557.948717,4551.794871,4168.205128,4511.282051,4192.307692,4442.051282,4228.205128,4241.025641,4514.871794,4223.076923,4661.025641,4012.820512,4076.923076
257,4409.230769,4558.461538,4555.897435,4166.666666,4509.743589,4190.256410,4442.051282,4225.641025,4249.743589,4515.897435,4225.641025,4662.051282,4015.384615,4074.358974
258,4413.333333,4560.000000,4557.435897,4167.179487,4507.692307,4190.256410,4445.641025,4228.205128,4252.307692,4521.538461,4221.025641,4664.615384,4016.410256,4079.487179
259,4416.923076,4559.487179,4554.358974,4168.717948,4505.641025,4190.769230,4447.692307,4233.846153,4242.564102,4527.179487,4220.000000,4666.666666,4016.923076,4088.205128
