,AF3,F7,F3,FC5,T7,P7,O1,O2,P8,T8,FC6,F4,F8,AF4
0,4352.820512,4537.435897,4533.333333,4265.641025,4490.256410,4195.897435,4446.153846,4211.794871,4242.564102,4509.230769,4206.666666,4664.102564,3978.461539,4068.205128
1,4360.512820,4541.025641,4533.846153,4271.282051,4492.820512,4194.871794,4446.666666,4210.256410,4243.076923,4510.256410,4207.692307,4664.615384,3976.923077,4071.794871
2,4364.615384,4537.435897,4531.794871,4273.333333,4487.692307,4192.820512,4443.589743,4208.717948,4241.538461,4502.051282,4204.615384,4664.102564,3978.461539,4070.256410
3,4362.051282,4526.666666,4528.205128,4266.666666,4479.487179,4187.692307,4440.512820,4202.564102,4238.461538,4494.871794,4195.897435,4661.025641,3975.897436,4063.589743
4,4366.153846,4530.256410,4528.717948,4264.102564,4482.051282,4187.179487,4443.589743,4198.974358,4231.282051,4493.333333,4195.384615,4659.487179,3974.871795,4065.128205
5,4367.179487,4534.358974,4528.717948,4263.076923,4489.230769,4188.717948,4443.589743,4200.512820,4223.589743,4487.179487,4201.025641,4656.923076,3969.743590,4061.538461
6,4362.564102,4525.641025,4525.641025,4260.000000,4489.743589,4188.717948,4440.512820,4198.974358,4223.076923,4486.153846,4196.410256,4652.820512,3961.025642,4050.769230
7,4366.666666,4526.153846,4528.717948,4261.538461,4488.717948,4192.307692,4442.051282,4198.974358,4231.282051,4495.384615,4194.871794,4658.461538,3961.538462,4054.871794
8,4369.230769,4536.923076,4532.307692,4265.128205,4491.282051,4193.846153,4443.589743,4201.538461,4235.897435,4498.974358,4202.564102,4665.128205,3966.666667,4065.641025
9,4362.051282,4537.435897,4530.769230,4269.230769,4496.410256,4193.333333,4441.025641,4203.589743,4235.384615,4496.410256,4201.025641,4663.589743,3973.333334,4067.692307
10,4363.076923,4537.435897,4534.358974,4277.948717,4502.051282,4201.025641,4448.205128,4214.871794,4245.128205,4503.076923,4200.000000,4664.102564,3984.102565,4073.846153
11,4365.128205,4547.179487,4541.538461,4283.076923,4505.641025,4204.615384,4457.948717,4222.051282,4252.307692,4507.692307,4209.743589,4667.179487,3983.589744,4080.000000
12,4353.333333,4549.230769,4537.435897,4278.461538,4502.051282,4202.051282,4452.307692,4215.897435,4240.000000,4497.948717,4209.743589,4662.051282,3971.794872,4070.256410
13,4344.615384,4540.512820,4530.256410,4274.871794,4498.461538,4202.564102,4444.102564,4213.846153,4233.333333,4494.871794,4200.512820,4653.333333,3970.256411,4062.051282
14,4348.205128,4535.384615,4534.358974,4276.410256,4501.025641,4200.000000,4443.589743,4216.410256,4242.051282,4505.128205,4195.384615,4652.307692,3976.923077,4068.205128
15,4351.794871,4540.000000,4536.923076,4277.435897,4501.538461,4198.974358,4446.153846,4209.743589,4242.051282,4504.102564,4198.461538,4657.948717,3977.435898,4072.307692
16,4352.307692,4542.564102,4535.384615,4277.435897,4501.025641,4201.538461,4451.282051,4206.666666,4233.846153,4494.358974,4201.538461,4661.538461,3976.410257,4068.717948
17,4351.282051,4543.076923,4540.512820,4277.435897,4498.974358,4201.025641,4457.435897,4213.333333,4240.000000,4496.410256,4197.948717,4662.564102,3976.410257,4065.128205
18,4354.358974,4545.128205,4545.128205,4279.487179,4500.512820,4200.000000,4458.461538,4218.974358,4251.794871,4508.717948,4201.538461,4664.615384,3978.461539,4067.179487
19,4363.589743,4541.538461,4544.615384,4280.000000,4505.128205,4202.051282,4454.358974,4219.487179,4248.205128,4514.358974,4213.846153,4668.717948,3984.102565,4074.358974
20,4363.076923,4537.948717,4541.538461,4272.820512,4504.102564,4202.051282,4447.692307,4213.333333,4234.871794,4510.769230,4214.358974,4664.615384,3985.128206,4074.871794
21,4350.256410,4536.410256,4534.358974,4267.179487,4499.487179,4198.974358,4440.000000,4208.205128,4232.820512,4507.692307,4201.025641,4654.871794,3977.435898,4064.615384
22,4344.102564,4536.410256,4528.205128,4270.769230,4501.538461,4200.000000,4446.153846,4211.794871,4242.564102,4507.692307,4198.461538,4652.307692,3972.820513,4059.487179
23,4344.102564,4540.000000,4531.794871,4279.487179,4509.743589,4204.615384,4457.435897,4218.974358,4245.641025,4505.128205,4202.564102,4654.871794,3976.410257,4064.102564
24,4341.538461,4539.487179,4533.333333,4280.000000,4507.179487,4203.589743,4458.461538,4216.410256,4239.487179,4499.487179,4198.461538,4651.794871,3977.948718,4064.102564
25,4341.025641,4535.897435,4529.230769,4269.743589,4504.615384,4200.512820,4457.948717,4213.333333,4245.128205,4503.076923,4203.076923,4652.820512,3974.358975,4060.000000
26,4346.153846,4536.410256,4530.256410,4268.205128,4509.230769,4203.589743,4457.435897,4215.384615,4254.358974,4514.358974,4217.435897,4660.000000,3976.923077,4060.512820
27,4351.282051,4536.923076,4532.307692,4277.948717,4509.230769,4203.076923,4450.256410,4216.923076,4246.666666,4513.846153,4219.487179,4660.000000,3981.538462,4063.589743
28,4350.769230,4535.384615,4532.307692,4279.487179,4503.589743,4195.897435,4443.589743,4213.846153,4235.384615,4500.000000,4208.205128,4658.461538,3981.538462,4068.205128
29,4349.230769,4537.948717,4533.333333,4273.333333,4502.564102,4195.384615,4444.615384,4210.256410,4238.461538,4498.974358,4203.589743,4660.512820,3981.025642,4069.743589
30,4350.769230,4535.897435,4531.282051,4275.384615,4508.717948,4200.000000,4448.205128,4213.333333,4247.179487,4510.256410,4204.102564,4662.564102,3982.564103,4066.153846
31,4354.358974,4539.487179,4530.256410,4281.538461,4512.307692,4204.615384,4452.820512,4218.461538,4250.256410,4511.794871,4201.538461,4663.589743,3983.589744,4068.205128
32,4356.923076,4550.769230,4540.512820,4284.615384,4511.282051,4209.230769,4459.487179,4218.974358,4251.794871,4508.717948,4207.692307,4666.153846,3986.666667,4074.358974
33,4357.435897,4549.743589,4543.076923,4285.641025,4507.692307,4207.692307,4456.923076,4214.871794,4247.692307,4513.333333,4216.923076,4663.589743,3988.717949,4073.846153
34,4357.948717,4537.948717,4530.769230,4280.512820,4506.666666,4200.512820,4447.179487,4210.256410,4241.025641,4513.846153,4209.230769,4654.358974,3983.589744,4064.102564
35,4355.897435,4534.871794,4524.102564,4276.923076,4507.179487,4198.974358,4440.000000,4201.025641,4237.948717,4498.461538,4195.384615,4647.179487,3974.871795,4053.846153
36,4356.410256,4538.974358,4528.205128,4279.487179,4504.615384,4199.487179,4438.974358,4199.487179,4236.923076,4492.307692,4198.461538,4650.256410,3973.846154,4054.358974
37,4354.871794,4541.538461,4531.794871,4280.000000,4508.717948,4200.512820,4443.589743,4210.256410,4237.948717,4503.076923,4203.589743,4656.923076,3976.923077,4060.512820
38,4347.692307,4535.897435,4531.794871,4278.461538,4515.897435,4204.615384,4445.128205,4209.230769,4236.410256,4504.102564,4195.897435,4653.333333,3971.794872,4060.000000
39,4343.589743,4530.256410,4531.282051,4279.487179,4513.846153,4205.641025,4443.589743,4204.102564,4236.923076,4500.512820,4193.846153,4650.256410,3966.666667,4055.897435
40,4345.128205,4534.871794,4529.743589,4279.487179,4507.179487,4201.025641,4444.102564,4207.692307,4241.538461,4502.564102,4201.025641,4654.358974,3968.205129,4056.410256
41,4336.923076,4539.487179,4530.256410,4278.461538,4505.641025,4200.512820,4450.769230,4208.717948,4238.974358,4496.923076,4201.025641,4651.282051,3968.717949,4057.435897
42,4328.717948,4537.435897,4531.794871,4275.897435,4510.769230,4204.615384,4456.410256,4207.692307,4233.333333,4491.282051,4204.102564,4647.179487,3969.230770,4057.948717
43,4340.000000,4538.974358,4533.846153,4276.923076,4514.358974,4205.641025,4457.435897,4218.461538,4244.102564,4505.641025,4212.307692,4655.897435,3974.871795,4061.538461
44,4348.205128,4543.589743,4534.358974,4281.025641,4513.846153,4205.128205,4457.948717,4222.564102,4254.358974,4514.871794,4213.846153,4662.564102,3981.025642,4066.153846
45,4341.538461,4542.564102,4529.743589,4279.487179,4511.794871,4206.153846,4457.435897,4213.333333,4247.179487,4505.128205,4210.256410,4654.358974,3981.025642,4064.615384
46,4340.000000,4540.512820,4528.717948,4277.435897,4510.769230,4204.615384,4457.948717,4212.307692,4248.717948,4506.666666,4207.692307,4650.769230,3978.461539,4064.615384
47,4346.666666,4546.666666,4536.410256,4284.102564,4509.230769,4204.102564,4461.025641,4218.974358,4255.897435,4512.820512,4207.179487,4658.974358,3978.974359,4070.769230
48,4347.179487,4550.256410,4539.487179,4285.641025,4508.205128,4203.589743,4457.948717,4215.384615,4246.153846,4505.641025,4206.153846,4658.461538,3978.461539,4071.794871
49,4341.025641,4541.538461,4531.794871,4277.435897,4507.692307,4199.487179,4444.615384,4203.076923,4231.794871,4494.871794,4202.051282,4650.769230,3972.307693,4062.564102
50,4345.641025,4535.384615,4529.743589,4275.384615,4506.153846,4196.923076,4437.948717,4200.512820,4229.743589,4490.256410,4196.410256,4651.282051,3968.717949,4057.948717
51,4353.846153,4540.512820,4534.871794,4281.025641,4507.179487,4202.051282,4443.589743,4208.205128,4231.282051,4489.230769,4190.256410,4651.282051,3968.717949,4056.923076
52,4347.692307,4543.076923,4533.333333,4280.512820,4508.717948,4204.102564,4445.641025,4205.641025,4228.717948,4493.846153,4185.641025,4644.102564,3963.589744,4053.333333
53,4340.000000,4534.358974,4528.717948,4276.923076,4505.641025,4197.948717,4442.564102,4196.923076,4229.230769,4500.512820,4192.820512,4643.076923,3956.923077,4051.794871
54,4349.743589,4534.871794,4532.820512,4280.512820,4505.128205,4196.410256,4449.230769,4205.641025,4232.307692,4504.102564,4204.102564,4653.846153,3962.564103,4054.871794
55,4359.487179,4546.666666,4543.076923,4286.153846,4514.358974,4203.589743,4461.025641,4222.051282,4236.923076,4504.615384,4203.589743,4661.538461,3972.820513,4060.000000
56,4349.743589,4543.076923,4542.564102,4284.102564,4518.974358,4208.205128,4458.974358,4221.025641,4235.384615,4495.897435,4202.051282,4656.410256,3971.794872,4058.974358
57,4338.461538,4528.205128,4529.743589,4274.871794,4509.230769,4201.025641,4447.692307,4210.256410,4231.794871,4489.230769,4201.025641,4646.666666,3961.025642,4052.307692
58,4338.974358,4531.282051,4526.666666,4275.384615,4502.564102,4195.384615,4449.230769,4210.256410,4235.897435,4496.923076,4198.461538,4646.666666,3959.487180,4052.820512
59,4342.564102,4544.102564,4533.846153,4282.051282,4509.743589,4199.487179,4458.974358,4217.948717,4242.051282,4503.076923,4200.512820,4652.820512,3966.153847,4060.000000
60,4341.538461,4543.589743,4531.794871,4283.076923,4515.897435,4204.102564,4459.487179,4217.948717,4240.000000,4493.333333,4202.051282,4651.282051,3960.512821,4058.461538
61,4337.435897,4534.358974,4527.179487,4275.384615,4510.769230,4202.564102,4454.358974,4211.794871,4231.794871,4483.076923,4194.871794,4643.076923,3953.846154,4053.333333
62,4337.435897,4533.846153,4529.743589,4271.794871,4506.153846,4200.000000,4456.410256,4212.820512,4230.256410,4491.282051,4194.358974,4640.000000,3958.461539,4052.307692
63,4342.564102,4537.435897,4531.794871,4274.358974,4507.179487,4198.974358,4461.538461,4223.076923,4235.897435,4501.538461,4198.974358,4645.128205,3963.589744,4051.282051
64,4341.025641,4532.307692,4528.205128,4271.794871,4509.743589,4198.974358,4458.974358,4224.615384,4236.923076,4495.384615,4192.820512,4647.692307,3962.564103,4049.230769
65,4337.948717,4528.717948,4525.641025,4266.666666,4509.230769,4200.000000,4452.307692,4215.897435,4229.743589,4485.641025,4190.769230,4644.615384,3958.461539,4048.205128
66,4346.153846,4530.256410,4528.717948,4265.128205,4503.589743,4198.461538,4449.743589,4214.871794,4225.641025,4488.717948,4195.897435,4644.615384,3956.410257,4049.230769
67,4351.794871,4531.282051,4532.820512,4266.666666,4499.487179,4192.820512,4449.743589,4217.435897,4230.769230,4493.333333,4193.333333,4647.179487,3958.461539,4051.794871
68,4344.615384,4530.256410,4529.230769,4268.717948,4503.076923,4193.846153,4446.153846,4213.333333,4229.230769,4489.743589,4188.717948,4643.076923,3960.000000,4052.307692
69,4337.435897,4528.717948,4523.076923,4268.205128,4509.230769,4201.025641,4444.615384,4213.333333,4224.615384,4489.230769,4189.230769,4637.948717,3957.948718,4045.128205
70,4336.923076,4529.230769,4525.128205,4270.769230,4508.205128,4203.589743,4447.179487,4217.948717,4230.256410,4495.897435,4191.282051,4640.000000,3953.333334,4040.512820
71,4335.384615,4526.153846,4530.256410,4270.256410,4506.666666,4200.000000,4447.692307,4216.410256,4235.897435,4497.948717,4193.846153,4644.102564,3952.820513,4045.641025
72,4335.384615,4527.179487,4531.794871,4272.820512,4509.743589,4201.025641,4446.666666,4217.948717,4236.923076,4497.948717,4198.461538,4646.666666,3958.974359,4052.307692
73,4338.974358,4537.948717,4532.307692,4277.435897,4509.743589,4202.564102,4446.153846,4218.461538,4239.487179,4500.000000,4195.384615,4649.743589,3964.102565,4055.384615
74,4334.871794,4540.512820,4527.692307,4274.871794,4507.179487,4195.384615,4443.589743,4208.205128,4231.794871,4492.820512,4186.153846,4646.666666,3961.025642,4050.769230
75,4329.230769,4529.743589,4522.051282,4269.743589,4505.128205,4188.717948,4438.974358,4200.512820,4221.538461,4481.025641,4188.205128,4638.461538,3955.897436,4044.102564
76,4336.410256,4531.282051,4527.179487,4275.384615,4506.153846,4195.384615,4440.000000,4206.666666,4228.717948,4486.153846,4197.435897,4642.051282,3956.923077,4048.717948
77,4345.641025,4547.179487,4534.871794,4284.615384,4510.256410,4204.102564,4445.128205,4217.948717,4241.025641,4497.948717,4197.948717,4652.307692,3966.153847,4059.487179
78,4339.487179,4540.000000,4529.230769,4277.948717,4512.307692,4201.025641,4445.641025,4213.846153,4233.333333,4493.333333,4185.641025,4648.717948,3967.179488,4052.307692
79,4336.923076,4523.589743,4522.564102,4269.230769,4506.153846,4196.410256,4439.487179,4202.051282,4221.025641,4485.128205,4181.538461,4640.512820,3954.871795,4040.512820
80,4347.179487,4530.769230,4527.692307,4274.871794,4507.692307,4201.538461,4441.025641,4205.641025,4225.128205,4492.820512,4193.333333,4646.666666,3956.410257,4048.717948
81,4353.333333,4548.205128,4532.820512,4282.564102,4515.897435,4206.153846,4455.384615,4218.461538,4233.333333,4498.461538,4196.410256,4653.846153,3968.717949,4058.461538
82,4352.307692,4547.692307,4531.282051,4282.564102,4515.897435,4204.102564,4457.435897,4218.974358,4236.410256,4493.846153,4189.743589,4651.282051,3967.179488,4053.846153
83,4354.358974,4535.897435,4529.230769,4276.923076,4516.410256,4206.153846,4448.717948,4213.846153,4238.461538,4495.897435,4195.384615,4650.769230,3963.076924,4051.282051
84,4362.051282,4537.948717,4531.794871,4278.461538,4518.461538,4212.307692,4452.307692,4216.410256,4242.564102,4503.076923,4205.641025,4653.846153,3967.692308,4056.410256
85,4365.128205,4545.128205,4535.384615,4283.076923,4518.461538,4208.717948,4455.384615,4219.487179,4240.000000,4502.564102,4196.410256,4651.282051,3965.128206,4056.410256
86,4353.846153,4536.410256,4531.282051,4275.897435,4515.897435,4198.974358,4445.641025,4213.846153,4229.230769,4496.923076,4180.000000,4643.076923,3955.384616,4047.692307
87,4338.461538,4524.102564,4518.974358,4264.102564,4509.743589,4197.435897,4439.487179,4207.179487,4223.589743,4492.820512,4181.538461,4636.410256,3951.794872,4038.974358
88,4340.000000,4530.256410,4518.974358,4267.692307,4506.153846,4199.487179,4443.589743,4210.256410,4230.256410,4493.846153,4196.410256,4642.051282,3956.410257,4043.076923
89,4353.333333,4546.153846,4530.769230,4281.025641,4511.794871,4201.025641,4446.666666,4217.435897,4239.487179,4504.102564,4202.051282,4654.358974,3965.641026,4056.923076
90,4350.256410,4546.666666,4534.871794,4283.589743,4513.333333,4202.564102,4446.666666,4216.923076,4240.000000,4511.282051,4197.948717,4655.897435,3967.692308,4058.974358
91,4334.358974,4537.948717,4527.179487,4274.871794,4506.153846,4199.487179,4443.589743,4211.794871,4234.358974,4504.102564,4193.846153,4648.205128,3960.512821,4046.666666
92,4332.820512,4537.435897,4518.974358,4267.179487,4506.153846,4198.461538,4441.025641,4207.179487,4234.871794,4497.435897,4192.307692,4645.128205,3960.000000,4044.102564
93,4341.538461,4541.538461,4522.564102,4268.205128,4507.179487,4200.512820,4443.589743,4210.769230,4236.923076,4497.435897,4190.769230,4646.666666,3961.025642,4054.871794
94,4335.897435,4536.410256,4523.076923,4266.153846,4504.615384,4197.435897,4443.076923,4212.307692,4225.641025,4490.769230,4183.076923,4642.564102,3956.923077,4052.307692
95,4328.717948,4527.179487,4516.923076,4260.512820,4505.641025,4193.846153,4440.000000,4202.051282,4218.461538,4481.025641,4176.410256,4636.410256,3955.384616,4040.512820
96,4338.461538,4529.743589,4520.512820,4268.717948,4507.179487,4198.461538,4441.538461,4198.461538,4225.641025,4482.051282,4180.000000,4643.076923,3957.435898,4043.076923
97,4347.179487,4537.435897,4526.153846,4275.897435,4506.153846,4203.076923,4444.615384,4204.615384,4225.641025,4491.794871,4184.102564,4652.820512,3955.384616,4049.230769
98,4343.076923,4535.897435,4520.000000,4270.256410,4506.666666,4202.051282,4444.615384,4207.692307,4221.538461,4494.358974,4181.025641,4650.256410,3953.333334,4045.641025
99,4340.000000,4531.794871,4517.435897,4271.282051,4505.128205,4198.974358,4444.615384,4207.692307,4225.128205,4489.230769,4175.897435,4646.666666,3956.410257,4045.128205
100,4346.153846,4538.461538,4524.615384,4281.025641,4507.179487,4201.025641,4446.153846,4206.666666,4225.641025,4490.769230,4176.923076,4651.794871,3960.512821,4048.205128
101,4353.333333,4549.743589,4530.256410,4283.076923,4514.871794,4209.230769,4449.743589,4207.179487,4223.076923,4500.512820,4186.153846,4656.410256,3967.179488,4049.230769
102,4358.974358,4553.846153,4536.923076,4284.102564,4514.358974,4209.743589,4456.923076,4211.282051,4231.282051,4502.564102,4200.512820,4662.051282,3973.333334,4058.461538
103,4361.025641,4554.358974,4537.435897,4289.230769,4509.230769,4207.179487,4458.974358,4214.871794,4236.923076,4502.564102,4203.589743,4667.179487,3973.846154,4064.102564
104,4357.948717,4550.256410,4530.256410,4286.153846,4511.282051,4208.717948,4449.743589,4210.256410,4229.230769,4504.102564,4195.384615,4662.564102,3969.230770,4056.923076
105,4355.897435,4542.564102,4526.153846,4280.512820,4512.820512,4207.692307,4443.589743,4203.076923,4221.025641,4497.435897,4189.230769,4655.384615,3963.076924,4051.282051
106,4358.974358,4543.076923,4527.179487,4278.461538,4507.692307,4201.538461,4444.102564,4204.615384,4223.076923,4493.846153,4186.666666,4653.846153,3961.025642,4051.794871
107,4364.102564,4549.230769,4532.820512,4282.051282,4504.102564,4198.974358,4446.666666,4210.256410,4231.282051,4502.051282,4195.897435,4660.000000,3967.692308,4055.897435
108,4365.128205,4549.743589,4538.974358,4287.179487,4511.282051,4208.717948,4452.307692,4211.794871,4231.794871,4505.641025,4206.666666,4665.641025,3975.897436,4062.564102
109,4362.051282,4550.256410,4542.051282,4289.230769,4517.435897,4213.846153,4457.435897,4210.256410,4227.179487,4503.589743,4203.076923,4667.692307,3975.897436,4065.641025
110,4356.410256,4552.820512,4541.025641,4284.615384,4513.333333,4207.692307,4456.410256,4210.769230,4231.282051,4502.564102,4199.487179,4667.692307,3974.871795,4064.102564
111,4353.333333,4555.897435,4541.538461,4283.076923,4506.666666,4203.076923,4456.410256,4209.743589,4239.487179,4501.025641,4209.743589,4670.256410,3979.487180,4067.179487
112,4351.794871,4555.897435,4543.076923,4288.717948,4509.230769,4208.205128,4458.974358,4212.820512,4239.487179,4506.153846,4216.923076,4674.358974,3984.615385,4071.794871
113,4346.153846,4548.205128,4537.435897,4287.179487,4510.256410,4206.153846,4454.358974,4218.974358,4236.410256,4513.333333,4210.769230,4672.307692,3983.076924,4065.641025
114,4340.512820,4540.512820,4530.256410,4281.538461,4504.102564,4197.435897,4445.641025,4213.333333,4231.282051,4504.615384,4205.641025,4662.564102,3972.307693,4055.384615
115,4337.948717,4540.512820,4526.666666,4276.923076,4504.615384,4198.461538,4442.051282,4201.025641,4223.076923,4492.307692,4202.564102,4653.846153,3962.051283,4051.282051
116,4336.923076,4537.435897,4526.666666,4271.282051,4508.205128,4200.512820,4443.076923,4201.025641,4220.512820,4494.358974,4196.923076,4656.410256,3963.076924,4050.769230
117,4344.102564,4535.384615,4531.282051,4274.871794,4502.564102,4196.410256,4444.615384,4212.307692,4229.743589,4505.128205,4200.000000,4664.615384,3969.743590,4052.820512
118,4351.282051,4542.051282,4534.871794,4282.051282,4497.948717,4194.358974,4445.128205,4213.333333,4236.923076,4503.076923,4200.512820,4663.076923,3968.717949,4055.897435
119,4346.153846,4541.538461,4528.205128,4279.487179,4500.512820,4195.897435,4444.615384,4201.025641,4230.256410,4491.282051,4188.717948,4654.358974,3960.512821,4049.230769
120,4338.974358,4537.435897,4526.153846,4274.871794,4503.076923,4199.487179,4444.615384,4199.487179,4223.076923,4493.333333,4189.743589,4651.282051,3960.000000,4044.615384
121,4336.923076,4538.461538,4531.282051,4276.410256,4503.076923,4200.512820,4446.153846,4208.717948,4223.589743,4497.435897,4204.102564,4652.820512,3966.153847,4050.256410
122,4328.205128,4533.846153,4527.692307,4273.846153,4501.538461,4198.974358,4447.179487,4212.307692,4227.692307,4490.256410,4203.076923,4653.333333,3966.666667,4048.717948
123,4318.974358,4529.743589,4520.000000,4267.179487,4500.000000,4197.435897,4445.128205,4207.179487,4232.820512,4487.692307,4198.974358,4652.307692,3961.538462,4038.974358
124,4322.051282,4534.358974,4522.051282,4265.128205,4503.076923,4198.461538,4443.076923,4200.512820,4231.282051,4493.846153,4198.974358,4650.769230,3955.384616,4038.461538
125,4327.692307,4538.461538,4525.641025,4269.230769,4504.102564,4197.948717,4442.051282,4197.948717,4223.589743,4495.897435,4190.769230,4649.230769,3954.358975,4044.615384
126,4328.717948,4537.948717,4524.102564,4274.358974,4501.538461,4195.897435,4442.051282,4197.948717,4222.051282,4493.846153,4187.179487,4650.769230,3958.974359,4045.641025
127,4335.384615,4538.974358,4526.153846,4280.000000,4502.564102,4197.948717,4442.564102,4198.461538,4226.153846,4489.743589,4197.435897,4654.871794,3967.692308,4047.179487
128,4347.179487,4542.051282,4529.743589,4279.487179,4504.615384,4201.538461,4444.102564,4200.000000,4225.128205,4489.743589,4203.589743,4659.487179,3974.358975,4053.333333
129,4352.307692,4543.076923,4527.179487,4274.358974,4503.076923,4201.025641,4444.102564,4207.179487,4226.153846,4501.025641,4200.512820,4660.512820,3972.307693,4055.384615
130,4349.743589,4537.948717,4524.615384,4274.358974,4506.666666,4200.000000,4447.179487,4213.333333,4234.871794,4506.666666,4199.487179,4658.974358,3970.769231,4052.820512
131,4348.717948,4537.435897,4529.743589,4281.538461,4510.769230,4203.076923,4453.846153,4212.307692,4235.897435,4498.974358,4204.615384,4660.000000,3974.871795,4054.871794
132,4354.871794,4548.717948,4537.435897,4290.769230,4508.205128,4206.666666,4455.897435,4212.820512,4233.333333,4502.051282,4210.256410,4664.615384,3980.000000,4063.589743
133,4352.820512,4548.717948,4534.871794,4288.717948,4503.076923,4200.512820,4449.230769,4212.307692,4231.282051,4507.179487,4207.692307,4659.487179,3974.871795,4062.564102
134,4341.025641,4534.358974,4526.666666,4276.923076,4502.564102,4192.820512,4442.051282,4202.564102,4221.025641,4494.358974,4201.025641,4649.743589,3967.692308,4048.717948
135,4343.589743,4531.794871,4527.692307,4275.897435,4501.025641,4192.307692,4443.076923,4197.435897,4212.820512,4486.666666,4200.512820,4650.769230,3966.666667,4047.179487
136,4356.410256,4538.461538,4530.256410,4283.076923,4497.435897,4195.384615,4446.153846,4203.076923,4216.923076,4492.307692,4202.564102,4653.846153,3962.564103,4055.897435
137,4353.846153,4537.435897,4525.128205,4280.000000,4496.923076,4196.410256,4443.589743,4201.538461,4221.538461,4490.256410,4199.487179,4650.256410,3955.384616,4050.256410
138,4350.256410,4535.897435,4524.102564,4274.358974,4497.948717,4194.871794,4440.000000,4197.948717,4220.512820,4488.717948,4192.820512,4649.230769,3958.974359,4044.102564
139,4359.487179,4540.000000,4530.769230,4277.948717,4501.025641,4196.923076,4447.179487,4208.205128,4225.128205,4492.307692,4193.333333,4654.871794,3967.692308,4054.358974
140,4363.589743,4535.897435,4530.256410,4277.948717,4504.102564,4200.512820,4457.948717,4213.846153,4224.102564,4488.205128,4198.974358,4653.846153,3963.589744,4056.923076
141,4358.974358,4529.230769,4525.641025,4275.384615,4502.051282,4201.025641,4458.461538,4211.794871,4222.051282,4492.820512,4203.076923,4650.256410,3959.487180,4048.205128
142,4361.025641,4534.871794,4528.717948,4280.000000,4501.025641,4198.974358,4457.435897,4216.923076,4238.461538,4508.717948,4206.153846,4652.820512,3969.230770,4054.358974
143,4360.000000,4538.461538,4530.769230,4281.025641,4504.615384,4200.512820,4458.974358,4217.435897,4242.564102,4507.692307,4203.589743,4651.282051,3974.358975,4058.461538
144,4346.666666,4529.743589,4520.000000,4272.307692,4503.589743,4200.512820,4453.846153,4208.205128,4223.589743,4491.282051,4191.794871,4641.025641,3963.076924,4043.589743
145,4338.461538,4524.102564,4515.384615,4265.641025,4502.051282,4199.487179,4450.769230,4206.153846,4216.923076,4485.128205,4182.564102,4634.358974,3953.846154,4036.410256
146,4343.076923,4530.256410,4524.102564,4268.717948,4508.205128,4203.076923,4454.358974,4210.256410,4227.179487,4493.333333,4185.128205,4639.487179,3957.948718,4045.641025
147,4350.769230,4537.435897,4529.230769,4273.846153,4507.179487,4202.564102,4450.256410,4208.717948,4228.717948,4498.461538,4191.794871,4647.179487,3960.000000,4048.205128
148,4351.794871,4535.384615,4529.743589,4274.871794,4496.923076,4196.923076,4441.538461,4205.641025,4228.717948,4493.333333,4198.974358,4647.692307,3960.512821,4043.589743
149,4348.717948,4533.333333,4531.794871,4276.923076,4495.897435,4195.384615,4445.641025,4209.230769,4231.794871,4495.384615,4207.692307,4646.666666,3968.717949,4046.153846
150,4350.256410,4536.410256,4534.871794,4278.461538,4498.974358,4197.948717,4458.461538,4213.846153,4229.743589,4504.102564,4208.205128,4651.794871,3973.333334,4050.256410
151,4351.794871,4535.384615,4533.333333,4277.948717,4495.897435,4201.025641,4458.974358,4212.307692,4227.179487,4502.564102,4201.025641,4651.794871,3964.615385,4047.179487
152,4345.641025,4524.102564,4527.179487,4273.846153,4497.435897,4202.564102,4447.179487,4205.128205,4221.538461,4491.794871,4194.871794,4639.487179,3954.871795,4041.538461
153,4338.974358,4517.948717,4521.538461,4265.128205,4501.538461,4196.923076,4443.589743,4201.538461,4215.384615,4481.025641,4194.358974,4632.820512,3953.846154,4038.461538
154,4343.589743,4525.128205,4525.128205,4266.666666,4495.897435,4192.307692,4454.871794,4207.179487,4222.564102,4482.564102,4197.435897,4640.512820,3960.000000,4041.538461
155,4351.794871,4528.717948,4529.230769,4274.358974,4489.743589,4196.410256,4461.025641,4213.846153,4229.230769,4494.358974,4199.487179,4645.128205,3964.102565,4046.666666
156,4352.820512,4527.179487,4523.589743,4273.333333,4492.307692,4196.410256,4456.923076,4216.923076,4224.102564,4497.435897,4201.025641,4642.564102,3959.487180,4047.692307
157,4350.769230,4530.769230,4523.076923,4270.769230,4496.410256,4193.846153,4456.923076,4215.384615,4221.025641,4493.846153,4202.051282,4641.025641,3960.000000,4047.692307
158,4353.846153,4536.923076,4525.128205,4272.307692,4495.897435,4197.435897,4459.487179,4214.871794,4229.743589,4498.461538,4200.512820,4644.615384,3971.282052,4049.743589
159,4353.846153,4540.512820,4522.564102,4272.820512,4498.974358,4202.051282,4452.820512,4218.461538,4237.435897,4507.692307,4203.589743,4646.666666,3970.256411,4052.307692
160,4344.615384,4535.897435,4520.000000,4270.256410,4500.512820,4200.512820,4443.589743,4215.897435,4233.846153,4504.615384,4205.128205,4641.538461,3956.410257,4048.717948
161,4336.923076,4526.666666,4518.461538,4268.717948,4494.871794,4193.846153,4442.051282,4208.205128,4225.641025,4493.333333,4194.358974,4635.897435,3957.435898,4045.128205
162,4337.948717,4530.769230,4520.512820,4271.282051,4494.358974,4193.333333,4443.076923,4207.179487,4220.000000,4487.692307,4186.153846,4636.410256,3965.128206,4046.153846
163,4338.974358,4537.948717,4523.076923,4271.282051,4497.948717,4196.923076,4441.538461,4207.179487,4218.461538,4484.615384,4193.846153,4638.461538,3956.410257,4048.717948
164,4338.974358,4532.307692,4521.538461,4268.717948,4496.923076,4194.358974,4444.102564,4202.564102,4220.512820,4486.153846,4201.025641,4636.923076,3952.307693,4046.666666
165,4340.512820,4528.205128,4522.564102,4270.256410,4493.846153,4191.282051,4445.641025,4206.666666,4223.589743,4496.410256,4197.948717,4638.461538,3966.153847,4048.205128
166,4344.102564,4537.435897,4530.769230,4277.435897,4497.435897,4198.974358,4443.076923,4211.794871,4229.743589,4503.589743,4195.897435,4645.641025,3976.410257,4057.948717
167,4351.282051,4541.025641,4534.358974,4282.564102,4502.564102,4205.128205,4448.717948,4212.820512,4235.384615,4504.102564,4205.641025,4650.256410,3976.923077,4064.615384
168,4353.846153,4536.923076,4530.769230,4278.974358,4505.641025,4202.564102,4461.025641,4212.307692,4232.307692,4501.025641,4211.282051,4648.205128,3971.794872,4058.974358
169,4350.769230,4537.435897,4529.230769,4273.846153,4508.717948,4203.076923,4457.435897,4206.666666,4227.692307,4496.410256,4206.153846,4644.615384,3964.102565,4052.307692
170,4353.333333,4537.435897,4528.205128,4274.358974,4505.128205,4205.128205,4447.179487,4203.076923,4226.666666,4498.461538,4203.076923,4645.641025,3965.128206,4053.333333
171,4358.461538,4536.923076,4531.794871,4277.435897,4505.128205,4205.641025,4452.307692,4208.717948,4231.282051,4505.641025,4205.128205,4648.717948,3972.307693,4055.897435
172,4358.461538,4539.487179,4533.846153,4277.948717,4510.256410,4205.641025,4462.564102,4215.384615,4235.384615,4501.025641,4204.102564,4648.205128,3974.871795,4057.435897
173,4356.923076,4531.794871,4529.743589,4272.820512,4509.230769,4202.564102,4458.974358,4211.794871,4230.769230,4492.820512,4200.512820,4641.025641,3967.179488,4052.820512
174,4359.487179,4520.512820,4526.666666,4267.179487,4501.025641,4198.974358,4452.820512,4204.615384,4225.128205,4492.307692,4202.564102,4636.923076,3958.974359,4047.179487
175,4363.076923,4528.205128,4528.205128,4269.743589,4497.435897,4198.974358,4456.410256,4206.666666,4231.282051,4490.769230,4201.538461,4642.051282,3961.025642,4049.743589
176,4361.025641,4537.435897,4530.769230,4274.871794,4504.102564,4200.000000,4459.487179,4212.307692,4234.358974,4490.256410,4197.948717,4644.615384,3966.666667,4053.846153
177,4355.384615,4528.717948,4530.256410,4273.333333,4507.179487,4202.051282,4456.923076,4208.205128,4226.153846,4491.282051,4198.974358,4637.948717,3961.538462,4047.179487
178,4354.358974,4529.230769,4530.256410,4273.333333,4506.666666,4205.641025,4456.923076,4204.615384,4224.102564,4494.871794,4206.153846,4642.564102,3957.948718,4046.666666
179,4358.461538,4543.076923,4532.307692,4281.538461,4508.205128,4205.128205,4457.948717,4211.794871,4234.358974,4500.000000,4210.769230,4655.384615,3967.692308,4059.487179
180,4357.435897,4543.589743,4539.487179,4282.564102,4507.692307,4204.615384,4457.948717,4214.358974,4240.512820,4496.923076,4203.589743,4652.820512,3972.820513,4062.564102
181,4354.358974,4536.410256,4540.000000,4278.974358,4507.692307,4207.692307,4457.948717,4209.743589,4237.435897,4496.923076,4202.051282,4645.641025,3972.307693,4057.948717
182,4354.871794,4541.025641,4535.897435,4280.000000,4510.769230,4207.179487,4456.923076,4210.769230,4234.358974,4508.717948,4210.769230,4647.692307,3977.435898,4060.512820
183,4357.435897,4551.282051,4538.461538,4282.564102,4509.230769,4206.153846,4456.923076,4212.307692,4237.948717,4514.358974,4213.846153,4651.794871,3982.564103,4067.179487
184,4360.512820,4554.358974,4542.051282,4286.153846,4508.205128,4209.743589,4461.025641,4209.743589,4241.025641,4511.794871,4212.820512,4653.333333,3985.128206,4072.820512
185,4356.923076,4548.717948,4536.923076,4284.102564,4510.769230,4206.666666,4457.435897,4206.666666,4236.410256,4511.794871,4215.897435,4651.282051,3986.666667,4070.256410
186,4347.692307,4542.051282,4531.794871,4278.461538,4507.692307,4198.461538,4448.205128,4203.589743,4228.717948,4506.153846,4212.307692,4646.666666,3981.025642,4060.000000
187,4346.153846,4540.000000,4533.333333,4276.410256,4503.589743,4200.000000,4445.641025,4203.076923,4224.615384,4497.435897,4208.717948,4645.128205,3975.897436,4056.923076
188,4347.692307,4539.487179,4534.358974,4278.461538,4506.153846,4203.589743,4446.666666,4202.564102,4223.589743,4498.461538,4213.846153,4645.641025,3971.794872,4058.461538
189,4344.615384,4536.410256,4532.307692,4275.897435,4500.000000,4194.871794,4444.615384,4205.641025,4224.102564,4500.000000,4209.230769,4644.102564,3964.615385,4055.384615
190,4344.102564,4529.230769,4531.794871,4268.205128,4493.846153,4192.307692,4444.615384,4205.641025,4225.128205,4495.384615,4196.410256,4644.615384,3963.589744,4052.820512
191,4344.102564,4520.512820,4527.179487,4261.538461,4497.948717,4196.923076,4445.128205,4198.461538,4217.435897,4489.230769,4196.923076,4640.512820,3963.076924,4048.205128
192,4340.000000,4519.487179,4521.025641,4262.564102,4495.897435,4192.820512,4443.076923,4198.974358,4214.358974,4487.179487,4202.564102,4631.794871,3955.384616,4041.025641
193,4344.615384,4527.179487,4520.000000,4267.179487,4488.717948,4189.230769,4443.076923,4204.102564,4223.589743,4485.128205,4198.974358,4631.794871,3953.846154,4043.076923
194,4355.897435,4530.769230,4526.666666,4265.641025,4491.282051,4193.333333,4444.615384,4203.589743,4225.128205,4485.128205,4197.948717,4638.461538,3964.102565,4049.743589
195,4357.948717,4534.358974,4529.743589,4268.205128,4498.461538,4195.897435,4444.615384,4204.615384,4223.076923,4494.358974,4208.205128,4644.102564,3975.384616,4056.923076
196,4357.948717,4544.615384,4531.282051,4277.948717,4502.564102,4196.410256,4446.153846,4214.358974,4232.307692,4505.128205,4216.410256,4649.230769,3982.051283,4065.641025
197,4359.487179,4548.205128,4533.846153,4284.102564,4509.743589,4204.102564,4453.846153,4222.051282,4240.512820,4508.717948,4209.230769,4651.282051,3983.589744,4066.153846
198,4356.410256,4538.974358,4532.307692,4279.487179,4509.743589,4210.769230,4460.512820,4219.487179,4236.410256,4505.641025,4204.615384,4649.230769,3981.538462,4060.000000
199,4351.282051,4534.358974,4527.692307,4276.923076,4504.102564,4205.128205,4458.974358,4216.410256,4236.410256,4506.666666,4217.948717,4648.205128,3976.410257,4059.487179
200,4352.307692,4538.461538,4526.153846,4278.461538,4505.128205,4203.076923,4457.435897,4217.948717,4237.948717,4509.230769,4225.128205,4646.666666,3972.307693,4058.974358
201,4356.923076,4536.410256,4526.666666,4277.435897,4507.692307,4207.692307,4458.974358,4219.487179,4232.307692,4507.692307,4212.820512,4643.589743,3974.358975,4052.307692
202,4357.948717,4535.384615,4528.205128,4278.974358,4506.153846,4209.230769,4460.000000,4220.000000,4230.769230,4506.666666,4211.794871,4647.179487,3980.512821,4056.923076
203,4357.435897,4537.435897,4528.717948,4280.512820,4506.666666,4204.102564,4459.487179,4220.000000,4235.384615,4510.256410,4222.051282,4653.333333,3986.666667,4066.666666
204,4354.871794,4536.923076,4525.641025,4277.435897,4504.102564,4201.538461,4458.974358,4215.384615,4233.846153,4507.179487,4212.820512,4650.769230,3980.512821,4061.025641
205,4355.384615,4536.923076,4522.564102,4276.923076,4496.410256,4202.564102,4456.923076,4205.128205,4225.641025,4496.923076,4196.410256,4644.615384,3963.589744,4052.307692
206,4363.589743,4538.974358,4526.153846,4286.153846,4497.435897,4201.025641,4456.410256,4204.102564,4224.615384,4503.076923,4200.000000,4645.641025,3961.025642,4057.948717
207,4369.743589,4540.000000,4533.846153,4289.230769,4503.076923,4201.025641,4457.435897,4214.358974,4235.897435,4515.384615,4215.384615,4649.743589,3972.820513,4065.128205
208,4366.153846,4540.000000,4535.384615,4282.564102,4503.076923,4205.641025,4459.487179,4218.461538,4238.461538,4512.307692,4220.000000,4650.256410,3975.384616,4065.128205
209,4362.051282,4540.512820,4532.307692,4278.974358,4501.538461,4209.743589,4462.051282,4213.333333,4231.794871,4508.717948,4214.358974,4651.794871,3975.897436,4064.102564
210,4365.641025,4539.487179,4531.794871,4283.589743,4503.589743,4208.717948,4461.025641,4214.358974,4231.794871,4509.743589,4209.743589,4654.871794,3980.512821,4065.128205
211,4372.307692,4541.538461,4534.871794,4289.743589,4505.128205,4207.179487,4459.487179,4215.384615,4231.794871,4507.179487,4213.333333,4655.897435,3980.000000,4070.769230
212,4376.923076,4547.179487,4535.897435,4287.692307,4500.512820,4202.564102,4457.948717,4208.205128,4225.641025,4506.666666,4217.948717,4654.871794,3974.358975,4074.358974
213,4370.256410,4541.025641,4527.179487,4278.461538,4491.282051,4193.846153,4449.230769,4200.000000,4220.512820,4503.589743,4210.769230,4649.230769,3965.641026,4061.538461
214,4362.564102,4531.794871,4519.487179,4273.846153,4487.692307,4193.846153,4443.076923,4196.410256,4217.435897,4496.410256,4197.948717,4645.128205,3964.102565,4052.307692
215,4368.717948,4536.410256,4523.589743,4278.974358,4494.871794,4200.000000,4444.615384,4202.051282,4220.512820,4502.051282,4203.076923,4649.230769,3971.794872,4060.512820
216,4379.487179,4542.051282,4528.717948,4285.128205,4493.846153,4197.435897,4449.743589,4212.307692,4227.692307,4509.230769,4220.512820,4651.282051,3976.410257,4061.538461
217,4383.076923,4537.948717,4525.128205,4284.615384,4489.743589,4197.435897,4454.871794,4215.384615,4231.282051,4504.102564,4222.564102,4649.743589,3979.487180,4058.974358
218,4389.743589,4542.051282,4530.769230,4282.051282,4497.435897,4203.589743,4460.512820,4219.487179,4236.923076,4508.717948,4214.871794,4652.307692,3987.179488,4069.743589
219,4404.615384,4551.794871,4544.102564,4283.589743,4502.564102,4203.076923,4463.589743,4229.743589,4248.717948,4521.538461,4221.025641,4663.589743,3992.820513,4081.025641
220,4408.205128,4544.615384,4541.538461,4283.589743,4497.948717,4201.025641,4459.487179,4227.692307,4244.615384,4516.410256,4227.179487,4667.179487,3988.205129,4075.384615
221,4401.538461,4533.333333,4534.358974,4279.487179,4492.820512,4201.025641,4454.871794,4214.358974,4234.871794,4509.230769,4226.666666,4658.974358,3975.897436,4065.128205
222,4402.051282,4536.923076,4537.435897,4279.487179,4493.333333,4201.025641,4457.435897,4215.384615,4243.589743,4514.871794,4223.589743,4655.384615,3969.743590,4062.564102
223,4401.025641,4538.974358,4533.846153,4281.538461,4493.333333,4198.461538,4455.384615,4218.461538,4244.615384,4514.871794,4210.256410,4654.358974,3974.358975,4060.000000
224,4395.384615,4533.333333,4528.205128,4278.461538,4491.794871,4197.948717,4450.256410,4212.307692,4234.358974,4507.692307,4202.564102,4652.307692,3979.487180,4061.538461
225,4398.461538,4538.974358,4538.461538,4280.000000,4493.846153,4203.589743,4457.435897,4215.384615,4243.589743,4511.794871,4217.948717,4661.025641,3988.717949,4074.358974
226,4401.538461,4552.307692,4543.589743,4285.641025,4502.051282,4206.153846,4461.538461,4223.589743,4253.846153,4518.461538,4225.641025,4667.692307,3993.846154,4080.512820
227,4392.307692,4549.230769,4531.794871,4286.153846,4500.512820,4197.948717,4450.256410,4216.923076,4243.589743,4511.282051,4214.358974,4658.974358,3981.025642,4071.282051
228,4388.717948,4545.128205,4531.282051,4290.256410,4494.871794,4197.948717,4452.307692,4214.358974,4242.051282,4509.230769,4218.974358,4654.358974,3976.410257,4068.205128
229,4386.666666,4550.256410,4536.410256,4294.871794,4503.589743,4209.743589,4463.076923,4217.435897,4246.666666,4512.307692,4224.615384,4656.923076,3983.589744,4069.230769
230,4378.974358,4545.641025,4530.769230,4288.205128,4506.666666,4210.256410,4454.358974,4206.666666,4235.897435,4506.666666,4210.256410,4648.717948,3976.923077,4062.051282
231,4376.410256,4539.487179,4530.256410,4281.538461,4497.435897,4202.051282,4445.128205,4203.589743,4231.282051,4500.512820,4204.615384,4642.051282,3969.230770,4060.512820
232,4378.974358,4544.102564,4537.948717,4281.025641,4497.435897,4200.512820,4449.743589,4213.846153,4235.384615,4502.564102,4214.358974,4649.230769,3974.871795,4066.153846
233,4387.692307,4549.230769,4541.538461,4286.153846,4500.000000,4205.128205,4449.743589,4211.794871,4237.435897,4509.743589,4221.538461,4657.435897,3980.000000,4069.743589
234,4394.871794,4547.692307,4538.974358,4291.282051,4492.307692,4202.564102,4443.589743,4203.076923,4233.846153,4508.717948,4219.487179,4654.871794,3976.410257,4070.769230
235,4382.564102,4543.076923,4526.666666,4282.564102,4487.179487,4190.256410,4440.000000,4194.358974,4218.974358,4492.820512,4204.615384,4640.000000,3964.102565,4060.000000
236,4366.666666,4536.410256,4515.897435,4269.230769,4487.179487,4188.717948,4441.538461,4187.692307,4206.666666,4482.564102,4188.717948,4626.666666,3950.769231,4045.128205
237,4373.846153,4534.871794,4523.076923,4272.820512,4486.666666,4193.846153,4442.564102,4190.256410,4215.384615,4492.820512,4193.846153,4630.256410,3955.897436,4050.769230
238,4384.615384,4541.025641,4530.256410,4281.025641,4489.230769,4192.820512,4444.615384,4194.871794,4224.102564,4499.487179,4208.205128,4638.461538,3969.230770,4063.076923
239,4378.974358,4542.564102,4528.205128,4278.461538,4491.282051,4191.282051,4443.589743,4191.282051,4215.384615,4489.230769,4202.051282,4636.923076,3971.794872,4060.512820
240,4373.333333,4539.487179,4521.538461,4277.435897,4486.153846,4188.205128,4435.897435,4185.641025,4210.256410,4481.538461,4189.743589,4632.820512,3965.128206,4052.820512
241,4374.358974,4542.564102,4521.538461,4280.000000,4478.974358,4185.128205,4432.820512,4190.769230,4212.820512,4484.102564,4199.487179,4634.358974,3961.025642,4053.846153
242,4377.435897,4553.846153,4525.641025,4281.025641,4482.051282,4187.692307,4439.487179,4196.923076,4213.846153,4489.230769,4216.410256,4636.923076,3965.128206,4056.923076
243,4378.461538,4556.410256,4523.589743,4282.564102,4490.769230,4191.794871,4443.589743,4195.897435,4216.410256,4495.897435,4212.820512,4641.025641,3969.230770,4057.948717
244,4374.871794,4545.641025,4520.000000,4280.512820,4491.282051,4192.820512,4440.512820,4193.846153,4217.435897,4498.461538,4197.948717,4640.512820,3967.692308,4057.435897
245,4373.333333,4543.589743,4524.102564,4276.923076,4488.717948,4197.435897,4441.538461,4196.410256,4212.820512,4493.333333,4198.461538,4638.974358,3964.102565,4056.923076
246,4381.025641,4555.384615,4528.205128,4282.051282,4495.384615,4203.076923,4451.282051,4206.153846,4218.461538,4497.435897,4209.230769,4645.641025,3970.769231,4061.538461
247,4391.282051,4567.692307,4531.794871,4294.358974,4502.051282,4206.153846,4458.974358,4218.461538,4232.307692,4509.743589,4215.897435,4655.384615,3982.051283,4071.794871
248,4390.769230,4563.589743,4538.461538,4294.871794,4499.487179,4208.205128,4462.051282,4223.589743,4232.820512,4509.743589,4218.461538,4657.948717,3981.025642,4075.384615
249,4383.076923,4546.666666,4535.897435,4282.051282,4493.846153,4201.538461,4461.025641,4214.871794,4226.666666,4500.000000,4218.974358,4652.820512,3969.743590,4069.230769
250,4378.974358,4543.076923,4531.282051,4276.410256,4492.820512,4197.435897,4454.358974,4201.538461,4219.487179,4494.871794,4210.256410,4647.692307,3964.102565,4063.076923
251,4382.051282,4554.871794,4533.846153,4282.051282,4493.333333,4200.512820,4447.692307,4199.487179,4211.282051,4495.897435,4205.641025,4645.128205,3969.743590,4062.051282
252,4389.230769,4555.384615,4533.846153,4284.615384,4491.282051,4200.512820,4449.230769,4207.179487,4213.333333,4497.948717,4212.820512,4644.102564,3975.384616,4064.102564
253,4390.769230,4542.051282,4526.666666,4278.974358,4489.230769,4195.897435,4449.230769,4210.256410,4215.384615,4495.897435,4210.256410,4641.025641,3972.307693,4063.076923
254,4392.820512,4541.025641,4523.589743,4276.923076,4490.769230,4194.871794,4449.230769,4207.692307,4212.307692,4496.410256,4203.076923,4640.512820,3970.256411,4062.564102
255,4405.641025,4552.820512,4533.846153,4283.076923,4495.384615,4198.461538,4458.461538,4214.358974,4224.615384,4510.769230,4214.358974,4650.769230,3982.564103,4072.820512
