,AF3,F7,F3,FC5,T7,P7,O1,O2,P8,T8,FC6,F4,F8,AF4
0,4419.487179,4520.000000,4519.487179,4278.974358,4498.461538,4186.153846,4437.435897,4216.410256,4115.897435,4494.871794,4233.846153,4653.333333,3975.897436,4022.564102
1,4413.846153,4512.820512,4518.974358,4275.384615,4492.307692,4179.487179,4431.282051,4208.717948,4111.282051,4494.358974,4226.153846,4649.743589,3978.461539,4024.615384
2,4409.230769,4509.230769,4509.743589,4273.333333,4488.717948,4180.512820,4426.666666,4205.641025,4106.153846,4491.282051,4225.641025,4645.641025,3971.794872,4020.512820
3,4409.230769,4510.769230,4505.641025,4270.769230,4493.846153,4179.487179,4428.717948,4202.051282,4103.076923,4484.615384,4223.589743,4643.076923,3965.641026,4015.897435
4,4410.256410,4513.333333,4506.666666,4270.256410,4494.358974,4178.974358,4428.717948,4201.025641,4106.153846,4484.102564,4226.153846,4647.179487,3966.666667,4016.410256
5,4412.307692,4510.769230,4509.743589,4269.743589,4492.307692,4184.615384,4427.179487,4203.589743,4107.692307,4486.666666,4231.794871,4652.307692,3969.230770,4018.461538
6,4415.897435,4505.641025,4512.307692,4268.717948,4493.333333,4182.564102,4430.769230,4199.487179,4102.051282,4482.564102,4228.717948,4651.794871,3968.717949,4019.487179
7,4418.461538,4511.282051,4513.333333,4273.846153,4492.307692,4178.461538,4430.769230,4191.282051,4093.846153,4471.282051,4219.487179,4648.717948,3966.666667,4020.512820
8,4418.974358,4521.025641,4511.794871,4277.435897,4495.384615,4183.589743,4429.230769,4189.743589,4091.794871,4467.179487,4219.487179,4650.769230,3967.179488,4020.000000
9,4418.461538,4518.461538,4510.769230,4272.820512,4501.025641,4185.128205,4431.282051,4191.794871,4094.358974,4474.358974,4224.102564,4653.333333,3962.051283,4015.897435
10,4417.435897,4512.820512,4509.743589,4274.871794,4498.461538,4181.025641,4430.256410,4194.358974,4100.000000,4482.051282,4225.641025,4650.769230,3952.307693,4011.794871
11,4416.923076,4514.871794,4508.717948,4281.538461,4495.384615,4185.641025,4428.717948,4197.948717,4109.230769,4481.538461,4227.692307,4647.692307,3954.871795,4012.820512
12,4419.487179,4518.974358,4509.743589,4283.589743,4504.102564,4193.846153,4437.948717,4203.076923,4117.435897,4483.076923,4234.358974,4650.769230,3969.743590,4016.923076
13,4423.076923,4521.538461,4509.230769,4278.974358,4508.205128,4193.333333,4442.564102,4207.692307,4120.000000,4493.846153,4236.410256,4655.897435,3972.307693,4018.974358
14,4417.948717,4517.948717,4506.153846,4273.846153,4498.974358,4186.153846,4431.794871,4206.153846,4117.948717,4496.410256,4224.102564,4649.743589,3965.128206,4012.820512
15,4411.282051,4511.794871,4507.692307,4271.794871,4495.897435,4182.051282,4425.641025,4208.717948,4117.435897,4488.205128,4221.025641,4643.076923,3964.102565,4008.717948
16,4417.435897,4510.256410,4509.230769,4268.717948,4499.487179,4182.051282,4431.282051,4210.256410,4118.974358,4485.128205,4236.410256,4649.230769,3967.692308,4015.384615
17,4423.076923,4504.102564,4509.743589,4268.717948,4491.794871,4180.512820,4436.410256,4201.538461,4113.846153,4487.179487,4239.487179,4656.410256,3971.794872,4018.974358
18,4416.410256,4502.051282,4515.897435,4272.820512,4487.179487,4180.512820,4432.307692,4196.923076,4109.743589,4485.641025,4224.615384,4652.307692,3971.794872,4014.871794
19,4413.846153,4513.333333,4518.461538,4272.307692,4496.410256,4185.641025,4430.769230,4199.487179,4108.717948,4478.974358,4221.538461,4646.153846,3968.717949,4014.358974
20,4416.410256,4517.948717,4510.769230,4268.205128,4500.512820,4187.179487,4431.794871,4193.846153,4101.538461,4471.794871,4224.102564,4649.230769,3967.179488,4020.000000
21,4415.384615,4513.333333,4505.641025,4269.743589,4495.897435,4184.102564,4426.153846,4188.205128,4096.410256,4469.230769,4214.358974,4650.769230,3966.666667,4026.666666
22,4409.743589,4510.769230,4509.230769,4268.717948,4492.307692,4180.512820,4421.025641,4190.769230,4102.051282,4473.846153,4204.615384,4646.153846,3965.128206,4030.256410
23,4408.205128,4507.692307,4507.692307,4264.615384,4487.179487,4176.410256,4426.153846,4198.461538,4107.179487,4478.974358,4206.666666,4645.128205,3967.179488,4032.307692
24,4408.717948,4507.692307,4504.102564,4264.615384,4488.205128,4178.974358,4429.230769,4205.641025,4110.256410,4480.512820,4206.153846,4648.717948,3971.794872,4036.410256
25,4406.666666,4511.282051,4509.743589,4261.538461,4493.333333,4186.666666,4430.256410,4209.743589,4111.282051,4480.512820,4198.461538,4650.769230,3970.256411,4039.487179
26,4410.256410,4516.923076,4518.461538,4263.076923,4494.871794,4189.230769,4440.512820,4214.871794,4112.820512,4488.205128,4197.948717,4654.871794,3968.205129,4047.692307
27,4422.564102,4524.102564,4524.615384,4271.282051,4498.974358,4193.333333,4451.282051,4223.589743,4125.128205,4508.717948,4209.743589,4669.230769,3976.923077,4063.076923
28,4427.179487,4528.717948,4533.846153,4275.384615,4503.589743,4196.410256,4450.769230,4228.717948,4136.923076,4517.435897,4219.487179,4676.410256,3986.153847,4073.846153
29,4420.000000,4526.153846,4537.948717,4280.512820,4501.538461,4193.846153,4446.666666,4222.564102,4131.282051,4507.692307,4212.820512,4669.743589,3987.692308,4072.820512
30,4416.923076,4523.589743,4530.256410,4282.051282,4500.000000,4194.358974,4445.641025,4214.358974,4121.025641,4507.692307,4201.025641,4667.179487,3987.692308,4069.230769
31,4415.384615,4526.666666,4522.051282,4272.820512,4498.461538,4195.384615,4442.564102,4211.282051,4118.974358,4512.820512,4202.051282,4666.666666,3980.000000,4067.692307
32,4407.692307,4522.051282,4520.512820,4269.743589,4493.333333,4186.666666,4436.923076,4203.589743,4116.410256,4501.538461,4203.589743,4660.000000,3970.256411,4064.615384
33,4408.205128,4521.025641,4522.051282,4277.435897,4494.871794,4181.538461,4438.974358,4194.358974,4111.794871,4496.410256,4196.923076,4660.000000,3977.435898,4069.230769
34,4414.358974,4525.128205,4523.076923,4280.000000,4501.538461,4189.743589,4444.615384,4204.102564,4113.846153,4507.179487,4197.948717,4669.230769,3988.205129,4077.948717
35,4410.256410,4520.512820,4522.564102,4274.358974,4494.871794,4190.256410,4441.025641,4218.461538,4122.051282,4513.846153,4203.589743,4667.179487,3981.538462,4074.871794
36,4404.615384,4519.487179,4523.076923,4271.282051,4489.230769,4186.666666,4441.538461,4221.025641,4135.897435,4517.948717,4200.512820,4661.538461,3977.435898,4069.230769
37,4407.692307,4522.564102,4525.641025,4273.333333,4498.461538,4194.871794,4456.923076,4228.205128,4151.282051,4532.820512,4207.179487,4669.230769,3989.230770,4077.435897
38,4409.230769,4521.025641,4527.179487,4272.307692,4501.025641,4197.948717,4458.461538,4240.000000,4151.794871,4536.923076,4215.384615,4673.846153,3993.846154,4085.128205
39,4410.769230,4522.051282,4533.333333,4271.794871,4494.358974,4193.846153,4448.205128,4240.000000,4146.153846,4526.666666,4208.205128,4669.743589,3990.256411,4082.564102
40,4411.794871,4528.205128,4537.435897,4277.948717,4499.487179,4196.923076,4452.307692,4233.846153,4148.205128,4524.615384,4205.128205,4669.743589,3985.128206,4080.000000
41,4405.641025,4524.102564,4528.205128,4285.128205,4503.589743,4197.435897,4454.871794,4227.179487,4144.615384,4524.102564,4206.666666,4669.743589,3972.820513,4075.384615
42,4403.076923,4521.025641,4521.025641,4284.102564,4494.358974,4192.820512,4446.666666,4221.538461,4133.846153,4516.923076,4197.948717,4664.615384,3967.179488,4069.743589
43,4405.641025,4529.743589,4524.102564,4280.512820,4493.846153,4191.794871,4441.538461,4211.794871,4126.153846,4511.794871,4189.743589,4662.051282,3971.794872,4070.769230
44,4405.128205,4529.743589,4525.641025,4278.461538,4501.538461,4187.179487,4435.897435,4201.025641,4117.435897,4506.666666,4192.820512,4661.025641,3972.307693,4074.871794
45,4405.128205,4521.025641,4523.076923,4276.923076,4496.410256,4181.538461,4431.794871,4197.435897,4109.743589,4497.435897,4190.256410,4660.000000,3966.153847,4071.794871
46,4404.615384,4520.000000,4527.692307,4278.461538,4488.717948,4182.564102,4437.948717,4201.025641,4116.923076,4501.538461,4183.076923,4661.025641,3970.769231,4067.179487
47,4402.564102,4522.564102,4534.358974,4281.025641,4494.358974,4186.153846,4441.538461,4212.820512,4133.333333,4515.384615,4192.820512,4662.051282,3976.410257,4070.769230
48,4404.615384,4518.974358,4536.410256,4279.487179,4498.461538,4188.717948,4440.000000,4225.641025,4143.589743,4518.461538,4211.282051,4668.205128,3972.820513,4077.435897
49,4410.256410,4518.974358,4540.000000,4276.410256,4493.846153,4190.769230,4446.153846,4228.205128,4148.205128,4523.589743,4217.435897,4677.435897,3977.435898,4079.487179
50,4407.692307,4520.000000,4537.948717,4271.794871,4488.717948,4188.205128,4446.153846,4227.179487,4147.692307,4527.692307,4210.769230,4675.897435,3985.128206,4073.846153
51,4402.564102,4518.974358,4527.179487,4272.307692,4491.282051,4187.692307,4443.076923,4234.358974,4149.230769,4523.076923,4208.205128,4666.666666,3984.102565,4069.743589
52,4406.153846,4522.564102,4525.641025,4281.538461,4498.461538,4193.333333,4452.307692,4241.025641,4155.384615,4526.153846,4213.333333,4667.179487,3984.615385,4071.282051
53,4405.641025,4522.564102,4530.256410,4282.564102,4500.512820,4197.948717,4455.897435,4235.897435,4153.333333,4530.769230,4210.769230,4666.666666,3983.589744,4066.666666
54,4395.384615,4512.820512,4524.102564,4270.256410,4494.871794,4191.282051,4446.153846,4226.153846,4144.102564,4516.923076,4198.974358,4654.871794,3971.794872,4057.948717
55,4390.769230,4510.256410,4517.435897,4265.641025,4491.282051,4187.179487,4442.051282,4221.538461,4140.000000,4503.589743,4192.307692,4649.230769,3963.076924,4052.820512
56,4402.051282,4518.461538,4523.589743,4272.307692,4495.897435,4194.871794,4445.641025,4220.000000,4141.025641,4510.769230,4198.974358,4655.897435,3971.794872,4054.358974
57,4412.307692,4525.641025,4526.153846,4276.410256,4501.025641,4201.025641,4448.717948,4218.974358,4141.025641,4520.512820,4211.282051,4662.564102,3981.538462,4062.051282
58,4410.256410,4529.230769,4523.076923,4278.974358,4502.051282,4197.948717,4451.282051,4224.102564,4147.692307,4522.564102,4218.461538,4664.102564,3980.000000,4068.717948
59,4410.769230,4526.153846,4528.205128,4284.615384,4504.615384,4196.410256,4451.794871,4236.923076,4162.051282,4527.179487,4224.615384,4669.743589,3982.564103,4071.794871
60,4413.333333,4525.641025,4530.256410,4284.615384,4506.153846,4198.974358,4451.282051,4239.487179,4162.564102,4528.717948,4223.589743,4674.871794,3991.282052,4070.256410
61,4411.794871,4529.230769,4525.128205,4276.923076,4501.025641,4194.871794,4450.256410,4227.179487,4148.717948,4519.487179,4211.794871,4670.256410,3987.692308,4062.051282
62,4410.256410,4529.743589,4523.589743,4272.820512,4495.384615,4191.282051,4446.666666,4222.051282,4145.128205,4514.358974,4210.256410,4663.589743,3981.025642,4056.410256
63,4409.230769,4529.743589,4526.666666,4280.000000,4499.487179,4194.871794,4445.128205,4228.205128,4153.333333,4518.974358,4213.333333,4661.538461,3980.000000,4057.948717
64,4406.666666,4530.256410,4523.589743,4290.256410,4504.102564,4197.948717,4447.179487,4231.282051,4157.948717,4526.153846,4210.256410,4661.538461,3976.923077,4056.923076
65,4405.641025,4527.179487,4521.538461,4286.666666,4502.051282,4195.384615,4446.666666,4227.692307,4155.897435,4530.256410,4211.282051,4663.076923,3970.769231,4055.384615
66,4400.512820,4518.461538,4522.051282,4273.333333,4497.435897,4189.230769,4438.461538,4216.923076,4147.179487,4516.923076,4212.820512,4661.025641,3967.179488,4051.794871
67,4391.794871,4510.769230,4520.512820,4268.205128,4494.358974,4186.666666,4436.410256,4209.230769,4137.435897,4498.974358,4204.615384,4653.333333,3966.153847,4046.666666
68,4393.846153,4512.307692,4522.564102,4271.282051,4490.769230,4190.256410,4441.025641,4207.179487,4138.974358,4503.076923,4202.051282,4654.358974,3965.641026,4048.717948
69,4400.512820,4517.435897,4524.102564,4270.256410,4490.256410,4193.846153,4441.538461,4206.153846,4145.641025,4511.794871,4208.205128,4660.512820,3965.128206,4050.256410
70,4396.923076,4517.948717,4522.051282,4268.717948,4494.358974,4190.256410,4439.487179,4206.666666,4144.615384,4509.743589,4207.179487,4660.000000,3961.025642,4046.153846
71,4393.333333,4511.794871,4521.538461,4268.717948,4494.358974,4186.153846,4438.461538,4211.794871,4144.615384,4510.769230,4205.128205,4656.923076,3963.076924,4045.641025
72,4397.948717,4511.282051,4523.589743,4266.666666,4490.769230,4188.205128,4436.410256,4220.000000,4154.871794,4516.410256,4214.871794,4660.000000,3972.820513,4051.794871
73,4397.948717,4516.410256,4522.051282,4265.128205,4486.666666,4187.179487,4433.846153,4218.461538,4155.897435,4516.923076,4225.128205,4661.025641,3970.769231,4054.358974
74,4394.358974,4518.461538,4518.974358,4266.666666,4487.692307,4182.051282,4431.794871,4208.205128,4149.743589,4516.923076,4225.641025,4657.435897,3968.205129,4051.794871
75,4398.974358,4517.435897,4517.435897,4271.794871,4494.358974,4183.076923,4429.743589,4209.230769,4156.410256,4513.333333,4221.538461,4658.461538,3977.948718,4048.205128
76,4404.615384,4520.000000,4521.025641,4274.871794,4496.410256,4187.692307,4429.230769,4218.974358,4163.589743,4512.307692,4220.512820,4660.512820,3980.512821,4046.666666
77,4402.564102,4527.692307,4522.051282,4274.871794,4495.897435,4189.743589,4433.846153,4226.153846,4162.564102,4523.589743,4223.076923,4657.948717,3973.333334,4048.205128
78,4395.897435,4526.666666,4512.307692,4268.205128,4494.358974,4187.179487,4433.333333,4221.025641,4157.948717,4524.102564,4220.000000,4651.794871,3974.358975,4044.102564
79,4389.230769,4512.820512,4504.615384,4258.974358,4485.128205,4178.461538,4424.615384,4204.615384,4147.692307,4502.051282,4210.769230,4645.128205,3972.820513,4031.794871
80,4390.256410,4507.692307,4509.230769,4261.025641,4483.589743,4175.384615,4422.051282,4192.307692,4136.410256,4493.846153,4206.666666,4647.692307,3964.615385,4033.333333
81,4404.615384,4520.000000,4522.051282,4273.333333,4496.410256,4188.205128,4432.307692,4203.589743,4143.076923,4512.307692,4220.000000,4661.025641,3970.769231,4049.230769
82,4407.692307,4522.051282,4528.205128,4274.358974,4498.461538,4191.794871,4438.974358,4213.333333,4154.358974,4517.948717,4233.333333,4666.153846,3976.410257,4050.769230
83,4391.794871,4508.205128,4517.435897,4261.025641,4483.589743,4175.897435,4428.205128,4205.128205,4147.692307,4498.461538,4221.538461,4650.769230,3964.615385,4037.435897
84,4386.666666,4507.692307,4508.205128,4259.487179,4484.615384,4172.820512,4422.564102,4203.589743,4144.102564,4496.923076,4207.692307,4643.076923,3958.974359,4032.820512
85,4396.923076,4516.923076,4514.871794,4269.230769,4496.410256,4183.589743,4431.282051,4212.307692,4155.384615,4514.871794,4219.487179,4650.769230,3969.230770,4034.871794
86,4398.974358,4519.487179,4522.564102,4270.769230,4492.307692,4183.589743,4435.384615,4214.871794,4159.487179,4512.307692,4235.897435,4656.410256,3977.435898,4035.384615
87,4396.923076,4520.000000,4523.076923,4269.743589,4486.666666,4181.538461,4431.282051,4212.820512,4153.846153,4502.051282,4232.820512,4654.871794,3973.846154,4037.948717
88,4394.871794,4515.897435,4517.948717,4266.666666,4488.717948,4186.153846,4430.256410,4212.820512,4156.923076,4510.769230,4224.102564,4650.769230,3964.102565,4033.846153
89,4390.769230,4512.820512,4510.256410,4261.025641,4490.256410,4182.564102,4430.256410,4211.282051,4159.487179,4514.358974,4223.589743,4646.153846,3960.512821,4026.666666
90,4394.358974,4524.615384,4505.641025,4263.076923,4493.333333,4177.435897,4422.564102,4206.666666,4149.743589,4496.923076,4223.589743,4641.025641,3965.128206,4030.769230
91,4394.871794,4527.692307,4507.692307,4268.205128,4491.794871,4175.897435,4415.897435,4196.923076,4139.487179,4480.000000,4219.487179,4636.923076,3963.589744,4032.820512
92,4393.333333,4518.974358,4514.358974,4268.205128,4486.666666,4178.461538,4423.076923,4193.333333,4140.000000,4485.128205,4222.564102,4644.102564,3966.666667,4031.794871
93,4407.179487,4525.128205,4522.051282,4266.666666,4490.769230,4182.564102,4430.769230,4203.076923,4149.230769,4503.076923,4235.897435,4658.974358,3980.512821,4040.000000
94,4411.282051,4530.769230,4525.128205,4261.538461,4496.923076,4184.102564,4427.692307,4207.179487,4154.358974,4507.179487,4240.512820,4658.461538,3973.333334,4041.025641
95,4395.897435,4526.153846,4517.948717,4261.538461,4493.846153,4183.589743,4425.641025,4203.589743,4155.897435,4497.435897,4228.205128,4647.692307,3959.487180,4028.717948
96,4393.846153,4526.666666,4511.794871,4272.307692,4490.256410,4185.128205,4428.717948,4205.641025,4158.974358,4497.435897,4224.102564,4646.666666,3970.769231,4028.205128
97,4398.974358,4521.025641,4509.743589,4271.282051,4491.282051,4184.615384,4427.179487,4206.153846,4154.358974,4502.564102,4228.205128,4647.179487,3978.974359,4034.358974
98,4392.307692,4512.307692,4506.153846,4260.000000,4489.230769,4178.974358,4424.102564,4204.615384,4147.692307,4496.410256,4227.692307,4643.076923,3966.666667,4029.743589
99,4393.846153,4521.538461,4508.717948,4261.538461,4486.666666,4177.948717,4425.641025,4208.717948,4151.282051,4493.846153,4230.769230,4646.666666,3962.051283,4025.641025
100,4404.615384,4532.820512,4520.000000,4267.692307,4489.230769,4185.641025,4430.256410,4213.846153,4160.512820,4504.615384,4239.487179,4655.897435,3975.384616,4033.333333
101,4406.666666,4525.641025,4521.538461,4268.205128,4495.384615,4188.205128,4430.769230,4214.871794,4164.615384,4511.794871,4244.615384,4658.974358,3985.641026,4042.051282
102,4400.512820,4520.512820,4511.282051,4266.153846,4496.410256,4181.538461,4429.230769,4211.794871,4155.897435,4504.615384,4242.564102,4655.897435,3977.948718,4038.974358
103,4395.897435,4523.076923,4513.846153,4265.128205,4492.820512,4178.974358,4429.230769,4203.076923,4146.666666,4491.794871,4240.000000,4652.820512,3968.205129,4030.769230
104,4394.871794,4518.974358,4522.564102,4264.102564,4489.743589,4180.000000,4429.743589,4194.871794,4144.615384,4480.000000,4229.743589,4654.358974,3964.615385,4025.641025
105,4396.410256,4518.461538,4520.512820,4260.000000,4486.666666,4175.384615,4429.230769,4195.897435,4143.589743,4477.435897,4221.538461,4656.923076,3960.000000,4023.589743
106,4398.461538,4521.538461,4519.487179,4262.564102,4485.128205,4176.410256,4428.205128,4204.615384,4147.692307,4491.794871,4228.717948,4661.025641,3959.487180,4026.666666
107,4398.461538,4522.051282,4525.641025,4269.230769,4488.717948,4183.589743,4427.692307,4210.769230,4158.974358,4502.564102,4238.461538,4665.641025,3967.692308,4031.794871
108,4398.461538,4525.128205,4522.051282,4271.794871,4495.384615,4186.153846,4430.256410,4211.794871,4166.666666,4492.820512,4238.974358,4668.717948,3973.333334,4032.307692
109,4395.897435,4523.589743,4509.743589,4267.692307,4498.461538,4181.025641,4427.692307,4207.692307,4154.871794,4480.512820,4230.769230,4663.076923,3963.076924,4024.102564
110,4396.410256,4518.974358,4508.717948,4267.179487,4490.769230,4175.384615,4420.512820,4198.974358,4142.051282,4484.615384,4224.615384,4655.897435,3954.871795,4018.974358
111,4405.641025,4527.692307,4521.025641,4273.846153,4488.717948,4178.461538,4424.615384,4197.948717,4151.282051,4497.948717,4231.282051,4667.179487,3965.641026,4028.205128
112,4411.282051,4536.410256,4529.230769,4274.358974,4499.487179,4184.615384,4433.333333,4210.256410,4168.205128,4499.487179,4247.692307,4683.076923,3980.000000,4040.000000
113,4405.641025,4528.205128,4523.076923,4268.205128,4498.974358,4187.179487,4431.282051,4213.846153,4173.333333,4496.923076,4255.384615,4679.487179,3980.000000,4038.461538
114,4400.512820,4520.000000,4513.333333,4263.589743,4488.205128,4183.076923,4428.717948,4204.102564,4166.666666,4500.000000,4242.564102,4664.615384,3974.358975,4028.205128
115,4394.358974,4516.410256,4506.666666,4261.025641,4483.589743,4175.897435,4422.564102,4188.205128,4150.256410,4490.769230,4221.025641,4653.333333,3964.615385,4018.461538
116,4387.692307,4517.435897,4503.076923,4260.000000,4483.076923,4171.794871,4412.820512,4172.820512,4130.769230,4468.205128,4210.769230,4650.256410,3951.794872,4013.846153
117,4395.897435,4525.641025,4506.153846,4266.153846,4484.615384,4177.948717,4417.948717,4170.769230,4127.692307,4461.025641,4214.871794,4657.435897,3952.820513,4020.000000
118,4408.717948,4532.307692,4511.794871,4272.307692,4493.846153,4187.179487,4429.743589,4184.102564,4140.000000,4475.897435,4221.025641,4666.153846,3965.641026,4032.307692
119,4401.538461,4532.307692,4511.794871,4266.153846,4494.871794,4186.153846,4429.230769,4193.333333,4150.256410,4489.230769,4219.487179,4664.102564,3971.282052,4038.974358
120,4390.256410,4526.153846,4508.205128,4258.461538,4486.153846,4179.487179,4426.666666,4196.410256,4159.487179,4494.871794,4216.410256,4658.974358,3969.743590,4038.461538
121,4391.282051,4525.641025,4505.128205,4258.974358,4487.179487,4181.025641,4432.820512,4201.025641,4167.179487,4498.461538,4214.358974,4660.512820,3970.256411,4040.000000
122,4392.307692,4527.692307,4505.641025,4260.000000,4491.794871,4182.051282,4431.282051,4203.076923,4166.153846,4498.974358,4209.743589,4660.000000,3970.256411,4045.641025
123,4392.820512,4523.076923,4514.358974,4257.435897,4487.179487,4176.410256,4425.128205,4203.076923,4166.666666,4505.128205,4208.717948,4667.692307,3974.871795,4054.358974
124,4402.051282,4525.641025,4525.641025,4259.487179,4484.102564,4178.461538,4432.307692,4205.128205,4173.333333,4513.846153,4213.333333,4686.666666,3992.820513,4070.256410
125,4406.153846,4533.333333,4528.205128,4264.615384,4487.692307,4183.589743,4438.461538,4207.179487,4172.820512,4516.923076,4214.871794,4693.333333,4000.512820,4078.974358
126,4401.025641,4530.769230,4524.102564,4266.666666,4486.153846,4180.512820,4434.358974,4204.615384,4164.615384,4512.820512,4215.384615,4685.128205,3983.076924,4074.358974
127,4397.435897,4527.692307,4524.102564,4265.128205,4485.128205,4182.051282,4434.871794,4198.461538,4165.641025,4511.282051,4213.846153,4683.589743,3971.794872,4072.307692
128,4400.000000,4538.461538,4529.743589,4269.230769,4489.743589,4191.282051,4442.564102,4198.974358,4174.358974,4522.564102,4207.179487,4689.230769,3986.153847,4081.538461
129,4403.076923,4543.076923,4534.871794,4274.871794,4496.410256,4191.282051,4442.564102,4206.153846,4172.820512,4530.256410,4207.692307,4690.769230,3995.384616,4087.179487
130,4402.051282,4535.384615,4536.923076,4267.692307,4495.897435,4183.589743,4442.564102,4208.205128,4164.615384,4515.897435,4209.743589,4691.282051,3984.615385,4083.076923
131,4395.384615,4526.153846,4534.358974,4257.948717,4487.179487,4180.512820,4443.589743,4207.692307,4167.179487,4508.205128,4200.512820,4691.282051,3979.487180,4074.871794
132,4387.692307,4524.102564,4527.692307,4260.000000,4481.025641,4179.487179,4438.974358,4207.179487,4173.333333,4521.538461,4196.410256,4684.615384,3981.025642,4071.794871
133,4393.333333,4535.384615,4527.692307,4269.230769,4488.205128,4183.589743,4441.025641,4209.230769,4173.333333,4528.205128,4206.153846,4685.641025,3985.128206,4081.538461
134,4408.717948,4546.666666,4536.410256,4277.948717,4501.025641,4188.717948,4447.179487,4214.871794,4181.025641,4530.256410,4213.846153,4696.923076,4002.051282,4091.794871
135,4411.282051,4541.025641,4540.512820,4273.846153,4496.410256,4184.102564,4442.051282,4215.897435,4191.282051,4533.333333,4212.307692,4699.487179,4010.769230,4088.717948
136,4403.076923,4536.923076,4535.384615,4267.179487,4483.589743,4181.538461,4438.974358,4213.333333,4189.743589,4532.307692,4212.820512,4693.846153,3998.974359,4086.666666
137,4405.128205,4549.743589,4537.948717,4280.000000,4490.256410,4192.820512,4453.333333,4221.538461,4191.282051,4540.512820,4217.435897,4697.948717,3996.410257,4094.871794
138,4415.384615,4556.923076,4547.692307,4293.846153,4507.179487,4202.564102,4462.051282,4227.179487,4197.948717,4547.692307,4217.948717,4708.205128,4007.692307,4102.564102
139,4415.384615,4552.307692,4546.153846,4287.692307,4506.153846,4197.948717,4454.358974,4218.974358,4189.743589,4533.846153,4213.333333,4706.666666,4006.153846,4097.435897
140,4407.692307,4548.205128,4540.512820,4283.589743,4497.435897,4191.794871,4447.179487,4207.692307,4174.358974,4523.076923,4209.743589,4697.435897,3995.384616,4086.666666
141,4397.948717,4542.564102,4535.897435,4283.076923,4496.410256,4190.256410,4441.025641,4201.025641,4170.256410,4523.589743,4204.615384,4689.743589,3991.282052,4080.512820
142,4389.230769,4536.923076,4525.641025,4271.282051,4489.743589,4184.102564,4436.410256,4198.461538,4171.282051,4518.974358,4191.794871,4682.051282,3989.743590,4075.384615
143,4392.307692,4543.589743,4524.102564,4270.256410,4487.179487,4183.076923,4441.025641,4208.205128,4176.923076,4525.128205,4195.897435,4681.538461,3993.846154,4073.846153
144,4402.051282,4553.846153,4534.871794,4284.615384,4496.410256,4192.820512,4447.692307,4219.487179,4190.256410,4541.025641,4211.794871,4689.743589,3995.384616,4081.025641
145,4405.128205,4550.769230,4541.538461,4288.717948,4497.948717,4195.384615,4447.692307,4223.076923,4197.435897,4542.564102,4214.871794,4698.461538,3996.923077,4088.205128
146,4408.717948,4546.666666,4544.615384,4283.589743,4495.384615,4189.743589,4448.717948,4225.641025,4196.410256,4540.512820,4215.897435,4705.128205,4009.230769,4093.333333
147,4411.794871,4542.564102,4547.179487,4276.410256,4493.333333,4186.666666,4446.666666,4221.025641,4192.820512,4538.461538,4220.000000,4706.153846,4012.820512,4092.820512
148,4402.051282,4534.871794,4538.974358,4271.282051,4483.589743,4181.025641,4438.974358,4210.256410,4187.179487,4528.205128,4213.333333,4697.948717,4001.538461,4082.051282
149,4394.358974,4540.000000,4533.846153,4278.461538,4481.025641,4179.487179,4444.102564,4216.923076,4191.282051,4532.820512,4213.333333,4691.794871,3998.461539,4078.974358
150,4397.435897,4548.717948,4538.461538,4287.179487,4493.846153,4190.769230,4452.307692,4226.666666,4197.948717,4543.076923,4222.051282,4693.333333,3999.487180,4082.051282
151,4395.384615,4543.076923,4535.384615,4282.051282,4494.871794,4194.358974,4446.666666,4214.358974,4185.641025,4530.256410,4215.897435,4689.743589,3991.794872,4072.820512
152,4393.846153,4534.871794,4533.333333,4272.820512,4486.666666,4185.128205,4440.000000,4202.051282,4173.846153,4514.358974,4206.153846,4689.230769,3989.230770,4066.666666
153,4398.974358,4536.410256,4537.435897,4277.435897,4486.666666,4182.564102,4444.615384,4205.128205,4178.461538,4520.000000,4209.743589,4698.974358,3993.333334,4072.820512
154,4402.051282,4541.025641,4540.512820,4284.615384,4488.205128,4183.589743,4447.692307,4207.179487,4185.128205,4528.205128,4215.897435,4703.589743,3995.384616,4078.461538
155,4403.076923,4543.076923,4541.025641,4276.923076,4485.641025,4182.564102,4443.589743,4207.692307,4183.589743,4526.666666,4221.538461,4701.025641,4000.000000,4078.974358
156,4404.615384,4542.051282,4541.538461,4273.333333,4488.717948,4187.692307,4443.076923,4212.820512,4187.179487,4530.769230,4227.692307,4702.564102,4003.589743,4077.435897
157,4406.153846,4543.589743,4541.538461,4285.641025,4494.871794,4191.282051,4447.692307,4215.384615,4192.820512,4532.307692,4225.641025,4702.564102,4001.538461,4073.846153
158,4402.564102,4545.641025,4535.384615,4283.589743,4497.948717,4186.666666,4445.128205,4209.743589,4188.205128,4520.000000,4213.333333,4692.820512,3995.384616,4069.230769
159,4394.871794,4540.000000,4529.743589,4270.256410,4493.846153,4183.589743,4436.923076,4205.128205,4183.076923,4513.846153,4207.179487,4683.076923,3994.358975,4065.641025
160,4395.384615,4540.512820,4533.333333,4277.435897,4486.153846,4188.205128,4437.435897,4209.230769,4188.717948,4524.102564,4216.410256,4685.641025,4002.051282,4067.692307
161,4403.589743,4549.743589,4542.051282,4289.230769,4488.717948,4190.769230,4445.128205,4212.307692,4191.282051,4527.692307,4229.230769,4700.512820,4006.666666,4074.871794
162,4406.666666,4550.256410,4544.102564,4287.692307,4495.384615,4187.179487,4446.153846,4206.153846,4181.025641,4520.000000,4229.743589,4707.179487,3999.487180,4077.948717
163,4408.205128,4548.205128,4545.641025,4291.282051,4496.410256,4191.282051,4443.589743,4202.564102,4178.461538,4518.974358,4229.230769,4702.564102,3997.948718,4077.435897
164,4406.153846,4549.230769,4542.051282,4293.333333,4495.897435,4190.769230,4440.512820,4201.538461,4180.000000,4518.974358,4228.717948,4693.333333,4002.051282,4071.282051
165,4389.230769,4538.461538,4526.153846,4278.974358,4491.282051,4178.461538,4430.256410,4191.794871,4170.769230,4510.769230,4210.256410,4679.487179,3988.717949,4054.871794
166,4383.076923,4531.794871,4523.589743,4267.179487,4484.615384,4177.435897,4426.666666,4192.307692,4172.820512,4507.692307,4200.512820,4674.358974,3976.410257,4049.743589
167,4401.538461,4542.051282,4538.461538,4275.384615,4486.153846,4189.743589,4439.487179,4210.256410,4193.846153,4522.051282,4222.051282,4693.333333,3992.820513,4068.205128
168,4411.282051,4544.615384,4544.615384,4277.948717,4491.282051,4190.769230,4443.076923,4216.410256,4197.435897,4532.307692,4234.358974,4705.641025,4006.666666,4077.948717
169,4402.564102,4537.435897,4538.974358,4270.256410,4489.743589,4185.128205,4434.871794,4206.153846,4180.000000,4520.000000,4221.025641,4691.282051,3998.974359,4063.076923
170,4396.923076,4542.564102,4533.846153,4275.897435,4489.743589,4189.230769,4436.923076,4199.487179,4177.435897,4511.282051,4216.410256,4681.025641,3994.358975,4054.358974
171,4399.487179,4549.743589,4536.410256,4288.717948,4498.461538,4191.794871,4440.512820,4200.512820,4187.692307,4520.000000,4224.102564,4684.615384,3996.410257,4062.564102
172,4395.384615,4537.435897,4532.820512,4287.692307,4498.461538,4186.666666,4432.820512,4199.487179,4184.615384,4520.000000,4222.051282,4682.051282,3989.743590,4060.000000
173,4390.769230,4527.179487,4526.666666,4276.410256,4487.692307,4182.051282,4432.307692,4195.897435,4176.923076,4512.307692,4215.384615,4679.487179,3984.102565,4048.717948
174,4393.846153,4537.435897,4530.256410,4271.794871,4483.589743,4184.102564,4440.000000,4200.512820,4183.589743,4515.384615,4217.948717,4685.128205,3988.717949,4050.769230
175,4396.923076,4544.615384,4533.846153,4272.820512,4490.256410,4190.256410,4442.051282,4207.179487,4191.282051,4521.538461,4224.615384,4684.102564,3993.846154,4057.435897
176,4389.743589,4534.871794,4523.589743,4270.769230,4493.333333,4192.307692,4441.025641,4208.205128,4191.794871,4521.538461,4225.128205,4676.410256,3990.256411,4051.794871
177,4385.641025,4529.230769,4516.410256,4269.230769,4495.384615,4188.205128,4443.076923,4205.641025,4190.256410,4518.974358,4217.435897,4670.769230,3983.076924,4042.051282
178,4389.743589,4535.897435,4521.538461,4271.282051,4495.897435,4186.666666,4442.051282,4200.512820,4184.615384,4512.307692,4212.307692,4669.230769,3981.025642,4040.000000
179,4389.743589,4534.358974,4523.589743,4271.282051,4487.179487,4188.717948,4438.974358,4198.974358,4178.974358,4509.230769,4217.948717,4667.179487,3981.025642,4040.512820
180,4386.666666,4524.615384,4520.512820,4270.769230,4484.615384,4186.153846,4439.487179,4203.076923,4182.564102,4513.846153,4226.153846,4670.769230,3983.076924,4043.076923
181,4389.230769,4528.205128,4522.564102,4276.410256,4492.307692,4182.564102,4440.512820,4209.743589,4190.256410,4516.410256,4227.692307,4677.948717,3988.717949,4045.128205
182,4398.974358,4540.000000,4532.820512,4283.589743,4496.410256,4184.102564,4438.974358,4216.923076,4196.410256,4521.025641,4233.333333,4684.102564,3998.974359,4049.743589
183,4405.641025,4541.025641,4540.512820,4287.179487,4498.461538,4189.230769,4437.948717,4218.461538,4201.025641,4532.307692,4243.076923,4688.205128,4007.179487,4055.384615
184,4398.974358,4532.307692,4531.282051,4282.051282,4495.897435,4188.205128,4437.948717,4209.743589,4196.923076,4530.256410,4238.974358,4683.076923,3997.435898,4050.256410
185,4385.641025,4525.641025,4519.487179,4272.307692,4485.641025,4181.538461,4430.769230,4201.025641,4187.179487,4516.923076,4227.692307,4673.333333,3982.051283,4040.000000
186,4384.102564,4522.051282,4524.102564,4269.743589,4483.076923,4178.461538,4425.128205,4197.435897,4183.589743,4511.794871,4227.179487,4675.384615,3987.179488,4040.000000
187,4397.948717,4526.153846,4536.923076,4274.358974,4493.846153,4185.641025,4435.897435,4200.512820,4188.717948,4514.358974,4235.897435,4688.717948,4002.564102,4046.153846
188,4408.717948,4535.897435,4542.564102,4276.410256,4497.435897,4195.384615,4445.128205,4206.153846,4188.205128,4508.205128,4243.589743,4694.358974,4001.538461,4050.769230
189,4403.589743,4535.897435,4540.512820,4278.974358,4492.820512,4193.846153,4443.589743,4203.589743,4184.102564,4505.128205,4237.948717,4690.769230,3989.230770,4050.769230
190,4400.000000,4531.794871,4539.487179,4285.128205,4497.948717,4189.743589,4445.128205,4199.487179,4187.179487,4510.769230,4229.230769,4690.769230,3985.641026,4048.205128
191,4401.025641,4533.333333,4536.410256,4285.128205,4500.512820,4190.769230,4444.615384,4201.538461,4191.282051,4508.205128,4234.871794,4687.179487,3985.128206,4045.641025
192,4394.871794,4532.307692,4526.153846,4276.410256,4490.769230,4188.205128,4434.871794,4199.487179,4184.615384,4499.487179,4237.435897,4674.358974,3984.102565,4042.051282
193,4388.717948,4524.615384,4518.461538,4271.282051,4484.615384,4181.538461,4426.666666,4192.820512,4171.794871,4497.948717,4221.025641,4666.666666,3984.102565,4033.846153
194,4387.179487,4518.974358,4521.025641,4268.205128,4484.102564,4175.897435,4427.179487,4186.666666,4166.666666,4492.820512,4208.717948,4666.666666,3979.487180,4028.205128
195,4384.615384,4517.948717,4517.435897,4265.641025,4481.538461,4172.820512,4426.666666,4181.025641,4164.615384,4479.487179,4211.794871,4661.538461,3967.692308,4027.179487
196,4380.512820,4515.897435,4508.717948,4266.666666,4478.974358,4171.794871,4423.589743,4178.461538,4162.051282,4477.435897,4215.897435,4657.435897,3960.512821,4023.589743
197,4384.102564,4520.512820,4515.384615,4269.230769,4482.564102,4175.897435,4426.666666,4184.615384,4167.179487,4488.205128,4221.538461,4663.589743,3969.230770,4022.564102
198,4390.256410,4523.589743,4522.564102,4266.666666,4486.666666,4180.000000,4431.282051,4192.307692,4175.897435,4488.205128,4226.153846,4666.666666,3977.948718,4028.717948
199,4390.769230,4519.487179,4515.384615,4263.076923,4487.692307,4181.538461,4430.769230,4189.743589,4173.333333,4483.589743,4216.923076,4660.000000,3976.923077,4028.717948
200,4390.769230,4524.102564,4515.897435,4265.641025,4488.205128,4186.666666,4430.256410,4188.205128,4173.846153,4492.307692,4214.358974,4660.000000,3977.435898,4024.615384
201,4391.794871,4534.871794,4526.153846,4276.410256,4489.743589,4185.641025,4431.282051,4195.897435,4186.666666,4504.102564,4231.794871,4666.666666,3984.102565,4030.769230
202,4392.307692,4533.846153,4524.615384,4287.179487,4489.230769,4178.461538,4429.230769,4200.000000,4192.307692,4501.538461,4241.025641,4669.743589,3988.205129,4036.923076
203,4393.846153,4530.769230,4518.974358,4282.051282,4487.179487,4176.923076,4431.282051,4196.923076,4190.256410,4496.410256,4230.256410,4667.179487,3986.666667,4033.846153
204,4393.333333,4532.307692,4520.512820,4267.692307,4487.179487,4183.076923,4437.435897,4195.897435,4190.256410,4499.487179,4226.666666,4662.051282,3984.615385,4028.205128
205,4385.641025,4525.641025,4512.307692,4267.179487,4487.692307,4186.153846,4433.333333,4193.846153,4189.743589,4495.897435,4229.230769,4655.897435,3979.487180,4021.538461
206,4382.051282,4517.948717,4502.564102,4272.820512,4485.128205,4183.589743,4429.743589,4189.743589,4188.717948,4489.743589,4222.564102,4651.794871,3974.871795,4019.487179
207,4389.743589,4521.025641,4509.230769,4270.769230,4490.256410,4185.641025,4437.435897,4193.333333,4191.282051,4501.025641,4226.666666,4654.871794,3981.025642,4025.641025
208,4393.846153,4525.128205,4520.512820,4273.333333,4496.923076,4190.256410,4441.538461,4202.564102,4196.410256,4512.820512,4237.435897,4663.076923,3994.871795,4032.307692
209,4393.333333,4523.589743,4524.102564,4272.820512,4489.230769,4183.589743,4434.358974,4205.641025,4196.923076,4507.179487,4235.897435,4670.256410,3993.846154,4033.333333
210,4392.820512,4518.974358,4522.564102,4262.051282,4479.487179,4173.333333,4428.205128,4201.538461,4193.333333,4495.384615,4234.871794,4672.820512,3980.512821,4031.794871
211,4389.230769,4516.410256,4513.846153,4257.948717,4484.102564,4176.923076,4427.692307,4195.384615,4188.205128,4491.282051,4240.000000,4668.205128,3978.974359,4025.128205
212,4387.179487,4517.948717,4508.717948,4267.179487,4490.256410,4185.128205,4429.230769,4191.282051,4188.205128,4494.871794,4234.871794,4660.512820,3987.692308,4019.487179
213,4394.358974,4528.717948,4518.974358,4277.435897,4494.358974,4186.153846,4431.282051,4190.769230,4189.743589,4498.461538,4229.230769,4662.051282,3986.153847,4025.128205
214,4394.871794,4534.871794,4524.102564,4277.435897,4496.923076,4183.076923,4429.230769,4184.102564,4182.564102,4488.205128,4231.282051,4664.615384,3972.307693,4024.615384
215,4383.076923,4521.538461,4514.871794,4269.230769,4488.717948,4176.410256,4423.589743,4174.358974,4172.307692,4471.282051,4227.692307,4658.974358,3961.538462,4011.282051
216,4382.051282,4510.769230,4514.871794,4265.128205,4481.025641,4173.333333,4423.076923,4182.051282,4174.358974,4475.897435,4221.025641,4659.487179,3967.692308,4013.846153
217,4394.358974,4518.974358,4525.128205,4271.282051,4487.692307,4181.538461,4428.717948,4196.410256,4184.615384,4495.384615,4226.153846,4669.230769,3981.025642,4030.769230
218,4401.025641,4529.230769,4523.589743,4274.358974,4492.307692,4187.692307,4431.794871,4200.000000,4191.794871,4501.538461,4237.435897,4672.820512,3987.179488,4035.897435
219,4396.923076,4528.205128,4518.461538,4269.230769,4488.717948,4184.102564,4430.769230,4201.025641,4192.820512,4490.256410,4237.435897,4668.205128,3986.666667,4033.846153
220,4393.846153,4526.153846,4522.051282,4266.666666,4487.179487,4180.000000,4428.717948,4204.102564,4193.846153,4487.692307,4228.205128,4665.128205,3986.666667,4035.897435
221,4392.820512,4525.128205,4518.974358,4263.076923,4486.666666,4178.461538,4425.128205,4195.384615,4190.769230,4491.794871,4218.461538,4663.076923,3983.589744,4034.358974
222,4388.205128,4521.025641,4508.205128,4258.974358,4480.000000,4173.846153,4422.051282,4179.487179,4176.410256,4477.948717,4209.230769,4657.435897,3976.923077,4029.230769
223,4385.128205,4522.051282,4511.794871,4259.487179,4476.410256,4173.333333,4425.128205,4175.384615,4163.589743,4463.076923,4205.128205,4653.333333,3978.974359,4032.820512
224,4385.641025,4527.692307,4523.589743,4262.564102,4481.538461,4179.487179,4427.692307,4178.974358,4163.589743,4466.666666,4203.076923,4656.410256,3981.025642,4040.512820
225,4386.666666,4526.666666,4524.102564,4263.589743,4483.589743,4177.435897,4427.179487,4180.512820,4166.666666,4474.358974,4200.000000,4661.538461,3976.923077,4044.102564
226,4387.692307,4524.615384,4522.051282,4267.179487,4486.153846,4176.923076,4432.820512,4190.769230,4177.948717,4489.230769,4206.666666,4664.615384,3986.153847,4052.820512
227,4391.282051,4530.769230,4527.179487,4271.282051,4492.307692,4188.717948,4443.589743,4207.692307,4198.974358,4508.717948,4214.358974,4670.769230,4004.615384,4067.179487
228,4395.897435,4534.871794,4531.794871,4271.282051,4491.282051,4194.358974,4447.692307,4213.846153,4208.717948,4513.846153,4211.282051,4675.897435,4007.692307,4074.871794
229,4397.435897,4532.307692,4535.897435,4270.256410,4484.102564,4187.692307,4444.615384,4213.333333,4205.128205,4512.307692,4213.846153,4678.461538,3997.435898,4074.871794
230,4398.461538,4534.358974,4539.487179,4272.307692,4485.641025,4187.692307,4443.589743,4215.384615,4206.153846,4523.589743,4224.102564,4682.051282,3994.871795,4078.461538
231,4398.974358,4543.076923,4540.000000,4276.923076,4491.282051,4188.717948,4444.615384,4215.384615,4211.794871,4532.307692,4222.564102,4684.102564,4005.128205,4087.179487
232,4395.897435,4544.102564,4541.025641,4278.974358,4492.307692,4184.102564,4446.153846,4214.358974,4212.820512,4528.717948,4213.333333,4682.051282,4015.897435,4087.692307
233,4390.769230,4535.384615,4537.948717,4273.846153,4494.871794,4185.641025,4448.205128,4215.384615,4210.769230,4528.205128,4210.256410,4676.410256,4013.846153,4080.000000
234,4386.153846,4531.282051,4527.692307,4266.666666,4491.794871,4187.179487,4445.641025,4209.230769,4202.564102,4523.589743,4203.589743,4666.666666,3994.871795,4073.333333
235,4383.589743,4532.307692,4522.051282,4266.666666,4482.051282,4185.128205,4440.512820,4201.538461,4194.358974,4511.282051,4193.846153,4662.564102,3986.666667,4070.769230
236,4381.538461,4530.769230,4523.076923,4269.743589,4480.512820,4184.102564,4438.974358,4207.692307,4197.948717,4506.666666,4192.820512,4666.666666,3994.358975,4071.282051
237,4377.948717,4528.205128,4525.128205,4266.153846,4485.128205,4184.102564,4440.512820,4214.358974,4205.641025,4513.846153,4193.333333,4667.692307,3991.282052,4069.230769
238,4376.410256,4529.230769,4526.153846,4266.153846,4489.743589,4184.615384,4441.025641,4210.769230,4206.153846,4524.615384,4196.923076,4668.717948,3986.666667,4068.205128
239,4383.589743,4531.794871,4527.179487,4271.282051,4489.743589,4186.153846,4444.102564,4209.743589,4206.153846,4526.666666,4206.153846,4674.871794,3996.410257,4074.871794
240,4388.717948,4534.871794,4529.230769,4268.717948,4486.666666,4186.153846,4444.615384,4213.333333,4206.153846,4520.512820,4204.102564,4676.923076,4001.025641,4080.000000
241,4378.974358,4532.307692,4525.641025,4262.564102,4482.564102,4176.923076,4433.846153,4207.692307,4195.897435,4510.256410,4183.076923,4669.743589,3990.769231,4071.794871
242,4368.717948,4522.564102,4519.487179,4264.615384,4478.461538,4170.256410,4428.717948,4195.384615,4184.102564,4503.076923,4170.256410,4657.948717,3983.589744,4060.000000
243,4376.410256,4527.692307,4525.641025,4273.333333,4480.000000,4179.487179,4439.487179,4197.435897,4187.692307,4507.179487,4183.589743,4659.487179,3983.589744,4066.153846
244,4387.692307,4545.641025,4536.410256,4278.974358,4491.794871,4192.307692,4447.692307,4209.743589,4196.410256,4520.000000,4200.512820,4670.769230,3992.307693,4077.435897
245,4385.128205,4549.743589,4535.897435,4277.435897,4498.974358,4189.230769,4444.102564,4211.794871,4197.948717,4521.025641,4197.435897,4670.769230,4001.538461,4075.897435
246,4381.538461,4540.512820,4533.846153,4276.410256,4495.897435,4184.615384,4443.589743,4209.230769,4202.564102,4514.871794,4191.794871,4663.589743,4000.000000,4072.307692
247,4383.076923,4533.846153,4530.256410,4275.897435,4491.282051,4188.717948,4445.641025,4210.769230,4209.230769,4524.102564,4197.435897,4664.615384,3994.871795,4072.820512
248,4380.512820,4535.897435,4526.666666,4271.794871,4485.641025,4186.153846,4441.538461,4210.769230,4205.641025,4531.282051,4195.384615,4665.128205,3997.435898,4073.333333
249,4384.615384,4540.000000,4533.333333,4272.820512,4483.076923,4185.641025,4444.615384,4212.820512,4207.179487,4528.205128,4195.384615,4668.717948,4009.230769,4076.410256
250,4394.358974,4543.076923,4542.051282,4277.435897,4492.307692,4192.307692,4453.333333,4223.589743,4219.487179,4529.743589,4207.692307,4677.948717,4014.871794,4083.076923
251,4392.307692,4543.589743,4538.461538,4274.358974,4499.487179,4192.307692,4451.282051,4220.000000,4218.974358,4528.717948,4211.794871,4678.461538,4006.153846,4084.102564
252,4382.564102,4538.461538,4530.769230,4272.820512,4489.743589,4184.102564,4443.589743,4201.538461,4198.461538,4515.384615,4197.948717,4668.205128,3994.358975,4074.871794
253,4379.487179,4534.871794,4526.153846,4280.000000,4486.153846,4179.487179,4439.487179,4194.871794,4188.717948,4506.153846,4187.692307,4664.615384,3992.820513,4066.666666
254,4382.051282,4534.871794,4522.564102,4280.512820,4493.846153,4177.948717,4437.435897,4202.564102,4193.846153,4511.282051,4193.846153,4664.615384,3996.923077,4065.128205
255,4381.538461,4535.384615,4525.128205,4275.384615,4492.307692,4179.487179,4436.410256,4205.128205,4197.435897,4514.871794,4201.025641,4661.538461,3997.435898,4063.076923
256,4381.025641,4537.948717,4528.205128,4275.384615,4483.076923,4184.615384,4439.487179,4203.589743,4199.487179,4516.923076,4202.564102,4661.538461,3993.333334,4061.538461
257,4384.615384,4537.948717,4527.692307,4275.384615,4486.666666,4189.230769,4448.717948,4211.794871,4209.230769,4521.538461,4206.666666,4667.692307,3998.974359,4066.153846
258,4386.153846,4531.794871,4530.256410,4273.846153,4495.897435,4190.256410,4455.384615,4222.051282,4214.871794,4523.076923,4212.820512,4671.282051,4005.128205,4067.692307
259,4387.179487,4533.846153,4535.897435,4277.435897,4496.923076,4189.230769,4451.282051,4221.538461,4214.358974,4526.666666,4210.769230,4668.205128,3998.461539,4063.589743
