,AF3,AF4,T7,T8,PZ
0,4290.769230,4283.076923,4255.897435,4211.282051,4227.179487
1,4316.923076,4297.948717,4275.384615,4246.153846,4209.743589
2,4325.641025,4284.615384,4261.025641,4248.717948,4203.589743
3,4313.846153,4272.820512,4253.846153,4212.820512,4212.820512
4,4301.025641,4285.641025,4296.410256,4223.076923,4194.358974
5,4276.923076,4273.846153,4284.102564,4233.846153,4218.461538
6,4313.846153,4298.974358,4273.846153,4250.256410,4209.230769
7,4316.410256,4293.333333,4258.461538,4218.461538,4218.461538
8,4290.256410,4283.076923,4260.000000,4213.846153,4238.461538
9,4290.256410,4301.538461,4274.358974,4254.871794,4206.666666
10,4266.666666,4277.948717,4255.384615,4226.153846,4226.153846
11,4286.666666,4273.846153,4278.974358,4218.974358,4224.102564
12,4297.435897,4268.717948,4256.410256,4215.384615,4213.333333
13,4275.384615,4273.333333,4221.538461,4201.538461,4224.102564
14,4273.846153,4289.230769,4267.179487,4222.051282,4204.102564
15,4274.871794,4260.512820,4275.384615,4227.179487,4230.769230
16,4309.743589,4283.076923,4274.358974,4264.615384,4231.282051
17,4308.205128,4302.051282,4275.897435,4258.461538,4230.256410
18,4293.846153,4281.538461,4268.205128,4216.923076,4247.179487
19,4317.948717,4287.692307,4276.410256,4246.666666,4202.564102
20,4288.717948,4261.025641,4254.871794,4237.948717,4213.333333
21,4296.923076,4258.974358,4269.230769,4215.897435,4225.641025
22,4327.692307,4275.897435,4273.846153,4223.076923,4214.358974
23,4309.743589,4274.871794,4242.564102,4228.205128,4234.358974
24,4308.717948,4293.846153,4262.564102,4237.435897,4216.923076
25,4306.153846,4270.769230,4269.743589,4217.948717,4232.820512
26,4322.051282,4269.230769,4277.948717,4234.871794,4237.948717
27,4304.615384,4273.846153,4272.307692,4238.974358,4208.717948
28,4270.769230,4246.666666,4256.410256,4202.051282,4213.333333
29,4310.769230,4276.923076,4285.641025,4221.538461,4191.282051
30,4302.564102,4283.589743,4263.076923,4217.948717,4215.384615
31,4290.256410,4271.282051,4252.307692,4223.076923,4232.307692
32,4310.769230,4275.384615,4272.307692,4251.794871,4209.743589
33,4304.102564,4270.256410,4268.717948,4228.717948,4246.153846
34,4322.051282,4291.794871,4292.820512,4235.897435,4240.000000
35,4310.769230,4271.282051,4290.256410,4234.358974,4226.666666
36,4297.435897,4255.897435,4286.666666,4232.307692,4230.256410
37,4305.641025,4271.282051,4295.384615,4232.307692,4222.564102
38,4284.102564,4253.333333,4281.538461,4193.333333,4250.769230
39,4302.051282,4262.564102,4306.153846,4227.692307,4226.153846
40,4293.846153,4258.461538,4298.974358,4248.205128,4222.564102
41,4269.743589,4245.128205,4283.589743,4225.128205,4246.666666
42,4294.358974,4249.230769,4305.641025,4230.256410,4222.051282
43,4307.179487,4233.846153,4287.692307,4213.333333,4240.512820
44,4324.615384,4265.641025,4305.128205,4232.820512,4240.512820
45,4315.897435,4269.743589,4320.000000,4245.641025,4248.205128
46,4314.871794,4241.538461,4301.025641,4224.615384,4270.256410
47,4338.974358,4268.205128,4305.128205,4228.205128,4240.000000
48,4325.128205,4278.974358,4289.743589,4223.589743,4256.923076
49,4339.487179,4279.487179,4305.641025,4242.564102,4254.871794
50,4331.794871,4248.717948,4312.307692,4225.128205,4241.025641
51,4308.205128,4220.000000,4284.102564,4196.923076,4250.256410
52,4326.666666,4240.512820,4272.307692,4225.641025,4216.923076
53,4307.692307,4229.230769,4264.615384,4199.487179,4243.076923
54,4318.461538,4243.076923,4313.846153,4198.974358,4263.589743
55,4327.692307,4244.102564,4309.230769,4240.512820,4248.717948
56,4301.025641,4215.384615,4258.461538,4232.307692,4253.333333
57,4315.897435,4241.025641,4283.076923,4230.769230,4218.461538
58,4304.102564,4228.717948,4280.000000,4216.923076,4230.769230
59,4307.179487,4216.923076,4285.641025,4218.974358,4243.589743
60,4324.615384,4215.384615,4313.846153,4216.410256,4232.307692
61,4318.461538,4200.000000,4306.153846,4201.025641,4259.487179
62,4327.692307,4234.871794,4302.564102,4246.666666,4247.179487
63,4314.871794,4222.051282,4276.410256,4242.051282,4254.871794
64,4337.948717,4216.410256,4288.717948,4224.102564,4255.384615
65,4344.102564,4247.692307,4301.025641,4232.307692,4231.282051
66,4301.538461,4239.487179,4277.435897,4217.948717,4261.025641
67,4334.358974,4258.974358,4304.102564,4247.179487,4252.307692
68,4343.076923,4248.717948,4280.000000,4231.282051,4246.153846
69,4315.897435,4233.846153,4262.051282,4209.230769,4237.435897
70,4335.897435,4256.923076,4302.051282,4238.461538,4216.410256
71,4347.692307,4247.692307,4288.205128,4232.820512,4251.794871
72,4346.666666,4238.461538,4285.641025,4244.102564,4227.179487
73,4310.769230,4214.871794,4277.948717,4239.487179,4210.769230
74,4311.794871,4221.025641,4276.923076,4227.692307,4235.384615
75,4345.128205,4253.846153,4295.384615,4244.615384,4223.076923
76,4316.410256,4245.641025,4281.025641,4231.794871,4240.000000
77,4325.641025,4258.461538,4310.256410,4241.538461,4226.153846
78,4338.974358,4241.538461,4297.948717,4222.051282,4215.897435
79,4322.564102,4223.076923,4257.948717,4204.102564,4227.179487
80,4318.974358,4242.564102,4276.923076,4241.538461,4194.358974
81,4297.948717,4221.025641,4282.051282,4231.794871,4215.384615
82,4324.615384,4224.615384,4303.589743,4237.435897,4226.153846
83,4330.769230,4223.589743,4288.717948,4231.794871,4214.871794
84,4313.846153,4214.871794,4256.410256,4201.025641,4225.641025
85,4341.538461,4252.307692,4288.205128,4230.256410,4209.743589
86,4336.410256,4252.820512,4294.358974,4243.076923,4234.871794
87,4347.692307,4251.282051,4296.923076,4252.820512,4234.358974
88,4353.846153,4241.538461,4301.538461,4230.256410,4221.538461
89,4327.692307,4226.153846,4285.641025,4198.974358,4243.076923
90,4324.615384,4251.794871,4294.358974,4226.666666,4211.794871
91,4308.205128,4225.128205,4284.615384,4204.615384,4214.871794
92,4328.717948,4207.179487,4292.820512,4198.974358,4214.358974
93,4341.025641,4223.076923,4289.743589,4217.948717,4199.487179
94,4315.384615,4229.230769,4260.000000,4198.974358,4229.230769
95,4327.179487,4255.897435,4271.282051,4218.461538,4204.615384
96,4322.564102,4241.025641,4263.076923,4223.076923,4215.897435
97,4347.179487,4243.076923,4281.025641,4230.769230,4239.487179
98,4358.974358,4259.487179,4286.666666,4237.435897,4216.410256
99,4311.282051,4241.025641,4262.051282,4209.743589,4234.358974
100,4330.256410,4262.051282,4310.769230,4227.179487,4228.717948
101,4341.538461,4251.794871,4294.358974,4223.076923,4234.871794
102,4339.487179,4243.076923,4264.102564,4225.128205,4246.153846
103,4352.307692,4272.307692,4298.461538,4249.743589,4238.974358
104,4335.897435,4263.076923,4296.923076,4231.282051,4262.051282
105,4348.717948,4267.179487,4305.128205,4248.205128,4231.794871
106,4336.410256,4268.205128,4292.820512,4244.102564,4226.153846
107,4318.461538,4260.512820,4272.307692,4223.076923,4239.487179
108,4337.435897,4244.615384,4280.000000,4233.846153,4204.102564
109,4327.179487,4217.948717,4272.307692,4206.666666,4223.589743
110,4333.846153,4257.948717,4301.025641,4209.743589,4222.564102
111,4331.794871,4264.615384,4302.564102,4227.692307,4210.769230
112,4322.564102,4236.410256,4278.461538,4227.179487,4215.384615
113,4331.794871,4250.769230,4277.435897,4230.769230,4186.153846
114,4323.589743,4242.564102,4264.102564,4202.051282,4209.743589
115,4354.358974,4258.974358,4305.128205,4218.461538,4218.974358
116,4349.230769,4266.666666,4321.025641,4244.102564,4221.025641
117,4328.205128,4259.487179,4286.153846,4240.000000,4243.076923
118,4364.102564,4273.333333,4279.487179,4237.435897,4211.794871
119,4342.564102,4238.974358,4264.102564,4198.461538,4224.615384
120,4329.743589,4243.589743,4289.743589,4215.897435,4227.179487
121,4345.641025,4261.025641,4311.282051,4241.025641,4212.820512
122,4335.384615,4247.179487,4296.410256,4216.410256,4236.410256
123,4342.564102,4267.692307,4302.564102,4231.282051,4218.974358
124,4338.974358,4245.641025,4282.564102,4211.282051,4228.205128
125,4347.179487,4237.435897,4286.666666,4204.615384,4220.000000
126,4335.897435,4262.051282,4296.923076,4228.205128,4199.487179
127,4324.102564,4267.692307,4282.051282,4236.410256,4230.769230
128,4366.153846,4282.564102,4293.846153,4257.435897,4215.384615
129,4340.512820,4254.358974,4276.410256,4222.564102,4223.589743
130,4322.564102,4253.333333,4279.487179,4214.871794,4227.692307
131,4352.307692,4286.666666,4298.974358,4252.307692,4205.641025
132,4344.615384,4282.564102,4297.948717,4240.512820,4234.358974
133,4351.282051,4287.179487,4332.307692,4231.794871,4219.487179
134,4340.000000,4257.948717,4321.025641,4215.384615,4221.538461
135,4337.435897,4255.897435,4315.384615,4234.871794,4235.384615
136,4354.871794,4296.410256,4341.538461,4258.461538,4217.435897
137,4343.076923,4278.461538,4321.025641,4213.333333,4246.153846
138,4356.923076,4276.410256,4337.435897,4227.692307,4241.025641
139,4343.076923,4275.384615,4334.871794,4244.615384,4245.128205
140,4340.000000,4262.564102,4316.923076,4228.205128,4256.923076
141,4364.102564,4255.897435,4338.461538,4230.769230,4220.000000
142,4334.358974,4225.641025,4328.205128,4202.051282,4235.384615
143,4334.871794,4240.512820,4331.794871,4204.102564,4235.384615
144,4341.538461,4232.307692,4317.435897,4217.948717,4224.102564
145,4338.974358,4214.358974,4311.794871,4229.230769,4237.948717
146,4344.615384,4235.384615,4337.948717,4238.974358,4221.025641
147,4316.923076,4219.487179,4309.230769,4200.512820,4231.282051
148,4336.410256,4222.564102,4315.897435,4209.230769,4219.487179
149,4352.820512,4225.641025,4323.076923,4222.051282,4220.000000
150,4343.076923,4228.205128,4292.307692,4216.923076,4248.205128
151,4353.846153,4251.282051,4301.538461,4242.564102,4225.641025
152,4329.743589,4218.974358,4296.410256,4216.923076,4236.410256
153,4334.358974,4219.487179,4303.076923,4213.333333,4223.076923
154,4346.666666,4227.179487,4308.205128,4229.230769,4213.333333
155,4336.410256,4208.205128,4298.461538,4213.333333,4251.282051
156,4342.051282,4227.692307,4305.128205,4213.846153,4225.128205
157,4310.256410,4218.461538,4283.076923,4186.666666,4231.794871
158,4318.974358,4210.769230,4296.923076,4206.666666,4235.897435
159,4334.871794,4218.461538,4295.897435,4248.205128,4208.205128
160,4310.256410,4218.461538,4269.230769,4227.692307,4229.230769
161,4334.871794,4249.230769,4300.000000,4229.230769,4220.000000
162,4333.333333,4234.358974,4287.692307,4222.051282,4230.256410
163,4331.794871,4221.025641,4285.128205,4216.923076,4237.435897
164,4341.025641,4227.692307,4297.435897,4215.897435,4215.384615
165,4320.000000,4200.512820,4274.358974,4199.487179,4236.410256
166,4332.820512,4213.333333,4294.358974,4237.948717,4223.589743
167,4315.897435,4207.179487,4287.692307,4234.358974,4221.025641
168,4304.102564,4194.871794,4285.128205,4214.358974,4225.641025
169,4331.282051,4218.974358,4299.487179,4241.538461,4213.846153
170,4327.179487,4221.538461,4272.820512,4236.923076,4241.025641
171,4336.410256,4234.358974,4288.205128,4224.102564,4222.051282
172,4330.769230,4210.256410,4294.358974,4187.692307,4226.153846
173,4329.743589,4209.230769,4284.615384,4199.487179,4241.025641
174,4327.692307,4236.410256,4286.153846,4245.641025,4203.589743
175,4302.051282,4200.000000,4263.076923,4213.846153,4221.025641
176,4337.435897,4207.692307,4284.615384,4224.615384,4218.461538
177,4329.230769,4224.615384,4291.282051,4233.846153,4212.820512
178,4300.000000,4217.948717,4281.025641,4211.794871,4226.153846
179,4335.897435,4229.230769,4294.358974,4232.820512,4203.589743
180,4337.435897,4216.923076,4269.230769,4223.589743,4228.205128
181,4334.358974,4230.769230,4286.666666,4231.794871,4216.923076
182,4327.179487,4227.692307,4298.974358,4244.102564,4196.410256
183,4323.589743,4205.641025,4271.794871,4223.076923,4224.615384
184,4346.666666,4223.076923,4283.076923,4220.512820,4208.717948
185,4329.743589,4211.794871,4280.512820,4210.256410,4214.871794
186,4336.410256,4218.974358,4302.564102,4237.435897,4211.794871
187,4340.512820,4233.333333,4312.307692,4244.102564,4199.487179
188,4321.025641,4225.641025,4288.717948,4201.025641,4214.871794
189,4336.923076,4227.179487,4294.358974,4217.948717,4193.846153
190,4321.538461,4194.871794,4273.333333,4229.230769,4208.205128
191,4318.974358,4207.179487,4280.512820,4231.282051,4202.051282
192,4326.153846,4229.230769,4297.948717,4226.153846,4189.230769
193,4312.307692,4216.410256,4289.743589,4203.589743,4236.923076
194,4332.820512,4233.333333,4298.974358,4224.615384,4221.025641
195,4330.769230,4205.641025,4275.384615,4215.897435,4217.948717
196,4335.384615,4210.769230,4283.076923,4225.641025,4235.384615
197,4336.923076,4249.743589,4289.743589,4246.666666,4214.358974
198,4313.846153,4222.564102,4270.769230,4214.871794,4223.589743
199,4334.358974,4220.000000,4307.179487,4222.051282,4209.743589
200,4316.410256,4216.410256,4284.615384,4212.820512,4215.384615
201,4306.666666,4216.923076,4256.923076,4218.974358,4207.692307
202,4329.230769,4229.230769,4284.102564,4253.846153,4180.000000
203,4312.307692,4212.307692,4274.871794,4222.564102,4221.538461
204,4338.974358,4236.410256,4288.717948,4221.538461,4223.589743
205,4347.179487,4247.179487,4284.102564,4232.307692,4225.128205
206,4320.000000,4231.794871,4272.307692,4230.769230,4228.205128
207,4309.743589,4222.051282,4284.615384,4236.410256,4191.282051
208,4302.564102,4210.256410,4268.717948,4213.333333,4219.487179
209,4332.820512,4234.871794,4287.692307,4224.615384,4211.282051
210,4318.974358,4219.487179,4276.923076,4217.948717,4185.128205
211,4299.487179,4208.205128,4260.512820,4224.615384,4207.179487
212,4333.333333,4243.076923,4295.897435,4265.641025,4208.717948
213,4324.102564,4221.538461,4277.948717,4216.410256,4225.128205
214,4331.794871,4223.076923,4273.846153,4196.923076,4209.743589
215,4331.282051,4237.948717,4289.743589,4240.000000,4207.692307
216,4312.307692,4240.000000,4295.897435,4261.025641,4228.717948
217,4336.410256,4271.282051,4305.641025,4254.871794,4195.384615
218,4329.743589,4249.743589,4281.025641,4197.948717,4210.769230
219,4324.102564,4227.179487,4287.692307,4201.025641,4208.205128
220,4320.000000,4220.000000,4301.025641,4230.256410,4192.820512
221,4315.384615,4222.051282,4295.897435,4222.051282,4222.564102
222,4333.333333,4254.871794,4300.512820,4240.000000,4200.000000
223,4296.410256,4223.076923,4265.128205,4217.948717,4196.410256
224,4296.923076,4203.076923,4275.384615,4205.128205,4192.820512
225,4319.487179,4220.512820,4295.897435,4211.794871,4183.076923
226,4300.000000,4223.589743,4282.564102,4202.051282,4209.743589
227,4318.461538,4252.307692,4308.717948,4239.487179,4185.128205
228,4316.923076,4246.153846,4297.948717,4235.384615,4191.282051
229,4315.384615,4233.333333,4292.820512,4222.564102,4205.641025
230,4320.512820,4216.923076,4313.333333,4228.717948,4187.692307
231,4296.923076,4196.923076,4313.333333,4214.871794,4210.256410
232,4302.051282,4243.589743,4340.000000,4240.512820,4194.358974
233,4286.153846,4235.897435,4323.589743,4218.461538,4197.435897
234,4284.102564,4203.076923,4310.256410,4203.589743,4205.641025
235,4296.410256,4214.358974,4313.846153,4242.564102,4175.897435
236,4276.923076,4201.538461,4280.000000,4213.333333,4193.846153
237,4296.923076,4215.897435,4311.794871,4187.179487,4191.282051
238,4293.333333,4217.435897,4325.641025,4195.897435,4202.051282
239,4282.051282,4208.205128,4295.897435,4223.076923,4213.846153
240,4293.846153,4200.512820,4286.666666,4217.948717,4178.974358
241,4274.358974,4170.769230,4273.846153,4172.820512,4193.846153
242,4295.384615,4216.923076,4302.051282,4212.820512,4197.435897
243,4308.205128,4240.000000,4307.692307,4234.871794,4211.282051
244,4302.051282,4213.333333,4293.846153,4210.256410,4225.641025
245,4312.307692,4216.923076,4300.512820,4221.025641,4186.666666
246,4293.333333,4204.102564,4283.076923,4214.358974,4212.307692
247,4307.692307,4218.461538,4303.589743,4233.846153,4225.641025
248,4303.076923,4222.051282,4292.820512,4222.564102,4211.282051
249,4286.666666,4202.564102,4256.923076,4191.794871,4215.897435
250,4309.230769,4204.615384,4288.717948,4230.769230,4192.307692
251,4285.641025,4192.307692,4290.256410,4231.282051,4216.410256
252,4285.641025,4222.051282,4284.615384,4211.282051,4206.666666
253,4304.102564,4230.256410,4286.153846,4203.076923,4190.256410
254,4300.512820,4209.743589,4269.230769,4203.589743,4224.102564
255,4308.205128,4234.871794,4273.846153,4235.384615,4197.948717
