,AF3,AF4,T7,T8,PZ
0,4295.897435,4269.230769,4388.717948,4167.692307,4229.743589
1,4280.000000,4287.692307,4391.794871,4172.307692,4227.692307
2,4290.256410,4307.692307,4404.615384,4218.974358,4246.666666
3,4283.076923,4277.948717,4376.923076,4206.153846,4218.974358
4,4304.102564,4272.307692,4395.897435,4205.128205,4229.230769
5,4287.179487,4287.692307,4388.205128,4185.128205,4226.153846
6,4278.461538,4280.512820,4368.205128,4169.230769,4214.358974
7,4311.794871,4282.564102,4394.871794,4212.820512,4230.769230
8,4282.564102,4271.794871,4372.820512,4200.512820,4204.102564
9,4288.717948,4271.282051,4371.794871,4205.128205,4220.000000
10,4295.897435,4283.076923,4376.410256,4203.589743,4226.666666
11,4278.974358,4280.512820,4369.743589,4173.846153,4205.128205
12,4301.538461,4274.871794,4388.205128,4205.128205,4220.000000
13,4283.076923,4258.974358,4364.615384,4205.641025,4205.128205
14,4286.153846,4278.974358,4372.820512,4204.102564,4222.564102
15,4296.410256,4296.410256,4375.384615,4202.051282,4227.692307
16,4281.538461,4281.025641,4358.461538,4198.974358,4205.641025
17,4296.923076,4287.179487,4381.025641,4221.025641,4230.769230
18,4285.128205,4276.410256,4355.384615,4184.102564,4218.461538
19,4295.897435,4268.717948,4361.025641,4200.000000,4221.538461
20,4292.820512,4287.179487,4386.153846,4233.846153,4228.205128
21,4261.025641,4281.025641,4368.205128,4207.692307,4212.307692
22,4284.102564,4269.230769,4375.384615,4223.076923,4229.743589
23,4279.487179,4265.641025,4361.538461,4196.410256,4209.230769
24,4286.666666,4277.435897,4368.717948,4166.153846,4210.256410
25,4295.897435,4287.179487,4367.692307,4189.230769,4220.000000
26,4270.769230,4277.435897,4341.538461,4187.179487,4197.948717
27,4296.410256,4278.461538,4370.769230,4214.871794,4224.615384
28,4278.974358,4262.564102,4352.307692,4220.000000,4207.179487
29,4256.410256,4246.666666,4345.128205,4204.102564,4187.692307
30,4273.333333,4255.897435,4363.076923,4190.256410,4200.512820
31,4266.153846,4262.564102,4332.820512,4169.230769,4189.230769
32,4296.923076,4284.102564,4361.025641,4215.897435,4217.435897
33,4289.743589,4278.461538,4364.615384,4204.102564,4210.769230
34,4267.692307,4261.025641,4342.564102,4185.128205,4196.923076
35,4278.461538,4257.435897,4357.435897,4218.461538,4209.743589
36,4266.666666,4239.487179,4349.230769,4174.358974,4188.205128
37,4291.794871,4255.897435,4355.897435,4181.025641,4202.564102
38,4280.512820,4264.102564,4341.025641,4207.692307,4196.410256
39,4254.871794,4242.564102,4345.128205,4190.256410,4183.589743
40,4274.871794,4244.102564,4366.666666,4200.000000,4206.666666
41,4267.179487,4243.076923,4317.948717,4214.871794,4188.205128
42,4290.256410,4261.025641,4304.102564,4237.435897,4199.487179
43,4289.743589,4281.538461,4302.051282,4206.153846,4199.487179
44,4272.820512,4273.333333,4300.000000,4206.153846,4194.358974
45,4297.435897,4262.564102,4312.820512,4252.820512,4225.128205
46,4276.923076,4244.102564,4266.153846,4195.384615,4202.051282
47,4276.923076,4249.230769,4276.923076,4170.769230,4201.538461
48,4283.076923,4267.179487,4300.000000,4214.358974,4204.615384
49,4266.666666,4258.461538,4269.230769,4230.769230,4189.230769
50,4283.589743,4249.743589,4283.589743,4227.692307,4211.794871
51,4278.461538,4243.589743,4290.769230,4191.794871,4195.897435
52,4295.384615,4260.512820,4284.102564,4223.589743,4196.410256
53,4289.743589,4270.256410,4234.358974,4243.589743,4193.333333
54,4265.128205,4250.256410,4201.025641,4194.358974,4167.692307
55,4304.102564,4260.000000,4251.794871,4225.128205,4196.410256
56,4282.051282,4258.461538,4223.076923,4217.435897,4190.256410
57,4262.564102,4248.717948,4200.000000,4180.000000,4189.743589
58,4275.897435,4262.564102,4220.512820,4198.974358,4200.512820
59,4257.435897,4256.410256,4195.384615,4227.179487,4190.769230
60,4273.333333,4248.717948,4204.102564,4246.153846,4216.410256
61,4266.666666,4234.358974,4207.179487,4191.794871,4198.974358
62,4268.717948,4240.000000,4231.794871,4197.948717,4202.564102
63,4279.487179,4259.487179,4238.974358,4243.076923,4225.128205
64,4267.692307,4245.128205,4199.487179,4201.538461,4197.435897
65,4297.435897,4245.128205,4224.615384,4208.717948,4214.358974
66,4273.333333,4245.128205,4215.384615,4219.487179,4208.205128
67,4263.076923,4248.717948,4203.076923,4214.871794,4205.128205
68,4304.102564,4265.641025,4240.000000,4235.384615,4227.692307
69,4283.076923,4258.461538,4228.205128,4229.230769,4208.717948
70,4284.615384,4263.076923,4219.487179,4225.641025,4219.487179
71,4283.589743,4265.128205,4213.333333,4191.282051,4208.205128
72,4275.384615,4266.153846,4223.589743,4203.076923,4198.974358
73,4294.871794,4277.435897,4240.000000,4264.102564,4224.615384
74,4282.051282,4270.769230,4218.974358,4236.923076,4202.564102
75,4294.871794,4281.025641,4238.461538,4221.538461,4211.794871
76,4289.230769,4281.538461,4223.589743,4200.512820,4214.358974
77,4276.923076,4266.153846,4212.307692,4175.384615,4208.205128
78,4294.871794,4266.153846,4251.282051,4224.615384,4229.230769
79,4270.256410,4247.179487,4228.205128,4230.769230,4206.153846
80,4281.025641,4248.205128,4237.948717,4238.461538,4219.487179
81,4274.871794,4263.076923,4241.538461,4233.333333,4225.641025
82,4252.307692,4251.794871,4212.307692,4197.948717,4201.025641
83,4280.000000,4247.179487,4235.897435,4213.333333,4212.307692
84,4254.871794,4242.051282,4224.615384,4197.948717,4195.897435
85,4258.974358,4247.179487,4230.769230,4215.384615,4207.179487
86,4280.512820,4260.512820,4248.205128,4234.871794,4218.461538
87,4268.717948,4256.410256,4234.358974,4195.384615,4204.102564
88,4294.358974,4253.846153,4240.000000,4210.256410,4223.589743
89,4278.974358,4252.820512,4218.974358,4225.641025,4199.487179
90,4277.435897,4263.076923,4231.282051,4233.333333,4198.461538
91,4297.948717,4263.076923,4251.794871,4224.615384,4216.410256
92,4283.076923,4250.769230,4229.230769,4196.923076,4200.512820
93,4294.358974,4262.051282,4239.487179,4215.384615,4214.358974
94,4284.102564,4252.307692,4227.179487,4202.051282,4192.307692
95,4282.564102,4253.333333,4232.307692,4213.333333,4193.333333
96,4283.076923,4274.871794,4250.769230,4243.589743,4214.358974
97,4268.717948,4257.435897,4231.282051,4223.589743,4194.358974
98,4304.102564,4255.897435,4256.410256,4224.615384,4219.487179
99,4278.461538,4258.974358,4244.102564,4197.948717,4214.358974
100,4254.871794,4247.179487,4243.589743,4202.051282,4201.025641
101,4281.538461,4242.564102,4280.000000,4224.615384,4214.358974
102,4260.512820,4229.743589,4266.153846,4186.666666,4202.564102
103,4271.794871,4248.205128,4304.102564,4220.512820,4234.358974
104,4277.948717,4270.769230,4337.435897,4227.179487,4232.820512
105,4269.743589,4260.512820,4345.128205,4186.153846,4214.358974
106,4277.435897,4246.153846,4366.153846,4213.333333,4230.769230
107,4255.384615,4238.461538,4365.128205,4225.128205,4224.615384
108,4276.923076,4255.897435,4392.820512,4225.641025,4248.717948
109,4276.923076,4258.461538,4372.820512,4190.769230,4243.076923
110,4266.666666,4253.846153,4358.461538,4185.128205,4230.256410
111,4288.717948,4264.102564,4386.153846,4244.102564,4248.717948
112,4257.948717,4242.051282,4356.923076,4224.102564,4219.487179
113,4267.179487,4247.692307,4368.717948,4210.256410,4233.333333
114,4286.153846,4269.743589,4383.076923,4203.076923,4245.128205
115,4277.948717,4258.974358,4363.589743,4170.769230,4228.205128
116,4292.820512,4258.461538,4377.948717,4190.769230,4248.717948
117,4268.205128,4253.846153,4365.128205,4203.076923,4226.666666
118,4271.794871,4252.307692,4377.435897,4230.769230,4225.128205
119,4272.820512,4253.333333,4385.128205,4227.692307,4232.820512
120,4255.384615,4254.358974,4372.307692,4197.435897,4222.051282
121,4286.153846,4275.897435,4390.256410,4241.025641,4246.153846
122,4265.128205,4262.051282,4354.358974,4233.846153,4228.717948
123,4251.282051,4245.641025,4351.282051,4200.000000,4226.153846
124,4266.153846,4261.538461,4378.461538,4193.846153,4230.769230
125,4268.717948,4277.435897,4367.692307,4206.666666,4221.025641
126,4293.846153,4293.846153,4382.564102,4267.179487,4250.769230
127,4276.923076,4276.410256,4369.743589,4234.358974,4231.282051
128,4287.179487,4263.589743,4370.256410,4195.384615,4230.769230
129,4302.564102,4284.102564,4365.641025,4236.923076,4249.743589
130,4271.794871,4290.769230,4338.974358,4249.743589,4226.153846
131,4288.717948,4288.717948,4375.897435,4247.179487,4240.512820
132,4273.333333,4278.461538,4367.179487,4209.230769,4235.897435
133,4274.358974,4281.538461,4362.051282,4224.615384,4238.461538
134,4302.564102,4287.692307,4392.820512,4260.512820,4255.384615
135,4264.102564,4276.410256,4364.102564,4213.333333,4236.923076
136,4267.692307,4292.820512,4368.205128,4223.589743,4260.000000
137,4287.179487,4296.410256,4373.846153,4231.282051,4250.769230
138,4293.846153,4278.461538,4372.820512,4213.846153,4234.871794
139,4295.897435,4285.641025,4380.000000,4227.692307,4250.769230
140,4271.794871,4281.025641,4350.769230,4218.974358,4220.512820
141,4305.128205,4276.410256,4374.358974,4245.128205,4235.897435
142,4306.666666,4282.564102,4371.282051,4232.820512,4244.615384
143,4287.692307,4281.538461,4343.076923,4195.897435,4225.641025
144,4315.897435,4288.205128,4373.846153,4234.358974,4239.487179
145,4300.512820,4295.897435,4378.461538,4257.435897,4233.846153
146,4304.615384,4305.128205,4385.128205,4265.128205,4253.333333
147,4311.794871,4286.153846,4376.923076,4243.076923,4247.692307
148,4311.282051,4279.487179,4373.333333,4222.051282,4231.794871
149,4324.615384,4315.897435,4389.743589,4240.512820,4254.358974
150,4289.230769,4306.666666,4348.717948,4225.128205,4228.717948
151,4300.512820,4291.282051,4366.153846,4244.615384,4233.846153
152,4309.743589,4296.923076,4381.538461,4248.717948,4240.000000
153,4282.051282,4280.000000,4353.333333,4221.025641,4218.461538
154,4301.538461,4289.230769,4372.307692,4242.051282,4241.025641
155,4291.794871,4304.102564,4346.666666,4219.487179,4229.743589
156,4300.512820,4296.410256,4342.564102,4222.564102,4234.871794
157,4308.205128,4289.230769,4359.487179,4236.410256,4243.076923
158,4275.384615,4276.410256,4336.410256,4208.717948,4220.000000
159,4285.641025,4268.717948,4345.128205,4220.000000,4232.307692
160,4284.102564,4259.487179,4342.051282,4193.333333,4221.025641
161,4301.538461,4277.948717,4354.358974,4213.846153,4236.410256
162,4307.179487,4289.743589,4354.871794,4263.076923,4245.641025
163,4274.358974,4263.589743,4337.948717,4226.666666,4210.769230
164,4301.538461,4272.820512,4380.000000,4225.128205,4240.512820
165,4296.923076,4270.769230,4364.615384,4230.256410,4239.487179
166,4287.692307,4257.435897,4324.615384,4233.333333,4225.641025
167,4308.205128,4280.512820,4306.666666,4246.666666,4234.871794
168,4288.717948,4294.871794,4273.333333,4226.666666,4211.794871
169,4300.000000,4297.435897,4290.256410,4217.948717,4218.461538
170,4294.871794,4277.948717,4282.564102,4177.435897,4203.589743
171,4293.333333,4272.820512,4282.051282,4190.256410,4205.641025
172,4316.410256,4291.794871,4305.128205,4260.000000,4231.282051
173,4296.923076,4293.846153,4276.410256,4252.307692,4209.230769
174,4309.230769,4294.358974,4283.589743,4257.948717,4229.230769
175,4302.564102,4287.179487,4278.974358,4243.589743,4225.641025
176,4292.307692,4291.282051,4276.923076,4209.230769,4211.282051
177,4317.435897,4309.230769,4290.769230,4229.230769,4234.871794
178,4297.435897,4292.820512,4245.128205,4233.333333,4209.743589
179,4304.102564,4282.564102,4261.025641,4251.282051,4209.230769
180,4296.923076,4278.974358,4284.615384,4226.153846,4205.641025
181,4284.615384,4271.794871,4261.538461,4204.102564,4195.384615
182,4310.256410,4280.512820,4249.743589,4245.128205,4212.820512
183,4277.948717,4261.538461,4200.000000,4210.769230,4181.538461
184,4287.179487,4262.051282,4201.025641,4208.717948,4191.282051
185,4314.358974,4289.230769,4227.179487,4242.564102,4209.743589
186,4293.846153,4287.692307,4222.051282,4223.076923,4198.461538
187,4302.051282,4281.538461,4228.205128,4228.205128,4214.871794
188,4294.358974,4265.128205,4208.717948,4227.179487,4194.358974
189,4302.564102,4270.256410,4228.717948,4242.564102,4205.641025
190,4295.897435,4289.230769,4230.769230,4238.974358,4219.487179
191,4280.512820,4275.384615,4193.846153,4213.333333,4198.461538
192,4318.461538,4275.384615,4216.923076,4250.769230,4217.948717
193,4296.410256,4286.666666,4209.230769,4251.794871,4206.153846
194,4291.794871,4301.025641,4216.410256,4248.205128,4213.846153
195,4311.794871,4309.743589,4224.102564,4246.153846,4222.051282
196,4280.512820,4285.128205,4192.820512,4208.717948,4184.615384
197,4289.230769,4272.307692,4220.512820,4234.358974,4202.051282
198,4285.641025,4273.846153,4211.794871,4234.871794,4196.923076
199,4290.256410,4286.666666,4204.615384,4215.384615,4197.435897
200,4307.692307,4292.307692,4226.666666,4236.410256,4216.410256
201,4282.564102,4269.743589,4204.615384,4227.179487,4192.820512
202,4287.692307,4272.307692,4212.307692,4227.179487,4204.102564
203,4274.871794,4260.512820,4209.743589,4208.717948,4191.794871
204,4267.692307,4242.564102,4215.384615,4214.358974,4186.666666
205,4279.487179,4260.000000,4225.641025,4253.846153,4209.743589
206,4265.128205,4255.384615,4200.512820,4232.820512,4190.769230
207,4294.871794,4253.846153,4234.358974,4213.333333,4205.641025
208,4282.564102,4264.102564,4239.487179,4182.051282,4204.102564
209,4266.666666,4265.641025,4217.948717,4199.487179,4192.307692
210,4297.948717,4259.487179,4230.769230,4269.230769,4201.538461
211,4274.358974,4235.384615,4208.205128,4235.384615,4174.871794
212,4280.000000,4245.128205,4224.615384,4206.153846,4191.794871
213,4295.897435,4259.487179,4241.538461,4214.871794,4196.923076
214,4291.282051,4257.435897,4235.897435,4227.179487,4186.666666
215,4301.538461,4264.102564,4237.435897,4235.897435,4206.153846
216,4281.025641,4251.282051,4210.256410,4189.743589,4184.102564
217,4302.564102,4254.871794,4243.076923,4204.615384,4201.538461
218,4307.179487,4272.307692,4271.794871,4232.307692,4213.846153
219,4287.179487,4275.897435,4269.743589,4240.000000,4201.538461
220,4314.871794,4277.435897,4305.128205,4269.743589,4232.307692
221,4287.692307,4255.897435,4312.820512,4218.974358,4223.076923
222,4283.589743,4253.846153,4350.256410,4208.205128,4232.820512
223,4306.153846,4271.282051,4368.717948,4246.666666,4244.615384
224,4293.333333,4268.205128,4349.743589,4238.461538,4221.538461
225,4298.974358,4267.692307,4370.769230,4258.461538,4230.769230
226,4273.333333,4251.282051,4338.974358,4234.358974,4215.384615
227,4280.000000,4239.487179,4334.871794,4196.410256,4226.153846
228,4296.410256,4244.102564,4369.743589,4194.358974,4238.461538
229,4279.487179,4242.564102,4367.692307,4207.692307,4217.435897
230,4305.128205,4261.025641,4389.743589,4265.128205,4242.051282
231,4291.282051,4270.256410,4371.282051,4242.051282,4235.384615
232,4285.128205,4268.205128,4361.025641,4199.487179,4233.333333
233,4297.435897,4267.179487,4380.000000,4207.692307,4240.512820
234,4265.641025,4243.076923,4359.487179,4200.512820,4209.230769
235,4270.256410,4238.974358,4367.179487,4222.564102,4226.666666
236,4267.692307,4247.179487,4360.000000,4208.717948,4227.692307
237,4274.871794,4252.307692,4363.076923,4206.666666,4223.589743
238,4290.256410,4257.435897,4380.000000,4233.333333,4236.410256
239,4268.717948,4254.358974,4352.820512,4192.820512,4216.923076
240,4294.358974,4261.538461,4372.820512,4200.512820,4237.435897
241,4293.846153,4252.307692,4370.256410,4221.025641,4231.282051
242,4284.102564,4253.846153,4357.948717,4227.179487,4223.076923
243,4305.641025,4280.512820,4375.384615,4252.307692,4246.666666
244,4284.615384,4268.717948,4352.820512,4224.615384,4219.487179
245,4298.974358,4258.461538,4371.282051,4215.384615,4225.128205
246,4301.538461,4254.358974,4372.820512,4208.205128,4229.230769
247,4296.923076,4253.846153,4356.923076,4219.487179,4225.641025
248,4325.641025,4285.128205,4370.769230,4246.666666,4250.256410
249,4297.435897,4281.538461,4351.794871,4197.435897,4231.282051
250,4301.025641,4260.512820,4379.487179,4215.384615,4245.128205
251,4309.230769,4257.948717,4380.000000,4253.333333,4245.128205
