,AF3,F7,F3,FC5,T7,P7,O1,O2,P8,T8,FC6,F4,F8,AF4
0,4379.487179,4488.205128,4561.025641,4237.948717,4545.128205,4209.743589,4431.794871,4201.025641,4260.512820,4525.128205,4269.230769,4617.435897,4001.538461,3895.897436
1,4382.051282,4482.564102,4553.333333,4231.282051,4533.846153,4206.666666,4427.692307,4205.128205,4257.435897,4529.743589,4258.974358,4610.769230,3988.205129,3897.948718
2,4377.948717,4477.948717,4544.102564,4226.153846,4514.358974,4196.410256,4419.487179,4195.384615,4251.794871,4518.974358,4249.230769,4602.051282,3977.435898,3894.358975
3,4381.538461,4487.179487,4547.692307,4232.307692,4512.820512,4197.435897,4425.641025,4192.820512,4257.435897,4507.692307,4267.692307,4609.230769,3988.205129,3895.384616
4,4386.153846,4496.923076,4554.358974,4237.435897,4527.692307,4205.128205,4429.743589,4201.538461,4261.538461,4518.974358,4278.974358,4616.410256,4001.025641,3904.615385
5,4394.358974,4504.102564,4562.051282,4248.717948,4555.384615,4215.384615,4431.282051,4213.333333,4268.205128,4540.512820,4277.948717,4624.615384,4011.282051,3922.051283
6,4404.615384,4503.076923,4566.666666,4258.461538,4557.948717,4221.538461,4433.333333,4213.333333,4273.846153,4537.948717,4282.564102,4633.333333,4015.384615,3924.102565
7,4395.384615,4491.794871,4558.461538,4243.589743,4528.717948,4213.846153,4426.666666,4201.538461,4263.589743,4518.461538,4279.487179,4628.205128,4002.564102,3910.256411
8,4378.974358,4488.717948,4549.743589,4231.282051,4515.897435,4202.564102,4420.000000,4198.974358,4259.487179,4519.487179,4270.256410,4617.435897,3994.358975,3909.230770
9,4382.051282,4491.794871,4553.333333,4237.948717,4527.692307,4204.615384,4423.589743,4204.102564,4267.692307,4537.435897,4270.769230,4617.435897,4000.512820,3912.307693
10,4397.435897,4495.897435,4555.384615,4243.589743,4531.282051,4210.256410,4428.205128,4201.538461,4265.641025,4535.897435,4269.743589,4623.589743,3996.923077,3908.717949
11,4397.948717,4490.769230,4552.820512,4238.974358,4524.102564,4209.743589,4428.717948,4198.461538,4262.564102,4523.589743,4268.717948,4627.179487,3995.384616,3913.333334
12,4382.564102,4468.205128,4554.871794,4228.205128,4527.692307,4211.282051,4429.743589,4204.102564,4272.820512,4531.282051,4275.897435,4627.179487,4001.025641,3912.307693
13,4383.589743,4469.230769,4554.358974,4227.692307,4533.333333,4210.256410,4429.230769,4207.179487,4275.384615,4536.410256,4275.897435,4626.666666,3994.358975,3904.102565
14,4402.564102,4508.717948,4552.820512,4244.102564,4525.641025,4202.051282,4423.076923,4201.538461,4266.153846,4515.384615,4266.153846,4630.256410,3992.307693,3918.974359
15,4418.461538,4526.666666,4558.461538,4251.794871,4520.512820,4197.435897,4414.358974,4192.820512,4257.435897,4500.512820,4266.666666,4636.923076,4003.589743,3941.538462
16,4425.128205,4518.974358,4567.692307,4251.794871,4520.000000,4196.410256,4409.743589,4185.641025,4244.615384,4504.615384,4263.589743,4637.948717,3990.769231,3944.615385
17,4432.820512,4535.384615,4569.743589,4264.615384,4525.128205,4200.512820,4415.384615,4181.025641,4235.897435,4502.564102,4251.282051,4635.897435,3967.179488,3947.692308
18,4445.128205,4555.897435,4571.282051,4273.846153,4541.025641,4212.307692,4426.666666,4183.589743,4242.564102,4500.512820,4251.794871,4641.538461,3977.948718,3958.974359
19,4450.769230,4546.153846,4576.923076,4266.153846,4549.230769,4217.948717,4430.769230,4190.769230,4257.435897,4509.230769,4255.897435,4650.256410,3991.794872,3959.487180
20,4441.538461,4535.384615,4576.410256,4260.512820,4535.384615,4214.358974,4427.179487,4192.820512,4260.000000,4504.102564,4248.205128,4652.820512,3978.974359,3956.923077
21,4431.794871,4538.461538,4570.769230,4257.435897,4519.487179,4209.230769,4422.564102,4189.743589,4253.333333,4495.897435,4250.769230,4647.179487,3967.179488,3958.974359
22,4434.871794,4534.871794,4570.256410,4256.410256,4513.846153,4198.974358,4415.384615,4184.615384,4248.205128,4502.564102,4262.051282,4637.948717,3968.717949,3956.923077
23,4434.871794,4522.051282,4570.256410,4255.897435,4521.538461,4196.923076,4413.846153,4180.512820,4247.692307,4508.205128,4251.282051,4635.897435,3971.282052,3950.769231
24,4426.153846,4524.102564,4568.717948,4249.743589,4529.743589,4205.128205,4423.589743,4180.000000,4252.820512,4501.538461,4235.384615,4640.512820,3971.794872,3945.641026
25,4424.102564,4529.743589,4567.179487,4246.153846,4521.025641,4202.564102,4426.153846,4179.487179,4252.820512,4502.051282,4241.538461,4640.000000,3963.076924,3939.487180
26,4431.282051,4528.717948,4567.692307,4252.820512,4522.051282,4199.487179,4426.153846,4182.051282,4251.794871,4509.230769,4260.000000,4643.076923,3959.487180,3941.025642
27,4437.435897,4530.256410,4570.256410,4261.025641,4533.333333,4211.282051,4435.897435,4190.256410,4256.923076,4509.230769,4256.923076,4649.230769,3970.256411,3950.769231
28,4425.641025,4527.179487,4566.666666,4256.923076,4527.692307,4212.820512,4436.923076,4192.307692,4257.435897,4498.461538,4235.897435,4641.538461,3964.615385,3947.179488
29,4408.717948,4520.000000,4555.897435,4248.205128,4521.025641,4202.564102,4429.743589,4190.769230,4248.717948,4489.743589,4227.179487,4631.282051,3946.153847,3930.256411
30,4412.307692,4520.000000,4552.307692,4247.179487,4522.564102,4204.102564,4428.717948,4195.897435,4247.179487,4493.846153,4233.333333,4633.333333,3946.666667,3920.000000
31,4424.102564,4524.102564,4560.512820,4253.846153,4514.358974,4208.205128,4431.282051,4201.538461,4257.435897,4501.025641,4233.846153,4636.923076,3954.871795,3926.666667
32,4420.512820,4524.102564,4566.153846,4255.897435,4501.025641,4202.051282,4427.692307,4198.974358,4261.025641,4498.461538,4224.615384,4633.333333,3950.769231,3937.948718
33,4417.948717,4527.692307,4567.692307,4257.948717,4517.435897,4204.615384,4425.641025,4196.410256,4257.948717,4498.974358,4231.282051,4636.410256,3950.256411,3941.538462
34,4430.769230,4539.487179,4576.410256,4266.666666,4545.641025,4217.435897,4431.794871,4201.025641,4261.538461,4506.666666,4251.794871,4649.743589,3964.102565,3942.051283
35,4435.384615,4532.820512,4585.641025,4265.128205,4544.102564,4220.512820,4441.538461,4208.205128,4271.794871,4507.179487,4261.025641,4657.435897,3971.794872,3948.205129
36,4429.743589,4524.102564,4586.666666,4258.974358,4533.333333,4216.923076,4440.000000,4211.794871,4276.410256,4503.076923,4252.820512,4653.846153,3967.179488,3951.282052
37,4435.384615,4543.076923,4586.666666,4268.205128,4538.974358,4218.461538,4430.769230,4206.153846,4268.717948,4513.846153,4244.615384,4648.717948,3966.153847,3946.153847
38,4441.538461,4558.461538,4586.153846,4274.871794,4534.358974,4214.358974,4427.179487,4195.897435,4258.461538,4519.487179,4244.615384,4644.102564,3964.615385,3943.076924
39,4433.333333,4548.205128,4579.487179,4266.666666,4508.717948,4203.589743,4420.512820,4186.666666,4253.333333,4499.487179,4240.512820,4636.410256,3952.307693,3941.538462
40,4425.128205,4545.128205,4577.948717,4265.641025,4500.512820,4197.435897,4410.769230,4181.538461,4247.692307,4480.512820,4230.769230,4634.871794,3938.974359,3939.487180
41,4426.666666,4555.897435,4585.641025,4272.307692,4515.897435,4198.461538,4415.384615,4181.538461,4240.000000,4486.153846,4219.487179,4636.410256,3934.358975,3941.538462
42,4430.769230,4557.435897,4590.769230,4274.358974,4533.333333,4207.692307,4426.153846,4186.666666,4240.512820,4499.487179,4218.461538,4638.974358,3934.358975,3943.076924
43,4435.897435,4556.923076,4590.769230,4275.384615,4535.384615,4213.333333,4427.692307,4190.769230,4244.615384,4497.948717,4225.128205,4646.153846,3941.025642,3941.025642
44,4434.871794,4555.897435,4587.692307,4270.769230,4520.512820,4209.230769,4425.128205,4186.666666,4242.051282,4489.743589,4233.333333,4642.564102,3945.641026,3942.051283
45,4426.153846,4551.282051,4586.666666,4266.666666,4522.564102,4209.230769,4427.692307,4187.692307,4238.461538,4492.307692,4237.435897,4634.358974,3938.974359,3949.743590
46,4429.230769,4555.897435,4590.769230,4270.769230,4540.000000,4217.435897,4430.769230,4195.897435,4244.615384,4497.435897,4235.897435,4641.538461,3940.000000,3954.358975
47,4435.897435,4560.000000,4588.205128,4270.769230,4532.820512,4219.487179,4428.717948,4193.333333,4251.282051,4496.410256,4231.282051,4643.589743,3937.435898,3949.743590
48,4425.128205,4550.256410,4575.384615,4263.076923,4516.410256,4211.282051,4426.153846,4184.615384,4245.641025,4486.666666,4226.153846,4629.743589,3924.615385,3938.461539
49,4411.282051,4542.564102,4569.230769,4264.615384,4522.564102,4207.692307,4428.717948,4187.179487,4236.923076,4481.538461,4225.641025,4624.102564,3924.102565,3926.666667
50,4410.769230,4549.743589,4571.282051,4267.179487,4531.282051,4214.871794,4428.717948,4191.282051,4236.923076,4487.692307,4220.512820,4624.615384,3929.743590,3923.076924
51,4414.871794,4554.358974,4566.666666,4262.051282,4523.589743,4216.923076,4426.666666,4188.205128,4241.538461,4484.102564,4212.820512,4617.948717,3925.641026,3925.641026
52,4412.307692,4548.205128,4563.589743,4260.000000,4514.871794,4209.230769,4425.128205,4186.153846,4242.051282,4479.487179,4215.384615,4612.820512,3922.564103,3928.205129
53,4415.897435,4550.769230,4570.256410,4272.820512,4526.153846,4207.692307,4425.641025,4189.743589,4242.564102,4496.410256,4228.717948,4622.051282,3932.820513,3934.871795
54,4425.128205,4559.487179,4574.358974,4285.641025,4540.512820,4215.897435,4427.692307,4192.307692,4247.692307,4508.205128,4241.538461,4633.333333,3944.102565,3940.512821
55,4427.692307,4556.923076,4571.794871,4281.538461,4529.230769,4213.846153,4428.205128,4188.717948,4246.666666,4500.000000,4236.410256,4631.794871,3944.615385,3938.461539
56,4424.615384,4552.307692,4569.230769,4271.794871,4511.282051,4209.230769,4420.512820,4184.102564,4242.051282,4495.897435,4228.717948,4622.051282,3937.435898,3933.333334
57,4422.564102,4555.384615,4568.205128,4267.692307,4525.641025,4214.358974,4415.384615,4188.717948,4246.153846,4504.102564,4233.846153,4621.025641,3940.512821,3931.282052
58,4424.615384,4557.435897,4569.743589,4272.820512,4545.128205,4219.487179,4425.641025,4193.846153,4249.743589,4506.666666,4236.923076,4625.641025,3950.256411,3936.410257
59,4426.153846,4554.358974,4569.743589,4273.333333,4528.205128,4213.333333,4425.641025,4188.717948,4240.000000,4501.538461,4228.717948,4622.564102,3944.102565,3941.025642
60,4424.615384,4551.282051,4568.205128,4267.179487,4514.358974,4203.589743,4410.256410,4180.000000,4231.282051,4493.333333,4230.769230,4615.897435,3936.923077,3939.487180
61,4428.205128,4557.948717,4571.282051,4271.794871,4536.410256,4207.692307,4414.871794,4182.051282,4241.538461,4500.000000,4243.589743,4618.974358,3945.128206,3940.000000
62,4429.743589,4562.051282,4575.384615,4281.025641,4541.025641,4220.000000,4429.230769,4190.769230,4253.333333,4514.871794,4241.025641,4626.666666,3949.743590,3943.076924
63,4418.461538,4552.820512,4570.256410,4275.897435,4507.179487,4213.333333,4421.538461,4186.666666,4245.641025,4501.538461,4230.769230,4618.974358,3942.564103,3941.025642
64,4417.435897,4547.692307,4566.666666,4266.153846,4501.025641,4200.000000,4416.923076,4183.076923,4243.076923,4490.256410,4231.794871,4611.282051,3943.076924,3936.923077
65,4432.307692,4554.871794,4569.743589,4269.230769,4527.179487,4207.179487,4429.230769,4191.794871,4251.282051,4495.897435,4231.282051,4614.871794,3946.153847,3933.333334
66,4426.153846,4556.410256,4570.256410,4270.769230,4533.846153,4218.974358,4430.769230,4197.435897,4248.205128,4489.230769,4225.641025,4613.846153,3938.461539,3930.256411
67,4409.743589,4547.179487,4569.230769,4270.769230,4535.384615,4218.461538,4426.666666,4200.000000,4247.692307,4492.820512,4232.820512,4612.820512,3938.461539,3935.897436
68,4417.948717,4547.179487,4570.769230,4272.820512,4541.025641,4215.897435,4430.769230,4201.538461,4256.923076,4511.282051,4242.564102,4619.487179,3950.256411,3943.589744
69,4432.820512,4558.974358,4572.820512,4273.846153,4529.743589,4213.846153,4425.641025,4193.846153,4254.358974,4505.641025,4239.487179,4620.000000,3955.384616,3937.435898
70,4428.205128,4559.487179,4569.743589,4276.923076,4511.794871,4204.615384,4412.820512,4185.128205,4243.076923,4491.282051,4236.923076,4610.256410,3946.666667,3929.230770
71,4413.333333,4546.666666,4563.076923,4272.307692,4513.333333,4200.512820,4412.820512,4185.128205,4242.564102,4496.410256,4232.820512,4606.666666,3936.410257,3932.820513
72,4414.358974,4548.205128,4563.589743,4266.153846,4526.153846,4211.794871,4423.589743,4185.641025,4247.692307,4497.948717,4230.769230,4611.794871,3937.948718,3937.948718
73,4428.205128,4557.948717,4572.307692,4273.333333,4527.692307,4220.000000,4429.230769,4188.205128,4255.897435,4496.410256,4240.512820,4618.461538,3946.666667,3939.487180
74,4428.717948,4555.384615,4573.846153,4277.948717,4522.051282,4218.461538,4426.666666,4197.435897,4261.538461,4505.128205,4248.717948,4621.025641,3946.666667,3942.051283
75,4416.410256,4549.743589,4569.230769,4266.153846,4525.641025,4216.923076,4427.179487,4202.051282,4257.948717,4503.589743,4248.205128,4617.435897,3943.076924,3944.102565
76,4419.487179,4553.846153,4570.769230,4267.179487,4531.282051,4218.461538,4429.743589,4198.461538,4256.923076,4502.051282,4247.179487,4618.461538,3950.769231,3944.615385
77,4430.256410,4551.794871,4571.794871,4278.461538,4515.384615,4214.871794,4423.076923,4191.794871,4252.307692,4510.769230,4240.000000,4616.923076,3949.743590,3946.153847
78,4423.589743,4542.051282,4567.179487,4268.205128,4502.051282,4208.205128,4412.820512,4183.589743,4243.076923,4509.230769,4228.717948,4608.717948,3935.384616,3944.102565
79,4410.769230,4542.564102,4568.717948,4258.461538,4509.743589,4207.179487,4408.717948,4181.538461,4241.025641,4495.384615,4231.282051,4605.128205,3936.410257,3933.846154
80,4412.307692,4549.743589,4575.384615,4268.205128,4517.948717,4214.871794,4414.871794,4183.589743,4246.153846,4495.384615,4236.410256,4607.179487,3946.153847,3928.717949
81,4420.512820,4552.307692,4575.384615,4269.743589,4510.769230,4220.000000,4423.589743,4186.666666,4246.153846,4505.128205,4230.769230,4608.717948,3945.128206,3932.820513
82,4417.948717,4551.282051,4571.282051,4262.564102,4502.051282,4213.333333,4423.076923,4183.589743,4238.461538,4500.000000,4226.666666,4601.538461,3939.487180,3933.846154
83,4413.846153,4553.333333,4572.820512,4268.717948,4507.179487,4208.205128,4415.384615,4178.461538,4239.487179,4485.641025,4228.717948,4594.871794,3938.974359,3930.256411
84,4416.410256,4555.897435,4576.410256,4276.410256,4501.025641,4206.666666,4410.769230,4175.384615,4242.564102,4484.615384,4231.282051,4600.000000,3940.000000,3933.333334
85,4416.410256,4551.282051,4572.820512,4270.256410,4477.948717,4202.051282,4409.230769,4175.384615,4238.974358,4490.256410,4222.564102,4597.948717,3930.769231,3933.846154
86,4411.282051,4541.025641,4565.128205,4257.948717,4474.871794,4203.076923,4414.358974,4178.974358,4244.102564,4494.358974,4217.948717,4587.692307,3913.846154,3917.948718
87,4421.025641,4546.153846,4570.256410,4259.487179,4500.000000,4214.871794,4423.076923,4183.076923,4255.897435,4504.615384,4234.871794,4598.461538,3936.923077,3919.487180
88,4446.666666,4570.769230,4589.230769,4278.974358,4515.897435,4224.615384,4424.102564,4189.743589,4260.512820,4518.974358,4259.487179,4627.179487,3997.435898,3963.589744
89,4466.153846,4574.871794,4601.538461,4278.461538,4501.538461,4217.948717,4418.974358,4195.384615,4260.512820,4520.512820,4277.435897,4644.102564,4027.179487,4005.128205
90,4480.000000,4558.461538,4602.051282,4265.128205,4481.538461,4209.743589,4420.000000,4197.948717,4258.461538,4517.948717,4286.666666,4647.692307,4030.769230,4014.358974
91,4499.487179,4557.948717,4608.205128,4276.923076,4480.512820,4210.769230,4426.666666,4204.102564,4260.000000,4521.025641,4292.307692,4654.358974,4056.410256,4028.205128
92,4514.871794,4565.641025,4621.538461,4292.820512,4492.307692,4218.461538,4431.282051,4210.769230,4268.717948,4523.589743,4295.384615,4663.589743,4080.512820,4044.102564
93,4507.692307,4560.512820,4621.025641,4285.641025,4494.358974,4221.025641,4430.769230,4214.358974,4271.794871,4529.743589,4302.564102,4664.615384,4080.000000,4035.897435
94,4492.820512,4548.717948,4608.717948,4276.410256,4485.641025,4217.435897,4427.179487,4211.794871,4265.641025,4533.846153,4301.025641,4654.871794,4072.820512,4025.641025
95,4487.692307,4541.538461,4601.538461,4274.871794,4480.512820,4217.435897,4428.717948,4209.743589,4264.615384,4522.564102,4287.692307,4646.153846,4058.461538,4022.051282
96,4482.051282,4539.487179,4596.923076,4268.717948,4478.974358,4218.974358,4428.205128,4208.717948,4264.102564,4512.820512,4288.717948,4646.153846,4045.128205,4011.282051
97,4467.692307,4532.307692,4586.666666,4258.461538,4469.743589,4211.794871,4418.974358,4204.615384,4256.410256,4511.282051,4288.205128,4640.512820,4040.512820,4000.000000
98,4458.461538,4522.564102,4582.051282,4255.384615,4461.025641,4205.641025,4415.384615,4203.076923,4252.307692,4509.743589,4273.333333,4629.743589,4036.923076,3992.307693
99,4464.102564,4527.692307,4587.179487,4260.512820,4472.307692,4211.282051,4424.615384,4210.769230,4258.461538,4515.384615,4269.743589,4630.769230,4036.410256,3987.179488
100,4466.666666,4535.897435,4588.205128,4266.153846,4486.153846,4218.461538,4430.256410,4217.435897,4266.666666,4520.512820,4283.589743,4637.435897,4036.923076,3990.769231
101,4460.000000,4528.205128,4586.153846,4265.641025,4480.512820,4218.974358,4426.666666,4210.769230,4266.153846,4518.974358,4286.153846,4636.410256,4031.794871,3993.333334
102,4453.333333,4521.538461,4586.153846,4260.512820,4468.717948,4212.820512,4421.025641,4201.025641,4259.487179,4521.025641,4274.871794,4627.179487,4024.102564,3984.615385
103,4452.307692,4525.641025,4577.948717,4254.358974,4462.564102,4204.102564,4412.307692,4198.974358,4253.846153,4516.923076,4272.307692,4618.974358,4017.948717,3977.435898
104,4451.794871,4521.538461,4569.743589,4252.307692,4461.538461,4205.128205,4411.794871,4198.974358,4252.307692,4508.717948,4269.743589,4617.948717,4012.307692,3975.384616
105,4446.666666,4509.743589,4570.256410,4252.820512,4455.897435,4208.205128,4422.051282,4200.512820,4253.333333,4509.743589,4256.410256,4618.461538,4007.692307,3967.692308
106,4440.000000,4504.615384,4568.717948,4251.282051,4444.102564,4204.615384,4425.128205,4204.102564,4253.846153,4511.282051,4251.282051,4612.820512,4006.153846,3960.512821
107,4444.615384,4506.666666,4570.769230,4251.794871,4447.692307,4204.615384,4424.615384,4211.794871,4258.461538,4517.948717,4265.128205,4611.794871,4011.282051,3971.794872
108,4453.333333,4509.230769,4581.025641,4250.256410,4464.615384,4207.179487,4429.230769,4218.974358,4265.128205,4526.153846,4274.358974,4621.538461,4013.846153,3981.538462
109,4445.128205,4507.179487,4585.641025,4251.794871,4469.230769,4204.615384,4427.179487,4215.384615,4259.487179,4520.000000,4265.641025,4623.589743,4007.692307,3972.307693
110,4439.487179,4503.076923,4585.128205,4258.461538,4450.256410,4200.512820,4418.974358,4209.230769,4253.846153,4512.307692,4254.871794,4619.487179,4010.769230,3971.282052
111,4445.641025,4500.512820,4587.692307,4258.974358,4426.153846,4196.923076,4417.948717,4209.743589,4257.948717,4514.871794,4257.435897,4620.000000,4013.846153,3976.923077
112,4444.615384,4499.487179,4586.153846,4252.820512,4425.128205,4194.871794,4421.538461,4213.846153,4260.512820,4517.435897,4269.230769,4621.025641,4000.000000,3968.717949
113,4446.153846,4503.589743,4587.179487,4249.743589,4447.179487,4202.051282,4425.128205,4218.461538,4263.589743,4522.051282,4276.923076,4623.589743,3999.487180,3970.769231
114,4451.282051,4508.717948,4597.435897,4252.820512,4461.538461,4208.717948,4427.692307,4219.487179,4265.641025,4523.589743,4275.384615,4629.743589,4013.333333,3985.641026
115,4442.564102,4501.538461,4597.948717,4256.410256,4454.358974,4207.179487,4427.179487,4216.410256,4262.051282,4514.358974,4268.717948,4630.769230,4006.666666,3983.076924
116,4438.974358,4492.820512,4588.717948,4253.333333,4448.205128,4204.615384,4428.205128,4214.871794,4261.025641,4515.897435,4265.128205,4626.666666,3999.487180,3971.794872
117,4449.230769,4500.000000,4587.692307,4251.794871,4448.205128,4204.615384,4429.230769,4214.358974,4262.051282,4526.153846,4271.794871,4630.769230,4013.333333,3971.282052
118,4445.641025,4500.512820,4586.153846,4254.871794,4433.846153,4201.538461,4424.615384,4207.692307,4254.871794,4513.333333,4278.974358,4631.282051,4018.974358,3974.358975
119,4434.358974,4485.641025,4578.974358,4250.769230,4422.051282,4198.461538,4421.538461,4204.102564,4251.282051,4507.179487,4271.794871,4624.615384,4014.871794,3978.974359
120,4441.025641,4484.102564,4582.564102,4245.641025,4438.461538,4206.153846,4425.641025,4207.179487,4255.897435,4527.692307,4266.666666,4629.230769,4018.974358,3982.564103
121,4448.717948,4493.333333,4586.666666,4249.230769,4446.153846,4211.282051,4428.205128,4210.769230,4257.435897,4534.871794,4276.923076,4634.871794,4016.923076,3981.025642
122,4444.615384,4487.692307,4575.384615,4246.666666,4422.051282,4201.538461,4424.615384,4209.743589,4258.461538,4518.461538,4282.564102,4631.794871,4009.230769,3978.461539
123,4438.461538,4481.538461,4570.256410,4244.615384,4419.487179,4198.461538,4423.589743,4207.179487,4260.000000,4515.384615,4282.051282,4632.820512,4015.384615,3975.384616
124,4444.102564,4493.333333,4577.435897,4254.871794,4445.641025,4208.717948,4426.666666,4209.230769,4260.000000,4528.205128,4282.051282,4636.410256,4027.692307,3976.410257
125,4454.871794,4504.102564,4579.487179,4262.564102,4456.923076,4215.897435,4428.205128,4214.871794,4260.000000,4530.256410,4278.974358,4635.897435,4028.717948,3984.615385
126,4458.974358,4505.128205,4580.512820,4266.666666,4461.538461,4217.435897,4429.743589,4216.923076,4263.076923,4527.179487,4283.589743,4639.487179,4029.743589,3993.846154
127,4456.410256,4505.641025,4585.641025,4269.230769,4458.974358,4217.948717,4429.743589,4216.923076,4269.230769,4529.230769,4293.333333,4643.589743,4032.307692,3996.410257
128,4453.333333,4503.076923,4585.641025,4264.102564,4437.435897,4210.769230,4427.692307,4213.846153,4272.307692,4536.410256,4298.974358,4642.051282,4028.205128,3989.230770
129,4458.974358,4502.051282,4580.000000,4261.538461,4433.333333,4209.230769,4425.641025,4211.282051,4268.205128,4540.512820,4300.000000,4643.076923,4030.769230,3986.666667
130,4462.051282,4506.666666,4575.897435,4261.025641,4443.589743,4213.846153,4426.153846,4212.820512,4263.589743,4535.897435,4293.846153,4643.076923,4037.948717,3991.282052
131,4446.153846,4501.538461,4569.230769,4251.794871,4439.487179,4209.743589,4427.692307,4210.769230,4263.076923,4527.692307,4282.051282,4633.846153,4029.230769,3984.615385
132,4435.897435,4489.743589,4560.512820,4248.717948,4433.846153,4206.666666,4424.102564,4200.512820,4257.948717,4520.512820,4277.435897,4624.102564,4011.794871,3970.769231
133,4441.025641,4490.256410,4555.897435,4256.923076,4433.846153,4209.743589,4418.974358,4195.897435,4252.307692,4519.487179,4275.897435,4621.538461,4010.256410,3968.717949
134,4436.410256,4496.410256,4553.333333,4251.794871,4433.333333,4208.717948,4420.000000,4198.974358,4254.871794,4523.589743,4264.102564,4618.461538,4007.179487,3962.564103
135,4427.179487,4494.871794,4552.820512,4241.025641,4432.307692,4205.128205,4420.512820,4198.461538,4257.435897,4521.538461,4259.487179,4613.333333,4002.051282,3955.384616
136,4437.948717,4494.871794,4559.487179,4247.179487,4428.205128,4204.615384,4414.358974,4195.384615,4257.435897,4516.923076,4277.435897,4618.974358,4018.461538,3970.769231
137,4453.846153,4503.589743,4569.230769,4261.025641,4431.282051,4208.205128,4416.923076,4202.564102,4264.615384,4525.128205,4305.641025,4636.410256,4042.564102,3991.794872
138,4460.000000,4504.615384,4580.000000,4265.641025,4448.717948,4216.410256,4430.256410,4216.923076,4279.487179,4541.538461,4322.564102,4652.307692,4055.384615,3997.435898
139,4453.846153,4494.358974,4583.076923,4259.487179,4445.128205,4219.487179,4427.692307,4216.923076,4278.974358,4545.641025,4313.846153,4651.282051,4056.923076,3993.333334
140,4442.564102,4494.871794,4574.358974,4249.230769,4433.333333,4211.282051,4415.384615,4203.589743,4262.564102,4535.384615,4297.435897,4643.076923,4049.743589,3985.128206
141,4445.128205,4506.666666,4572.820512,4250.769230,4446.153846,4208.205128,4416.410256,4204.615384,4262.564102,4528.717948,4296.410256,4644.102564,4043.589743,3980.000000
142,4449.743589,4500.000000,4574.871794,4259.487179,4437.948717,4204.615384,4419.487179,4207.179487,4266.153846,4529.743589,4295.384615,4642.051282,4039.487179,3979.487180
143,4444.102564,4486.153846,4567.692307,4260.512820,4414.871794,4197.948717,4413.333333,4198.974358,4254.358974,4525.641025,4283.589743,4629.743589,4030.769230,3977.435898
144,4441.538461,4490.769230,4563.589743,4252.820512,4423.589743,4200.512820,4415.384615,4198.974358,4251.794871,4526.666666,4281.025641,4628.205128,4033.333333,3975.897436
145,4441.538461,4491.794871,4567.179487,4245.128205,4428.205128,4200.512820,4417.435897,4200.512820,4258.461538,4530.256410,4285.128205,4632.820512,4035.897435,3975.384616
146,4441.538461,4489.230769,4567.692307,4247.179487,4416.410256,4197.435897,4415.897435,4197.435897,4252.307692,4525.128205,4288.205128,4628.717948,4026.153846,3971.282052
147,4446.153846,4499.487179,4569.743589,4253.846153,4427.692307,4200.512820,4421.025641,4200.000000,4250.769230,4526.666666,4295.897435,4626.666666,4030.769230,3971.282052
148,4439.487179,4503.589743,4570.256410,4253.846153,4446.153846,4204.615384,4423.076923,4200.000000,4260.512820,4534.358974,4290.256410,4627.692307,4037.435897,3976.410257
149,4426.153846,4493.333333,4567.179487,4250.256410,4443.076923,4204.102564,4420.512820,4201.538461,4265.641025,4526.666666,4277.948717,4625.128205,4031.282051,3977.435898
150,4430.256410,4487.692307,4569.743589,4249.230769,4427.179487,4201.025641,4424.615384,4211.282051,4267.179487,4515.384615,4282.564102,4625.641025,4027.179487,3974.871795
151,4440.512820,4492.307692,4570.769230,4244.102564,4413.333333,4199.487179,4426.153846,4210.256410,4261.538461,4523.589743,4287.179487,4625.128205,4024.102564,3970.256411
152,4437.948717,4493.846153,4565.128205,4240.512820,4419.487179,4201.025641,4423.589743,4201.538461,4255.897435,4533.333333,4285.128205,4620.000000,4019.487179,3969.230770
153,4428.717948,4490.256410,4564.102564,4244.102564,4435.384615,4201.538461,4426.153846,4198.974358,4257.435897,4527.179487,4282.564102,4621.538461,4018.974358,3967.692308
154,4424.102564,4487.692307,4565.128205,4246.666666,4429.230769,4197.948717,4425.641025,4196.410256,4254.871794,4520.512820,4269.230769,4621.025641,4015.897435,3960.000000
155,4433.846153,4494.871794,4568.717948,4249.230769,4426.153846,4199.487179,4423.589743,4195.384615,4253.333333,4529.230769,4272.307692,4618.974358,4014.358974,3962.051283
156,4443.076923,4504.615384,4578.974358,4256.923076,4435.384615,4205.641025,4429.230769,4199.487179,4261.025641,4540.000000,4294.871794,4626.666666,4023.076923,3974.871795
157,4427.692307,4495.897435,4576.410256,4254.358974,4413.333333,4195.384615,4420.512820,4190.256410,4252.307692,4520.512820,4283.589743,4621.025641,4016.923076,3969.230770
158,4409.743589,4483.076923,4566.153846,4240.000000,4395.897435,4180.512820,4407.179487,4176.410256,4237.435897,4499.487179,4261.538461,4607.179487,4003.076923,3948.717949
159,4422.051282,4492.307692,4574.358974,4245.641025,4430.769230,4188.717948,4416.410256,4188.205128,4246.666666,4515.897435,4274.871794,4613.846153,4012.307692,3954.358975
160,4445.641025,4512.307692,4588.205128,4264.102564,4459.487179,4204.102564,4430.769230,4203.076923,4261.538461,4541.538461,4293.333333,4631.282051,4027.692307,3977.948718
161,4448.205128,4517.948717,4589.230769,4261.538461,4443.589743,4205.128205,4431.794871,4201.025641,4262.051282,4542.051282,4296.923076,4635.384615,4028.717948,3981.025642
162,4430.769230,4504.615384,4583.076923,4247.179487,4420.512820,4197.948717,4426.153846,4199.487179,4256.410256,4526.666666,4301.538461,4626.666666,4023.589743,3964.102565
163,4416.923076,4490.256410,4573.846153,4243.589743,4415.384615,4190.256410,4419.487179,4197.948717,4247.692307,4517.948717,4290.256410,4611.794871,4017.435897,3953.846154
164,4422.564102,4489.230769,4567.179487,4247.179487,4426.153846,4190.769230,4419.487179,4188.205128,4244.102564,4526.153846,4267.692307,4603.589743,4017.435897,3957.435898
165,4432.820512,4501.025641,4570.769230,4247.179487,4437.435897,4200.000000,4426.666666,4189.230769,4253.846153,4541.025641,4271.282051,4611.794871,4024.102564,3961.025642
166,4424.615384,4503.076923,4570.256410,4249.230769,4426.666666,4202.564102,4427.692307,4202.051282,4258.974358,4540.000000,4290.256410,4617.948717,4021.025641,3959.487180
167,4416.410256,4495.897435,4565.128205,4249.743589,4418.461538,4196.923076,4424.102564,4202.564102,4252.307692,4526.153846,4291.282051,4615.384615,4016.923076,3961.025642
168,4431.282051,4499.487179,4570.256410,4249.743589,4429.230769,4198.974358,4428.205128,4195.897435,4253.333333,4525.128205,4287.692307,4618.461538,4026.666666,3967.692308
169,4440.000000,4507.179487,4575.384615,4249.230769,4431.794871,4202.051282,4429.743589,4198.974358,4260.000000,4538.461538,4291.794871,4624.102564,4031.282051,3971.282052
170,4430.769230,4506.666666,4574.358974,4249.230769,4436.410256,4202.051282,4428.717948,4205.128205,4262.564102,4547.692307,4295.897435,4627.179487,4027.179487,3972.820513
171,4428.205128,4505.128205,4575.384615,4253.846153,4436.410256,4200.512820,4427.692307,4202.051282,4262.051282,4539.487179,4295.384615,4627.692307,4026.153846,3971.794872
172,4432.307692,4501.538461,4573.846153,4251.282051,4411.794871,4191.794871,4421.025641,4187.692307,4253.846153,4523.589743,4289.743589,4618.974358,4019.487179,3964.102565
173,4427.692307,4497.435897,4570.256410,4247.179487,4406.153846,4190.769230,4420.000000,4184.615384,4246.153846,4520.512820,4283.076923,4614.358974,4013.846153,3964.615385
174,4427.692307,4503.076923,4575.384615,4255.897435,4442.051282,4202.564102,4430.256410,4200.512820,4252.820512,4529.230769,4282.564102,4624.102564,4020.000000,3972.307693
175,4433.846153,4515.897435,4579.487179,4263.589743,4454.871794,4208.205128,4432.307692,4201.538461,4257.948717,4531.794871,4285.641025,4630.256410,4023.076923,3969.743590
176,4428.205128,4516.410256,4572.820512,4253.846153,4426.666666,4198.461538,4421.025641,4184.102564,4243.589743,4516.410256,4286.666666,4622.564102,4012.307692,3960.512821
177,4427.692307,4508.205128,4568.205128,4248.205128,4422.564102,4193.333333,4418.974358,4181.538461,4236.923076,4507.179487,4286.153846,4620.512820,4007.179487,3959.487180
178,4433.846153,4508.205128,4573.333333,4253.333333,4445.128205,4201.025641,4430.256410,4195.384615,4246.153846,4521.025641,4280.512820,4623.589743,4008.205128,3961.538462
179,4423.589743,4508.205128,4570.256410,4241.538461,4432.820512,4197.435897,4426.153846,4189.743589,4245.641025,4521.025641,4271.282051,4613.846153,4001.538461,3960.512821
180,4414.358974,4498.461538,4557.948717,4228.717948,4408.717948,4183.589743,4410.256410,4176.410256,4238.974358,4502.051282,4266.666666,4600.000000,3994.871795,3956.923077
181,4424.102564,4497.435897,4559.487179,4235.897435,4417.948717,4185.128205,4413.333333,4178.974358,4241.025641,4505.128205,4270.256410,4603.076923,3999.487180,3953.846154
182,4433.846153,4510.256410,4571.282051,4241.538461,4436.410256,4201.025641,4428.205128,4187.692307,4249.743589,4525.128205,4280.000000,4614.871794,4007.692307,3958.974359
183,4431.282051,4510.769230,4573.333333,4238.461538,4437.435897,4204.615384,4430.256410,4191.282051,4253.333333,4526.153846,4282.564102,4618.974358,4005.641025,3963.076924
184,4426.153846,4502.564102,4566.666666,4242.051282,4433.333333,4200.000000,4428.205128,4190.256410,4249.230769,4516.410256,4277.435897,4614.358974,4001.025641,3959.487180
185,4428.717948,4507.179487,4568.717948,4253.333333,4431.794871,4200.000000,4429.230769,4186.153846,4247.692307,4520.512820,4278.461538,4611.282051,4004.615384,3962.051283
186,4431.794871,4508.717948,4569.230769,4255.384615,4427.692307,4197.948717,4425.128205,4182.564102,4246.666666,4520.512820,4281.538461,4609.230769,4005.128205,3965.128206
187,4420.000000,4496.410256,4558.461538,4244.102564,4427.179487,4197.435897,4422.564102,4185.641025,4242.564102,4507.179487,4272.820512,4604.615384,3994.358975,3956.923077
188,4412.307692,4493.333333,4554.871794,4240.000000,4428.717948,4199.487179,4428.717948,4188.717948,4241.025641,4507.692307,4260.000000,4602.564102,3990.769231,3950.769231
189,4422.051282,4500.512820,4561.538461,4245.128205,4436.410256,4200.512820,4435.897435,4185.641025,4248.717948,4524.102564,4260.512820,4607.179487,3995.897436,3952.820513
190,4427.179487,4501.025641,4562.051282,4244.102564,4448.717948,4202.564102,4436.923076,4186.153846,4252.307692,4530.256410,4271.282051,4610.769230,3995.384616,3952.820513
191,4417.435897,4500.000000,4555.384615,4236.923076,4440.000000,4202.051282,4432.820512,4186.153846,4243.589743,4518.461538,4277.948717,4606.666666,3993.846154,3951.282052
192,4413.333333,4498.974358,4555.897435,4234.358974,4424.102564,4198.974358,4428.717948,4180.512820,4235.897435,4509.230769,4270.769230,4603.076923,3994.871795,3954.871795
193,4413.333333,4491.794871,4553.333333,4231.794871,4423.589743,4197.435897,4424.615384,4175.897435,4234.358974,4505.641025,4263.589743,4597.948717,3992.820513,3957.948718
194,4411.282051,4494.871794,4546.666666,4233.846153,4440.000000,4199.487179,4424.102564,4177.435897,4232.307692,4502.051282,4268.205128,4593.333333,3990.769231,3953.333334
195,4414.358974,4507.692307,4549.743589,4242.051282,4446.666666,4202.051282,4427.179487,4176.923076,4234.871794,4509.230769,4270.256410,4600.000000,3991.794872,3945.128206
196,4412.820512,4505.128205,4555.897435,4243.589743,4429.230769,4198.974358,4424.102564,4175.897435,4241.025641,4518.974358,4257.435897,4602.564102,3988.205129,3940.512821
197,4407.692307,4499.487179,4553.333333,4244.102564,4426.666666,4196.410256,4419.487179,4181.025641,4244.102564,4517.435897,4248.717948,4596.410256,3987.179488,3940.512821
198,4413.846153,4509.743589,4553.333333,4250.769230,4445.128205,4200.000000,4424.615384,4187.179487,4247.179487,4512.307692,4259.487179,4596.410256,3996.410257,3945.641026
199,4416.410256,4507.692307,4554.358974,4248.205128,4444.615384,4201.538461,4427.179487,4182.051282,4246.666666,4518.974358,4268.205128,4598.461538,3993.333334,3945.641026
200,4404.615384,4494.358974,4547.692307,4238.461538,4427.692307,4197.948717,4421.538461,4175.897435,4241.538461,4529.743589,4265.641025,4592.820512,3975.384616,3933.846154
201,4401.538461,4500.000000,4546.153846,4238.461538,4423.076923,4196.923076,4422.051282,4180.512820,4248.717948,4529.230769,4265.641025,4595.384615,3979.487180,3930.256411
202,4411.794871,4508.717948,4553.333333,4240.512820,4429.230769,4200.000000,4429.743589,4187.692307,4258.974358,4524.615384,4276.923076,4606.666666,4009.230769,3942.564103
203,4413.846153,4501.025641,4555.897435,4240.000000,4441.025641,4201.025641,4431.794871,4189.230769,4254.358974,4529.230769,4290.769230,4608.717948,4022.564102,3952.820513
204,4413.846153,4495.384615,4554.358974,4241.538461,4446.666666,4200.512820,4429.743589,4186.666666,4251.282051,4536.923076,4286.153846,4607.179487,4016.410256,3950.769231
205,4417.435897,4495.384615,4555.384615,4238.974358,4432.307692,4200.512820,4428.205128,4187.179487,4253.333333,4534.358974,4277.435897,4607.179487,4013.846153,3944.102565
206,4412.820512,4495.384615,4553.846153,4234.871794,4427.692307,4202.051282,4426.153846,4186.153846,4253.846153,4527.692307,4285.641025,4606.666666,4009.743589,3942.564103
207,4413.333333,4499.487179,4555.384615,4243.589743,4446.153846,4204.102564,4426.666666,4184.615384,4255.384615,4526.153846,4292.307692,4609.230769,4005.128205,3949.230770
208,4427.179487,4503.076923,4564.102564,4254.871794,4455.897435,4212.307692,4437.435897,4189.743589,4257.435897,4529.230769,4284.615384,4615.384615,4014.871794,3958.974359
209,4431.282051,4500.000000,4563.589743,4249.743589,4441.025641,4216.923076,4440.512820,4194.358974,4255.384615,4532.820512,4277.435897,4619.487179,4022.051282,3957.435898
210,4414.358974,4493.333333,4553.846153,4240.000000,4421.538461,4200.512820,4427.179487,4189.743589,4251.794871,4535.897435,4279.487179,4615.384615,4010.256410,3945.641026
211,4402.051282,4487.692307,4551.794871,4234.871794,4421.538461,4186.666666,4419.487179,4183.076923,4252.307692,4528.717948,4283.076923,4607.179487,3995.897436,3938.974359
212,4405.128205,4487.179487,4555.384615,4230.769230,4437.948717,4195.384615,4426.666666,4183.076923,4255.897435,4512.307692,4281.025641,4606.666666,3996.410257,3938.974359
213,4412.307692,4492.307692,4557.435897,4229.743589,4447.179487,4203.076923,4430.769230,4190.256410,4258.974358,4510.769230,4274.871794,4613.333333,4004.615384,3939.487180
214,4417.435897,4496.923076,4563.076923,4231.282051,4447.692307,4198.461538,4428.717948,4200.512820,4258.974358,4527.692307,4285.128205,4619.487179,4013.333333,3948.717949
215,4414.358974,4496.923076,4567.692307,4233.846153,4439.487179,4198.461538,4428.205128,4195.897435,4253.846153,4528.717948,4295.384615,4616.410256,4010.256410,3953.846154
216,4409.743589,4496.923076,4564.102564,4238.461538,4429.743589,4203.076923,4432.820512,4189.743589,4251.794871,4509.743589,4278.461538,4611.282051,3996.923077,3943.589744
217,4411.794871,4496.923076,4566.153846,4240.000000,4429.743589,4201.538461,4436.923076,4194.358974,4255.897435,4507.179487,4268.205128,4611.282051,3994.871795,3942.564103
218,4417.948717,4497.948717,4569.230769,4234.871794,4432.820512,4198.974358,4431.282051,4190.769230,4253.333333,4515.384615,4284.615384,4612.307692,4005.641025,3950.769231
219,4424.615384,4497.948717,4568.717948,4236.923076,4438.974358,4200.000000,4431.282051,4186.666666,4249.230769,4522.564102,4293.333333,4615.897435,4021.025641,3950.256411
220,4424.102564,4490.769230,4570.769230,4239.487179,4447.179487,4204.102564,4440.512820,4201.538461,4260.512820,4535.897435,4285.128205,4625.128205,4035.384615,3952.820513
221,4418.461538,4482.564102,4571.282051,4231.794871,4444.615384,4203.076923,4435.897435,4207.692307,4271.282051,4530.769230,4286.666666,4625.641025,4034.358974,3961.025642
222,4420.512820,4486.666666,4568.205128,4232.307692,4440.000000,4198.974358,4425.641025,4200.000000,4269.230769,4516.923076,4295.897435,4621.538461,4027.179487,3962.051283
223,4431.794871,4495.897435,4568.717948,4241.538461,4442.051282,4198.974358,4428.717948,4201.538461,4268.205128,4528.717948,4302.051282,4625.641025,4034.871794,3961.538462
224,4428.205128,4498.974358,4571.282051,4241.538461,4441.025641,4199.487179,4430.256410,4202.564102,4266.666666,4548.205128,4303.589743,4625.641025,4044.102564,3959.487180
225,4417.435897,4500.512820,4569.743589,4240.000000,4449.743589,4200.512820,4426.153846,4197.435897,4264.102564,4543.076923,4301.538461,4621.538461,4037.435897,3953.846154
226,4421.025641,4498.461538,4567.692307,4243.076923,4464.102564,4204.102564,4431.282051,4197.948717,4265.128205,4529.743589,4300.512820,4624.615384,4031.794871,3954.358975
227,4429.230769,4497.435897,4570.256410,4240.000000,4454.358974,4204.615384,4438.461538,4202.051282,4265.128205,4530.256410,4300.512820,4631.282051,4035.897435,3956.410257
228,4428.717948,4505.641025,4571.794871,4234.871794,4430.256410,4200.512820,4432.820512,4195.897435,4258.461538,4538.974358,4299.487179,4631.794871,4039.487179,3956.923077
229,4425.128205,4505.641025,4570.769230,4240.000000,4436.923076,4201.538461,4427.692307,4188.717948,4253.846153,4540.512820,4303.589743,4631.282051,4038.461538,3961.538462
230,4432.307692,4506.153846,4572.307692,4248.717948,4466.666666,4204.102564,4438.461538,4196.923076,4264.102564,4536.410256,4316.410256,4634.358974,4037.435897,3965.641026
231,4432.820512,4510.769230,4571.282051,4245.641025,4456.410256,4200.512820,4441.538461,4200.512820,4271.282051,4534.358974,4310.769230,4631.794871,4036.923076,3962.564103
232,4423.589743,4505.128205,4567.179487,4236.923076,4431.794871,4196.923076,4431.794871,4191.282051,4262.051282,4529.743589,4294.871794,4629.230769,4038.461538,3962.564103
233,4426.153846,4502.051282,4568.717948,4237.435897,4447.179487,4195.384615,4435.897435,4192.307692,4258.461538,4526.153846,4308.205128,4635.384615,4042.564102,3966.666667
234,4432.307692,4509.743589,4570.769230,4240.512820,4461.538461,4195.384615,4444.102564,4205.128205,4267.692307,4531.282051,4322.051282,4635.897435,4040.000000,3962.051283
235,4424.102564,4504.102564,4567.179487,4235.384615,4437.948717,4194.358974,4436.410256,4198.461538,4263.589743,4531.282051,4301.538461,4626.666666,4027.692307,3954.358975
236,4415.897435,4491.282051,4564.615384,4238.461538,4438.461538,4190.769230,4431.282051,4187.179487,4250.769230,4525.641025,4287.179487,4624.615384,4021.538461,3952.307693
237,4421.538461,4494.358974,4563.076923,4237.435897,4458.974358,4188.717948,4434.871794,4191.794871,4253.333333,4525.128205,4298.974358,4624.615384,4026.153846,3948.717949
238,4416.410256,4497.435897,4556.410256,4222.051282,4445.128205,4187.179487,4430.256410,4190.256410,4256.923076,4524.102564,4300.512820,4622.564102,4026.153846,3942.564103
239,4407.692307,4494.358974,4553.846153,4220.512820,4433.333333,4184.102564,4428.717948,4187.179487,4251.282051,4517.948717,4294.358974,4625.641025,4021.538461,3949.743590
240,4412.307692,4494.871794,4561.025641,4233.846153,4441.025641,4182.564102,4431.794871,4190.256410,4248.205128,4516.923076,4293.846153,4627.692307,4017.948717,3952.307693
241,4422.564102,4496.410256,4566.666666,4236.923076,4450.256410,4187.179487,4433.333333,4192.820512,4252.307692,4525.128205,4288.205128,4625.128205,4018.974358,3947.179488
242,4425.641025,4500.000000,4562.564102,4229.743589,4458.461538,4190.769230,4437.435897,4194.871794,4257.435897,4527.692307,4283.076923,4624.615384,4024.615384,3951.282052
243,4416.923076,4498.974358,4555.897435,4226.153846,4447.692307,4186.153846,4436.410256,4194.358974,4251.794871,4523.076923,4282.051282,4621.025641,4020.000000,3947.692308
244,4408.717948,4494.871794,4554.871794,4227.692307,4428.205128,4184.615384,4428.717948,4188.205128,4242.564102,4521.025641,4280.000000,4615.384615,4005.641025,3934.871795
245,4411.282051,4494.871794,4555.897435,4229.230769,4427.179487,4182.051282,4424.615384,4180.000000,4238.974358,4522.051282,4275.897435,4612.820512,3996.923077,3936.410257
246,4412.820512,4494.358974,4551.282051,4224.615384,4440.000000,4177.435897,4423.589743,4181.025641,4236.410256,4516.410256,4269.230769,4610.769230,3997.948718,3946.153847
247,4409.743589,4492.307692,4552.307692,4223.076923,4455.897435,4183.076923,4424.102564,4189.743589,4238.461538,4511.794871,4274.871794,4614.358974,4005.641025,3942.564103
248,4415.897435,4504.102564,4562.564102,4235.384615,4474.358974,4193.846153,4431.794871,4196.410256,4242.564102,4518.461538,4293.846153,4621.538461,4016.923076,3943.589744
249,4420.512820,4513.846153,4563.076923,4239.487179,4470.769230,4193.333333,4434.871794,4193.333333,4242.564102,4527.692307,4294.358974,4623.589743,4013.846153,3946.153847
250,4413.333333,4504.102564,4552.307692,4226.666666,4451.794871,4184.102564,4427.179487,4186.666666,4237.435897,4532.307692,4274.358974,4618.461538,4002.051282,3937.948718
251,4412.307692,4502.051282,4549.743589,4227.692307,4454.871794,4186.666666,4426.666666,4189.743589,4239.487179,4529.743589,4273.846153,4612.820512,4003.076923,3940.000000
252,4415.384615,4510.769230,4556.410256,4237.435897,4466.666666,4197.948717,4430.256410,4190.256410,4243.076923,4526.666666,4286.666666,4613.846153,4009.230769,3948.205129
253,4411.282051,4504.615384,4556.410256,4227.692307,4451.282051,4194.358974,4428.205128,4183.589743,4237.435897,4520.000000,4277.435897,4610.769230,4002.051282,3939.487180
254,4407.179487,4494.358974,4552.307692,4217.435897,4436.410256,4183.589743,4425.128205,4180.000000,4229.230769,4508.717948,4261.025641,4603.076923,3990.769231,3922.564103
255,4413.846153,4501.538461,4558.461538,4227.692307,4453.846153,4188.717948,4428.205128,4187.179487,4235.384615,4515.384615,4270.256410,4609.230769,3997.948718,3929.230770
