,AF3,F7,F3,FC5,T7,P7,O1,O2,P8,T8,FC6,F4,F8,AF4
0,4628.717948,4541.538461,4553.846153,4286.153846,4488.717948,4192.820512,4442.051282,4224.102564,4246.666666,4492.307692,4233.333333,4680.000000,4004.615384,4026.666666
1,4638.461538,4549.743589,4561.025641,4295.384615,4491.282051,4196.923076,4440.512820,4229.743589,4251.282051,4503.076923,4231.794871,4684.102564,4018.974358,4033.333333
2,4644.615384,4558.461538,4562.051282,4300.512820,4491.282051,4196.410256,4440.512820,4231.794871,4252.307692,4502.564102,4229.230769,4684.615384,4027.692307,4036.410256
3,4642.564102,4559.487179,4558.461538,4299.487179,4492.307692,4192.820512,4443.589743,4232.820512,4252.820512,4500.000000,4231.282051,4686.666666,4020.000000,4033.333333
4,4640.512820,4551.794871,4553.846153,4294.871794,4489.743589,4191.794871,4437.948717,4229.230769,4247.692307,4501.025641,4230.256410,4681.538461,4007.179487,4026.153846
5,4641.538461,4544.102564,4548.717948,4293.333333,4480.512820,4188.205128,4430.769230,4219.487179,4236.410256,4490.769230,4218.461538,4669.230769,4004.102564,4020.512820
6,4648.205128,4548.717948,4549.230769,4294.871794,4481.025641,4189.743589,4435.897435,4218.461538,4238.461538,4486.153846,4216.410256,4667.692307,4013.846153,4023.076923
7,4656.410256,4555.384615,4553.333333,4295.384615,4490.256410,4193.846153,4444.102564,4228.717948,4249.230769,4498.461538,4230.256410,4675.897435,4022.051282,4026.666666
8,4655.897435,4551.794871,4550.769230,4294.871794,4491.282051,4190.769230,4443.589743,4231.282051,4250.769230,4504.615384,4234.871794,4675.897435,4020.000000,4023.076923
9,4657.948717,4550.769230,4548.717948,4296.410256,4487.179487,4190.769230,4443.076923,4228.205128,4249.743589,4502.051282,4232.820512,4673.333333,4015.897435,4022.564102
10,4669.743589,4554.358974,4555.384615,4300.512820,4486.153846,4195.384615,4446.666666,4233.333333,4254.358974,4502.051282,4232.820512,4677.948717,4015.897435,4029.743589
11,4669.230769,4554.358974,4552.820512,4297.948717,4484.102564,4191.794871,4445.128205,4233.333333,4251.282051,4495.897435,4224.615384,4674.358974,4011.282051,4027.179487
12,4656.410256,4548.205128,4540.512820,4292.820512,4477.435897,4187.692307,4438.974358,4220.512820,4237.435897,4483.589743,4213.333333,4661.538461,4004.102564,4017.948717
13,4653.846153,4542.564102,4541.025641,4293.333333,4475.384615,4189.743589,4437.435897,4217.948717,4232.820512,4480.512820,4216.410256,4660.512820,4006.153846,4017.435897
14,4661.025641,4546.666666,4548.717948,4294.358974,4481.538461,4189.743589,4440.512820,4226.153846,4241.538461,4484.102564,4225.128205,4668.205128,4011.282051,4024.615384
15,4662.564102,4553.333333,4550.769230,4295.384615,4486.666666,4191.794871,4443.589743,4232.820512,4248.717948,4490.769230,4225.128205,4671.794871,4012.307692,4031.282051
16,4657.435897,4551.794871,4550.769230,4297.435897,4486.153846,4192.820512,4441.538461,4230.256410,4244.102564,4492.820512,4220.512820,4671.794871,4005.641025,4026.666666
17,4657.435897,4545.641025,4548.205128,4293.846153,4481.025641,4187.692307,4440.512820,4221.025641,4235.897435,4484.615384,4216.410256,4668.205128,3997.948718,4016.923076
18,4663.589743,4544.102564,4545.641025,4290.769230,4479.487179,4188.205128,4442.564102,4216.923076,4237.435897,4483.076923,4217.435897,4667.179487,3999.487180,4018.974358
19,4665.128205,4549.230769,4548.205128,4293.333333,4485.128205,4194.358974,4443.589743,4224.102564,4244.102564,4496.410256,4220.512820,4672.307692,4011.794871,4028.717948
20,4664.102564,4554.358974,4555.897435,4290.769230,4490.769230,4196.923076,4444.615384,4229.743589,4247.179487,4504.615384,4213.333333,4676.410256,4023.076923,4034.358974
21,4664.102564,4554.358974,4558.974358,4284.615384,4496.923076,4197.948717,4446.153846,4229.230769,4248.717948,4506.666666,4207.692307,4677.435897,4018.461538,4031.282051
22,4658.974358,4549.743589,4552.820512,4276.410256,4498.974358,4196.410256,4445.128205,4225.128205,4247.692307,4511.794871,4213.846153,4674.358974,4007.179487,4025.128205
23,4653.846153,4548.717948,4546.666666,4265.641025,4498.974358,4192.820512,4443.076923,4221.538461,4240.000000,4512.307692,4221.025641,4672.307692,4013.333333,4028.717948
24,4657.435897,4552.820512,4549.743589,4265.128205,4500.512820,4193.846153,4444.102564,4223.589743,4236.923076,4510.769230,4214.358974,4672.820512,4028.717948,4040.000000
25,4657.948717,4552.820512,4553.846153,4269.743589,4500.512820,4197.435897,4444.615384,4224.102564,4244.102564,4515.384615,4204.615384,4673.846153,4025.128205,4039.487179
26,4650.256410,4548.205128,4552.307692,4265.641025,4500.512820,4194.871794,4445.128205,4224.102564,4245.641025,4512.307692,4204.615384,4674.358974,4012.307692,4033.846153
27,4644.102564,4545.128205,4548.205128,4255.897435,4498.974358,4193.333333,4445.128205,4226.153846,4238.461538,4502.564102,4201.025641,4672.307692,4011.282051,4034.871794
28,4644.615384,4543.589743,4546.153846,4251.282051,4497.435897,4197.435897,4443.589743,4225.128205,4236.923076,4507.179487,4192.820512,4670.256410,4019.487179,4039.487179
29,4646.666666,4544.102564,4547.179487,4256.923076,4498.461538,4198.974358,4450.256410,4223.589743,4240.512820,4513.333333,4193.846153,4671.282051,4023.076923,4043.076923
30,4642.051282,4550.769230,4552.307692,4261.025641,4506.153846,4200.512820,4459.487179,4227.692307,4237.948717,4508.205128,4200.512820,4676.923076,4020.000000,4046.153846
31,4629.230769,4558.461538,4557.948717,4258.974358,4509.230769,4203.076923,4459.487179,4231.794871,4234.358974,4512.307692,4203.076923,4681.538461,4017.948717,4049.230769
32,4606.153846,4553.333333,4555.384615,4257.435897,4506.666666,4201.538461,4457.948717,4230.769230,4230.769230,4519.487179,4201.538461,4680.000000,4018.461538,4049.230769
33,4572.820512,4542.564102,4546.666666,4254.871794,4508.717948,4196.410256,4460.512820,4226.153846,4221.025641,4510.256410,4200.000000,4672.820512,4011.282051,4042.051282
34,4541.538461,4537.435897,4542.564102,4246.153846,4505.128205,4194.358974,4455.384615,4216.923076,4209.743589,4497.948717,4191.282051,4666.666666,4000.512820,4033.846153
35,4521.025641,4538.461538,4544.102564,4245.641025,4503.076923,4194.871794,4450.256410,4214.358974,4210.769230,4498.461538,4183.076923,4666.153846,4002.564102,4033.333333
36,4505.128205,4540.512820,4547.179487,4249.230769,4507.692307,4193.846153,4455.384615,4223.076923,4217.948717,4506.153846,4188.717948,4668.205128,4011.282051,4035.384615
37,4487.692307,4542.051282,4554.358974,4246.666666,4507.692307,4195.384615,4460.512820,4230.769230,4223.076923,4510.256410,4196.923076,4675.897435,4015.897435,4038.461538
38,4472.307692,4544.615384,4565.128205,4248.205128,4506.666666,4202.564102,4460.512820,4236.410256,4231.282051,4514.358974,4198.461538,4684.615384,4021.538461,4047.179487
39,4456.923076,4540.000000,4568.205128,4251.794871,4505.641025,4203.589743,4460.512820,4242.564102,4237.435897,4519.487179,4206.153846,4688.205128,4023.076923,4054.358974
40,4434.871794,4535.897435,4562.051282,4245.128205,4505.128205,4199.487179,4461.025641,4241.025641,4232.820512,4520.000000,4213.333333,4685.128205,4018.461538,4050.769230
41,4415.384615,4538.974358,4559.487179,4240.512820,4505.641025,4201.025641,4462.051282,4233.846153,4229.230769,4517.948717,4206.153846,4683.076923,4021.025641,4046.666666
42,4403.589743,4540.512820,4562.564102,4246.153846,4506.666666,4202.051282,4464.102564,4238.974358,4235.897435,4518.974358,4204.615384,4688.205128,4027.179487,4051.794871
43,4392.307692,4535.897435,4562.564102,4247.179487,4506.153846,4196.923076,4462.051282,4249.230769,4238.974358,4526.153846,4211.282051,4690.769230,4023.076923,4057.435897
44,4378.461538,4538.974358,4562.564102,4244.615384,4506.153846,4192.307692,4457.948717,4246.153846,4238.461538,4523.589743,4204.102564,4686.666666,4020.512820,4053.846153
45,4368.205128,4548.717948,4567.692307,4252.820512,4508.205128,4196.410256,4459.487179,4243.589743,4238.974358,4520.512820,4198.974358,4688.205128,4026.666666,4053.333333
46,4354.358974,4547.179487,4566.666666,4254.358974,4507.692307,4200.512820,4459.487179,4249.743589,4236.923076,4525.128205,4204.102564,4691.282051,4017.948717,4054.358974
47,4334.358974,4536.923076,4561.025641,4244.102564,4506.153846,4197.435897,4455.897435,4248.205128,4231.794871,4523.589743,4201.538461,4685.641025,4004.102564,4047.179487
48,4327.179487,4533.846153,4563.589743,4243.076923,4506.666666,4198.461538,4457.435897,4238.974358,4227.692307,4512.820512,4197.948717,4681.538461,4014.358974,4042.564102
49,4329.230769,4543.589743,4566.666666,4255.897435,4508.205128,4201.538461,4461.025641,4238.461538,4228.205128,4509.743589,4201.025641,4684.102564,4027.692307,4047.692307
50,4323.589743,4551.282051,4565.641025,4262.051282,4509.230769,4202.564102,4461.025641,4245.128205,4228.717948,4520.512820,4203.076923,4684.615384,4020.000000,4052.307692
51,4318.461538,4546.666666,4562.564102,4255.384615,4509.743589,4202.564102,4460.000000,4241.538461,4225.641025,4515.384615,4201.538461,4682.564102,4011.282051,4050.256410
52,4327.179487,4538.974358,4559.487179,4253.846153,4509.230769,4201.025641,4459.487179,4235.384615,4220.512820,4498.974358,4197.948717,4679.487179,4013.846153,4048.205128
53,4347.692307,4543.589743,4560.000000,4261.538461,4509.743589,4203.589743,4461.025641,4244.102564,4228.717948,4509.743589,4201.538461,4680.512820,4018.461538,4051.794871
54,4370.256410,4555.384615,4564.102564,4268.717948,4511.282051,4209.230769,4464.102564,4253.846153,4244.615384,4533.333333,4205.641025,4684.102564,4022.051282,4057.435897
55,4382.051282,4553.846153,4560.512820,4264.102564,4509.230769,4206.153846,4461.025641,4246.666666,4240.512820,4528.205128,4202.564102,4678.461538,4018.461538,4052.820512
56,4381.538461,4544.102564,4549.230769,4252.307692,4503.589743,4197.948717,4454.871794,4234.358974,4222.051282,4505.641025,4195.897435,4667.692307,4009.230769,4040.512820
57,4382.051282,4537.435897,4545.128205,4249.743589,4501.025641,4198.974358,4456.923076,4229.230769,4212.820512,4497.435897,4188.717948,4662.051282,4007.179487,4034.358974
58,4386.666666,4535.897435,4545.641025,4253.333333,4503.076923,4202.051282,4462.051282,4229.743589,4215.384615,4498.974358,4184.102564,4663.589743,4003.589743,4034.358974
59,4391.794871,4537.948717,4544.102564,4252.307692,4505.128205,4202.051282,4461.025641,4229.743589,4216.923076,4499.487179,4185.128205,4663.076923,3993.333334,4033.846153
60,4402.051282,4542.051282,4547.692307,4252.820512,4505.128205,4208.205128,4463.589743,4230.256410,4218.461538,4498.974358,4188.717948,4662.564102,3991.282052,4036.923076
61,4418.461538,4545.641025,4557.948717,4260.000000,4507.692307,4215.384615,4474.358974,4240.000000,4230.256410,4506.666666,4192.820512,4672.820512,4004.102564,4043.589743
62,4429.743589,4542.564102,4560.512820,4262.051282,4509.743589,4213.846153,4476.923076,4251.794871,4241.025641,4516.923076,4200.512820,4682.051282,4015.384615,4045.641025
63,4426.666666,4537.435897,4555.897435,4255.897435,4506.666666,4206.153846,4465.641025,4249.743589,4236.410256,4514.358974,4201.538461,4677.948717,4011.794871,4043.589743
64,4423.589743,4536.410256,4554.871794,4252.820512,4503.589743,4198.974358,4457.948717,4237.948717,4223.589743,4508.205128,4189.230769,4671.794871,4004.102564,4044.102564
65,4437.435897,4543.076923,4560.000000,4258.461538,4505.128205,4198.974358,4458.974358,4236.923076,4221.538461,4505.128205,4187.692307,4676.923076,4006.153846,4046.153846
66,4447.179487,4548.717948,4563.589743,4266.666666,4507.179487,4203.076923,4459.487179,4241.025641,4224.615384,4504.102564,4201.025641,4682.564102,4006.666666,4050.256410
67,4443.076923,4543.076923,4560.512820,4265.641025,4507.692307,4204.615384,4456.923076,4233.846153,4220.000000,4507.692307,4206.153846,4676.923076,4004.102564,4053.846153
68,4449.230769,4536.923076,4554.871794,4261.538461,4500.512820,4200.000000,4455.384615,4228.205128,4214.871794,4508.717948,4195.384615,4669.743589,4009.743589,4052.307692
69,4458.974358,4540.512820,4555.897435,4265.128205,4495.897435,4201.538461,4457.435897,4232.307692,4216.923076,4501.538461,4185.128205,4668.717948,4014.358974,4049.230769
70,4458.461538,4543.076923,4558.974358,4264.615384,4502.051282,4207.692307,4458.461538,4232.307692,4215.897435,4496.923076,4190.256410,4670.256410,4008.717948,4049.743589
71,4468.717948,4542.051282,4560.512820,4263.076923,4504.615384,4205.128205,4458.461538,4230.256410,4214.358974,4503.589743,4202.564102,4671.282051,4011.282051,4054.871794
72,4488.717948,4541.538461,4558.974358,4265.128205,4503.076923,4205.641025,4460.000000,4236.923076,4223.076923,4513.846153,4204.102564,4670.769230,4020.000000,4060.512820
73,4492.820512,4539.487179,4553.846153,4260.000000,4501.025641,4210.769230,4462.051282,4236.923076,4229.743589,4517.435897,4195.897435,4671.282051,4018.974358,4058.461538
74,4490.769230,4539.487179,4550.769230,4255.384615,4494.871794,4206.666666,4460.512820,4236.410256,4231.794871,4512.307692,4202.051282,4673.333333,4018.974358,4052.820512
75,4503.076923,4538.974358,4554.358974,4260.000000,4490.256410,4201.538461,4457.948717,4244.615384,4238.974358,4512.307692,4209.230769,4673.333333,4022.564102,4051.282051
76,4517.948717,4537.435897,4556.923076,4265.641025,4494.871794,4205.641025,4457.948717,4241.538461,4236.923076,4514.871794,4197.948717,4668.717948,4017.948717,4050.256410
77,4522.051282,4538.461538,4553.333333,4264.615384,4495.897435,4205.641025,4457.948717,4233.846153,4225.641025,4508.717948,4191.282051,4666.666666,4007.179487,4049.230769
78,4526.666666,4540.000000,4549.743589,4263.589743,4490.769230,4201.025641,4458.461538,4241.025641,4225.641025,4498.461538,4196.410256,4666.666666,4000.512820,4048.717948
79,4535.897435,4538.974358,4550.769230,4264.615384,4491.794871,4201.538461,4456.410256,4239.487179,4227.692307,4495.384615,4195.897435,4664.615384,4002.051282,4045.128205
80,4540.512820,4538.974358,4551.282051,4268.205128,4492.307692,4201.538461,4448.717948,4224.102564,4213.846153,4492.307692,4187.179487,4664.615384,4008.717948,4043.076923
81,4539.487179,4538.461538,4552.820512,4274.358974,4489.230769,4199.487179,4444.102564,4224.615384,4209.230769,4488.205128,4182.564102,4664.615384,4008.205128,4044.615384
82,4546.666666,4542.051282,4556.410256,4280.000000,4490.769230,4200.000000,4451.282051,4235.897435,4224.102564,4493.333333,4190.769230,4667.179487,4001.538461,4050.256410
83,4563.589743,4548.717948,4556.410256,4281.025641,4494.358974,4201.538461,4455.897435,4240.512820,4233.846153,4504.615384,4210.256410,4674.871794,4008.205128,4054.871794
84,4570.256410,4545.641025,4550.256410,4272.820512,4489.230769,4198.974358,4448.205128,4240.000000,4229.743589,4509.230769,4218.974358,4675.897435,4018.461538,4055.897435
85,4560.000000,4538.461538,4545.641025,4262.051282,4483.589743,4191.794871,4441.538461,4234.871794,4225.128205,4505.128205,4205.641025,4666.666666,4014.358974,4052.307692
86,4555.897435,4532.307692,4543.076923,4261.538461,4482.051282,4183.589743,4440.000000,4225.128205,4224.102564,4501.025641,4194.358974,4659.487179,3998.974359,4046.666666
87,4567.179487,4529.743589,4540.512820,4266.666666,4478.461538,4183.076923,4437.948717,4224.615384,4226.666666,4498.461538,4198.461538,4656.410256,3993.333334,4042.051282
88,4574.358974,4532.307692,4542.564102,4268.717948,4482.564102,4192.820512,4440.512820,4230.769230,4231.282051,4499.487179,4202.051282,4654.871794,4005.128205,4041.538461
89,4570.769230,4536.923076,4544.102564,4267.179487,4488.205128,4198.461538,4446.666666,4232.820512,4228.717948,4499.487179,4194.358974,4655.384615,4008.717948,4044.615384
90,4575.384615,4538.974358,4539.487179,4264.615384,4486.666666,4196.410256,4446.153846,4232.820512,4221.025641,4493.846153,4191.794871,4654.871794,3996.923077,4042.564102
91,4582.564102,4538.461538,4536.923076,4266.666666,4486.153846,4195.897435,4442.564102,4228.717948,4218.461538,4488.717948,4195.384615,4650.769230,3992.307693,4036.923076
92,4582.564102,4537.948717,4540.512820,4275.897435,4490.256410,4200.000000,4444.615384,4221.538461,4218.974358,4490.769230,4193.333333,4651.282051,4000.000000,4035.384615
93,4588.717948,4539.487179,4545.128205,4282.564102,4492.307692,4201.538461,4445.641025,4218.461538,4218.974358,4492.820512,4195.384615,4656.923076,4001.538461,4041.538461
94,4592.820512,4540.000000,4543.589743,4275.384615,4487.179487,4190.256410,4434.871794,4214.871794,4214.358974,4485.641025,4196.410256,4655.897435,3996.410257,4044.615384
95,4587.179487,4533.333333,4542.051282,4267.692307,4477.948717,4181.025641,4424.615384,4208.205128,4208.205128,4474.358974,4188.205128,4648.717948,3994.871795,4037.435897
96,4591.282051,4532.307692,4546.666666,4274.358974,4480.000000,4187.692307,4433.846153,4209.743589,4212.307692,4477.435897,4190.769230,4654.358974,3997.948718,4041.025641
97,4605.128205,4539.487179,4550.256410,4283.589743,4489.743589,4194.871794,4447.692307,4221.025641,4220.000000,4491.794871,4203.076923,4665.128205,4000.512820,4053.333333
98,4605.641025,4540.000000,4546.666666,4281.025641,4488.717948,4193.333333,4445.641025,4226.153846,4223.589743,4493.333333,4197.948717,4660.512820,3997.948718,4050.256410
99,4602.051282,4537.435897,4542.564102,4275.897435,4486.666666,4191.282051,4437.435897,4222.564102,4227.179487,4483.076923,4183.589743,4651.794871,3991.794872,4039.487179
100,4611.282051,4541.025641,4542.564102,4277.948717,4492.307692,4194.871794,4439.487179,4218.974358,4223.589743,4479.487179,4187.692307,4651.794871,3990.256411,4040.000000
101,4618.461538,4545.641025,4543.076923,4280.512820,4492.820512,4195.897435,4443.589743,4221.025641,4216.410256,4486.153846,4196.923076,4654.358974,3993.846154,4046.666666
102,4617.948717,4543.076923,4544.615384,4278.974358,4491.282051,4191.794871,4443.076923,4222.564102,4218.461538,4492.307692,4201.538461,4655.897435,3995.384616,4050.256410
103,4620.000000,4538.461538,4546.666666,4275.897435,4494.871794,4192.820512,4442.564102,4223.076923,4226.153846,4492.820512,4200.000000,4656.923076,3996.410257,4052.307692
104,4628.717948,4539.487179,4547.179487,4273.333333,4490.256410,4197.435897,4443.076923,4227.179487,4227.179487,4489.743589,4199.487179,4655.897435,4002.051282,4053.333333
105,4633.846153,4541.025641,4544.615384,4272.820512,4483.076923,4193.333333,4437.948717,4224.615384,4220.512820,4485.641025,4206.666666,4654.871794,4003.589743,4052.307692
106,4626.666666,4537.435897,4540.512820,4275.384615,4484.102564,4183.589743,4430.256410,4216.923076,4213.333333,4481.538461,4202.051282,4653.333333,4001.025641,4050.769230
107,4620.000000,4536.923076,4536.410256,4280.000000,4485.641025,4186.153846,4428.205128,4213.333333,4215.897435,4479.487179,4188.717948,4650.256410,4005.641025,4047.692307
108,4619.487179,4539.487179,4532.820512,4276.410256,4479.487179,4187.692307,4429.230769,4210.769230,4217.948717,4479.487179,4188.717948,4647.179487,4005.641025,4045.128205
109,4618.461538,4532.307692,4528.205128,4264.615384,4473.333333,4181.025641,4426.153846,4208.717948,4211.282051,4480.512820,4196.923076,4642.051282,3994.871795,4040.512820
110,4624.615384,4529.230769,4528.205128,4265.641025,4476.923076,4184.102564,4427.179487,4211.794871,4216.410256,4485.128205,4198.461538,4644.615384,3997.948718,4042.051282
111,4638.974358,4545.128205,4539.487179,4280.000000,4487.692307,4196.410256,4438.461538,4220.512820,4228.717948,4492.307692,4206.666666,4656.923076,4010.769230,4053.846153
112,4644.102564,4552.820512,4546.153846,4287.179487,4493.846153,4203.589743,4446.153846,4224.102564,4225.128205,4489.743589,4213.333333,4657.948717,4007.692307,4056.410256
113,4642.051282,4545.128205,4543.589743,4285.128205,4494.358974,4204.102564,4444.102564,4222.051282,4220.512820,4481.538461,4206.666666,4652.820512,4000.000000,4051.282051
114,4648.717948,4544.102564,4543.076923,4284.615384,4492.307692,4202.564102,4445.128205,4224.102564,4225.641025,4481.025641,4201.538461,4656.410256,4006.153846,4053.333333
115,4654.871794,4547.179487,4543.076923,4282.051282,4484.615384,4194.358974,4443.076923,4225.128205,4224.615384,4485.128205,4197.435897,4657.948717,4012.307692,4057.435897
116,4654.871794,4540.512820,4541.538461,4275.384615,4475.897435,4184.615384,4431.282051,4220.000000,4221.025641,4487.179487,4193.333333,4654.871794,4005.128205,4056.410256
117,4656.410256,4533.846153,4541.538461,4273.846153,4473.333333,4183.589743,4424.615384,4214.871794,4220.000000,4485.641025,4200.000000,4655.384615,3998.461539,4052.820512
118,4661.025641,4538.461538,4541.025641,4281.538461,4475.897435,4183.589743,4427.692307,4214.358974,4214.871794,4478.974358,4202.564102,4655.384615,4002.564102,4049.230769
119,4671.282051,4545.641025,4538.461538,4292.307692,4481.025641,4182.051282,4428.205128,4211.794871,4210.256410,4469.743589,4198.974358,4651.282051,4007.692307,4046.666666
120,4684.615384,4545.128205,4534.871794,4290.769230,4481.025641,4180.000000,4422.564102,4205.128205,4207.179487,4466.153846,4197.948717,4647.179487,3996.923077,4046.666666
121,4688.205128,4536.923076,4530.256410,4282.051282,4475.384615,4177.948717,4419.487179,4199.487179,4203.076923,4469.230769,4188.205128,4642.051282,3983.589744,4042.564102
122,4683.589743,4536.410256,4531.282051,4282.051282,4474.871794,4181.538461,4423.076923,4206.153846,4208.205128,4474.871794,4182.051282,4642.051282,3993.846154,4040.000000
123,4688.205128,4542.564102,4535.384615,4284.615384,4476.923076,4186.153846,4428.717948,4217.435897,4219.487179,4476.923076,4205.128205,4649.230769,4010.256410,4048.717948
124,4701.025641,4541.025641,4533.846153,4282.051282,4475.384615,4185.128205,4429.743589,4217.435897,4222.051282,4478.974358,4220.512820,4652.307692,4009.743589,4057.948717
125,4704.102564,4538.461538,4531.282051,4280.512820,4471.282051,4183.076923,4428.205128,4217.435897,4223.076923,4485.128205,4208.717948,4647.692307,4003.076923,4057.948717
126,4698.461538,4540.000000,4531.282051,4282.564102,4470.769230,4183.589743,4426.153846,4219.487179,4226.666666,4481.025641,4200.512820,4642.564102,4002.564102,4050.256410
127,4693.333333,4534.871794,4528.205128,4282.564102,4472.820512,4182.564102,4424.102564,4210.769230,4221.025641,4470.256410,4199.487179,4641.538461,4001.538461,4043.589743
128,4696.923076,4530.256410,4528.205128,4284.615384,4475.897435,4185.128205,4425.128205,4207.179487,4216.410256,4473.333333,4201.538461,4646.666666,4001.538461,4047.692307
129,4698.461538,4535.384615,4531.794871,4288.205128,4475.897435,4190.256410,4428.205128,4215.384615,4223.076923,4485.128205,4212.307692,4649.230769,4003.589743,4052.307692
130,4690.256410,4539.487179,4532.307692,4286.153846,4475.384615,4190.256410,4428.205128,4212.307692,4221.538461,4481.538461,4205.641025,4644.615384,4004.102564,4047.692307
131,4684.102564,4538.461538,4529.743589,4282.051282,4475.384615,4185.641025,4426.666666,4203.589743,4208.717948,4467.179487,4186.666666,4642.051282,4002.564102,4041.538461
132,4684.615384,4536.410256,4529.743589,4280.512820,4475.897435,4183.589743,4423.589743,4207.179487,4206.666666,4468.205128,4190.256410,4646.153846,3995.384616,4043.076923
133,4677.948717,4533.846153,4534.871794,4275.897435,4477.948717,4186.666666,4428.205128,4215.897435,4218.461538,4480.000000,4208.205128,4652.307692,3994.871795,4048.717948
134,4658.974358,4535.384615,4540.000000,4268.205128,4476.923076,4188.717948,4436.410256,4216.410256,4221.025641,4484.615384,4210.769230,4653.846153,4004.102564,4052.820512
135,4640.512820,4537.435897,4538.974358,4260.512820,4475.897435,4186.666666,4436.923076,4214.871794,4217.948717,4486.153846,4197.948717,4653.333333,4004.615384,4052.307692
136,4619.487179,4532.307692,4535.384615,4251.282051,4479.487179,4184.615384,4436.923076,4222.051282,4223.076923,4493.846153,4190.769230,4652.307692,4000.000000,4049.743589
137,4593.333333,4531.282051,4537.948717,4244.102564,4485.128205,4184.102564,4442.051282,4230.256410,4227.692307,4492.307692,4193.846153,4652.307692,4005.128205,4052.307692
138,4571.794871,4538.461538,4542.564102,4248.205128,4489.230769,4186.153846,4440.512820,4226.153846,4223.589743,4481.025641,4192.820512,4651.794871,4010.256410,4053.846153
139,4550.769230,4540.000000,4542.051282,4258.974358,4490.769230,4191.794871,4436.923076,4216.923076,4220.512820,4484.615384,4183.076923,4650.769230,4003.589743,4050.769230
140,4527.179487,4535.897435,4540.512820,4258.461538,4492.307692,4190.256410,4440.000000,4216.410256,4223.076923,4503.589743,4181.025641,4651.282051,4000.512820,4049.230769
141,4506.666666,4536.410256,4540.512820,4248.717948,4494.871794,4188.205128,4441.025641,4219.487179,4226.153846,4508.205128,4187.692307,4649.230769,4004.102564,4051.282051
142,4492.307692,4540.000000,4542.564102,4245.641025,4495.384615,4195.384615,4439.487179,4225.128205,4229.743589,4503.589743,4192.307692,4650.769230,4011.282051,4057.435897
143,4477.435897,4541.025641,4541.025641,4245.128205,4494.358974,4196.410256,4443.589743,4230.769230,4227.692307,4506.666666,4191.282051,4652.820512,4017.435897,4058.461538
144,4464.102564,4537.948717,4541.025641,4243.589743,4501.025641,4190.769230,4443.589743,4229.230769,4229.230769,4510.769230,4188.205128,4655.384615,4018.974358,4059.487179
145,4455.384615,4537.948717,4548.205128,4244.615384,4504.102564,4193.846153,4442.564102,4229.230769,4241.538461,4515.897435,4195.897435,4664.102564,4021.025641,4070.769230
146,4443.589743,4540.512820,4550.256410,4245.128205,4498.461538,4200.000000,4451.794871,4236.923076,4245.128205,4525.641025,4207.692307,4669.743589,4025.641025,4074.358974
147,4430.256410,4538.461538,4547.692307,4243.076923,4500.512820,4198.461538,4458.461538,4241.025641,4235.897435,4523.589743,4204.102564,4665.128205,4019.487179,4067.692307
148,4418.974358,4537.948717,4548.205128,4244.102564,4503.076923,4197.948717,4459.487179,4235.897435,4227.692307,4508.717948,4191.794871,4660.512820,4008.717948,4066.666666
149,4406.153846,4540.512820,4546.666666,4244.102564,4500.000000,4198.461538,4456.410256,4230.256410,4224.615384,4493.846153,4185.128205,4657.948717,4011.282051,4065.641025
150,4392.820512,4540.000000,4540.512820,4242.564102,4497.948717,4197.948717,4448.205128,4227.692307,4223.076923,4486.666666,4186.153846,4650.256410,4012.820512,4057.948717
151,4393.333333,4538.974358,4540.512820,4246.153846,4501.538461,4200.000000,4446.666666,4226.153846,4220.512820,4494.358974,4185.641025,4646.153846,4005.641025,4056.923076
152,4405.128205,4541.025641,4544.615384,4248.205128,4502.051282,4200.000000,4455.384615,4226.153846,4217.435897,4503.589743,4182.051282,4651.282051,4005.641025,4060.000000
153,4415.897435,4543.076923,4545.641025,4246.153846,4504.102564,4200.000000,4458.974358,4229.230769,4227.692307,4500.000000,4184.102564,4654.358974,4009.743589,4059.487179
154,4423.589743,4541.538461,4545.128205,4247.179487,4505.641025,4203.076923,4457.435897,4236.923076,4238.974358,4498.974358,4186.153846,4652.307692,4002.051282,4059.487179
155,4431.282051,4538.974358,4547.179487,4245.641025,4502.051282,4204.102564,4461.538461,4238.461538,4232.307692,4504.615384,4182.051282,4654.358974,3997.948718,4061.025641
156,4441.025641,4537.948717,4549.743589,4237.948717,4501.025641,4201.538461,4463.076923,4237.948717,4229.743589,4507.692307,4186.666666,4661.025641,4013.846153,4064.615384
157,4451.282051,4540.512820,4552.820512,4235.897435,4503.589743,4200.000000,4458.974358,4243.589743,4238.974358,4510.256410,4197.948717,4665.641025,4027.692307,4071.794871
158,4457.948717,4537.948717,4552.820512,4237.948717,4501.538461,4202.051282,4458.461538,4246.153846,4242.051282,4514.358974,4192.820512,4667.179487,4025.641025,4075.384615
159,4458.974358,4532.307692,4549.743589,4236.410256,4500.000000,4203.589743,4461.025641,4237.948717,4233.333333,4509.743589,4184.102564,4666.666666,4020.512820,4070.769230
160,4456.923076,4533.846153,4545.641025,4236.410256,4500.000000,4200.512820,4457.435897,4229.743589,4227.692307,4504.102564,4190.769230,4661.025641,4015.384615,4065.128205
161,4462.051282,4538.461538,4542.564102,4238.974358,4497.435897,4198.461538,4448.717948,4232.820512,4233.333333,4505.641025,4194.358974,4657.435897,4006.153846,4064.102564
162,4471.282051,4535.897435,4542.564102,4240.000000,4498.461538,4200.512820,4452.307692,4240.000000,4232.820512,4503.589743,4191.282051,4658.974358,4004.615384,4064.102564
163,4476.410256,4533.846153,4544.615384,4243.589743,4502.564102,4204.102564,4462.051282,4241.025641,4229.230769,4498.974358,4188.717948,4661.025641,4013.333333,4062.564102
164,4486.666666,4540.000000,4546.666666,4250.256410,4503.076923,4205.641025,4462.051282,4243.076923,4240.512820,4505.641025,4186.666666,4663.076923,4018.974358,4066.153846
165,4503.076923,4541.025641,4546.153846,4250.256410,4502.051282,4203.076923,4458.461538,4245.641025,4246.666666,4514.871794,4188.717948,4663.076923,4015.384615,4068.205128
166,4507.692307,4535.897435,4543.076923,4247.179487,4500.000000,4200.512820,4457.948717,4240.512820,4234.871794,4506.666666,4190.769230,4660.000000,4008.205128,4060.000000
167,4502.564102,4535.384615,4543.589743,4248.717948,4500.512820,4203.076923,4457.948717,4234.358974,4232.307692,4496.923076,4187.179487,4659.487179,4008.717948,4059.487179
168,4508.205128,4541.025641,4549.230769,4253.333333,4503.589743,4206.666666,4461.025641,4243.076923,4242.051282,4504.102564,4191.794871,4663.589743,4015.897435,4070.256410
169,4519.487179,4542.564102,4551.794871,4253.846153,4498.461538,4205.128205,4464.102564,4251.794871,4244.615384,4509.230769,4204.102564,4666.153846,4016.410256,4071.794871
170,4521.025641,4538.461538,4549.743589,4248.205128,4487.692307,4201.025641,4461.025641,4245.641025,4242.564102,4504.102564,4200.000000,4667.692307,4010.769230,4065.641025
171,4522.051282,4541.025641,4550.256410,4249.230769,4489.743589,4202.051282,4460.000000,4238.461538,4240.000000,4503.589743,4190.769230,4667.692307,4009.743589,4066.153846
172,4525.128205,4544.102564,4548.205128,4251.794871,4490.769230,4205.128205,4458.974358,4235.897435,4231.794871,4500.000000,4187.692307,4661.538461,4006.666666,4065.128205
173,4522.564102,4535.384615,4542.051282,4243.589743,4485.641025,4199.487179,4451.794871,4230.256410,4225.641025,4487.692307,4180.000000,4653.846153,4001.025641,4057.435897
174,4523.589743,4534.358974,4543.076923,4244.615384,4490.256410,4200.000000,4451.282051,4230.256410,4231.282051,4492.307692,4179.487179,4657.948717,4003.589743,4058.461538
175,4532.820512,4547.692307,4549.230769,4260.512820,4494.871794,4210.256410,4458.461538,4237.435897,4240.000000,4505.641025,4193.333333,4665.641025,4005.641025,4065.641025
176,4536.410256,4546.666666,4548.205128,4262.051282,4493.333333,4208.717948,4458.461538,4240.512820,4238.974358,4498.461538,4191.794871,4662.564102,4001.538461,4067.179487
177,4536.923076,4544.615384,4544.615384,4255.897435,4489.230769,4205.641025,4453.846153,4234.358974,4230.256410,4491.282051,4178.461538,4658.974358,4002.564102,4066.666666
178,4540.512820,4552.307692,4546.153846,4258.461538,4491.282051,4211.282051,4452.820512,4231.282051,4229.230769,4500.512820,4182.051282,4663.076923,4007.179487,4066.153846
179,4536.923076,4547.692307,4548.717948,4259.487179,4493.846153,4209.230769,4454.358974,4233.846153,4232.820512,4503.076923,4196.410256,4663.076923,4010.256410,4065.641025
180,4539.487179,4544.615384,4549.743589,4258.461538,4491.282051,4205.641025,4456.923076,4233.846153,4233.333333,4498.974358,4201.025641,4664.102564,4016.410256,4069.230769
181,4552.307692,4552.307692,4550.256410,4260.512820,4489.743589,4206.666666,4457.948717,4232.820512,4235.897435,4503.589743,4202.051282,4669.230769,4022.051282,4075.384615
182,4554.871794,4553.846153,4551.794871,4262.051282,4492.307692,4205.641025,4456.923076,4232.820512,4236.410256,4510.256410,4204.102564,4669.230769,4020.000000,4076.410256
183,4550.769230,4548.205128,4551.282051,4263.076923,4493.846153,4206.666666,4458.974358,4231.794871,4234.358974,4506.153846,4200.000000,4666.153846,4015.384615,4074.871794
184,4553.333333,4548.205128,4547.179487,4261.025641,4490.769230,4208.717948,4457.948717,4228.205128,4233.333333,4498.974358,4197.948717,4664.102564,4011.282051,4076.923076
185,4555.384615,4550.769230,4544.615384,4256.923076,4488.205128,4201.538461,4449.230769,4223.076923,4230.769230,4492.820512,4197.435897,4661.538461,4013.846153,4075.897435
186,4553.846153,4550.769230,4545.128205,4260.512820,4489.743589,4198.974358,4444.102564,4217.435897,4227.179487,4489.743589,4189.230769,4660.000000,4015.897435,4072.820512
187,4558.461538,4551.794871,4545.641025,4263.589743,4492.820512,4205.641025,4451.282051,4222.051282,4230.256410,4495.897435,4185.641025,4660.512820,4013.333333,4075.384615
188,4559.487179,4549.743589,4545.128205,4261.025641,4492.307692,4204.102564,4454.871794,4229.230769,4231.282051,4502.564102,4189.230769,4657.948717,4010.769230,4074.871794
189,4553.846153,4544.615384,4542.051282,4261.025641,4490.769230,4200.512820,4445.128205,4221.538461,4225.128205,4495.384615,4187.692307,4652.820512,4008.205128,4067.179487
190,4556.923076,4541.538461,4540.000000,4261.025641,4490.769230,4200.000000,4443.076923,4217.435897,4225.641025,4491.282051,4187.692307,4649.743589,4007.179487,4067.179487
191,4569.743589,4549.743589,4544.102564,4263.589743,4490.769230,4203.076923,4451.794871,4231.794871,4234.358974,4501.538461,4194.358974,4654.871794,4014.358974,4075.384615
192,4575.384615,4557.435897,4547.692307,4267.179487,4491.794871,4205.641025,4450.256410,4237.435897,4235.384615,4497.948717,4191.794871,4661.025641,4014.358974,4073.846153
193,4570.769230,4549.743589,4543.076923,4261.538461,4490.769230,4201.025641,4440.000000,4227.179487,4227.692307,4486.153846,4178.974358,4654.871794,4001.538461,4065.128205
194,4575.384615,4546.666666,4541.025641,4257.948717,4487.179487,4196.410256,4440.512820,4228.205128,4228.717948,4498.461538,4175.384615,4652.307692,4002.564102,4066.666666
195,4593.333333,4553.333333,4549.743589,4268.717948,4490.256410,4204.615384,4451.282051,4237.948717,4240.512820,4513.333333,4180.512820,4664.615384,4013.846153,4076.410256
196,4603.076923,4553.846153,4554.871794,4271.282051,4495.384615,4213.846153,4456.410256,4238.461538,4245.128205,4506.153846,4186.153846,4670.256410,4012.820512,4079.487179
197,4599.487179,4550.769230,4547.179487,4263.076923,4491.794871,4206.666666,4447.179487,4225.641025,4236.410256,4496.410256,4181.025641,4659.487179,4004.615384,4072.820512
198,4600.000000,4551.282051,4542.051282,4265.128205,4488.205128,4198.461538,4439.487179,4220.000000,4229.230769,4491.282051,4172.307692,4651.282051,4005.641025,4069.230769
199,4611.794871,4555.384615,4548.717948,4272.307692,4491.282051,4202.564102,4443.076923,4227.179487,4232.820512,4492.307692,4179.487179,4658.461538,4012.820512,4074.871794
200,4618.461538,4557.435897,4553.333333,4276.410256,4490.769230,4203.589743,4444.102564,4227.179487,4236.410256,4494.871794,4190.769230,4668.717948,4011.282051,4079.487179
201,4622.564102,4555.384615,4550.256410,4275.897435,4488.205128,4200.000000,4440.512820,4220.000000,4229.743589,4491.794871,4188.205128,4669.743589,4006.666666,4079.487179
202,4630.769230,4552.820512,4547.179487,4269.230769,4488.717948,4200.512820,4441.538461,4218.974358,4219.487179,4488.205128,4177.435897,4663.076923,4007.179487,4077.948717
203,4635.897435,4555.897435,4545.641025,4270.769230,4491.794871,4205.128205,4444.615384,4221.025641,4221.025641,4490.256410,4175.897435,4663.589743,4010.769230,4080.000000
204,4634.358974,4555.897435,4548.205128,4274.871794,4488.205128,4200.000000,4441.025641,4216.410256,4227.179487,4485.641025,4181.025641,4664.615384,4007.692307,4078.974358
205,4631.794871,4547.692307,4545.641025,4271.282051,4481.538461,4192.820512,4431.282051,4211.282051,4219.487179,4473.846153,4177.435897,4654.358974,3996.923077,4071.282051
206,4637.435897,4547.179487,4537.948717,4267.692307,4481.538461,4193.333333,4427.179487,4210.769230,4211.282051,4474.871794,4167.692307,4646.666666,3990.256411,4064.102564
207,4646.666666,4554.871794,4536.410256,4269.743589,4481.538461,4193.333333,4431.282051,4213.333333,4217.435897,4483.589743,4168.205128,4650.769230,3994.871795,4065.641025
208,4648.205128,4556.410256,4536.410256,4272.820512,4478.461538,4191.282051,4431.282051,4208.205128,4220.512820,4483.589743,4170.256410,4653.846153,3995.897436,4068.717948
209,4642.051282,4549.230769,4534.871794,4271.794871,4476.410256,4189.230769,4426.666666,4200.512820,4212.820512,4473.333333,4166.153846,4649.743589,3988.205129,4065.641025
210,4644.102564,4546.153846,4538.974358,4269.743589,4477.948717,4190.256410,4427.179487,4204.615384,4214.358974,4472.307692,4171.282051,4651.282051,3988.205129,4066.666666
211,4653.846153,4551.282051,4546.666666,4272.307692,4483.076923,4194.871794,4436.923076,4215.384615,4225.641025,4485.128205,4176.410256,4658.461538,3996.923077,4074.358974
212,4656.923076,4553.333333,4546.153846,4274.871794,4484.102564,4199.487179,4445.128205,4220.000000,4227.692307,4488.205128,4170.256410,4658.974358,3999.487180,4075.897435
213,4655.897435,4553.846153,4538.974358,4269.743589,4485.641025,4200.000000,4443.589743,4216.410256,4222.051282,4477.435897,4172.820512,4654.358974,3991.794872,4069.230769
214,4657.435897,4549.743589,4537.948717,4265.641025,4483.589743,4195.897435,4441.538461,4215.384615,4220.000000,4473.333333,4178.461538,4650.256410,3985.128206,4066.153846
215,4656.923076,4540.512820,4537.948717,4264.615384,4479.487179,4196.410256,4440.512820,4214.358974,4218.461538,4473.846153,4174.358974,4646.153846,3990.256411,4063.589743
216,4660.000000,4541.538461,4536.410256,4264.615384,4483.076923,4198.461538,4432.820512,4205.641025,4213.846153,4470.256410,4171.282051,4645.641025,3994.871795,4064.102564
217,4668.205128,4549.743589,4536.410256,4271.282051,4487.692307,4194.871794,4426.153846,4199.487179,4210.256410,4472.307692,4174.871794,4651.794871,3989.230770,4069.743589
218,4669.230769,4550.256410,4537.948717,4275.384615,4483.076923,4190.769230,4427.179487,4205.128205,4211.794871,4478.461538,4176.923076,4653.846153,3988.717949,4071.282051
219,4666.666666,4548.717948,4539.487179,4274.358974,4483.589743,4194.358974,4426.666666,4211.794871,4221.025641,4475.384615,4177.948717,4652.307692,3993.846154,4069.743589
220,4672.307692,4555.897435,4542.564102,4280.000000,4493.846153,4202.051282,4429.743589,4216.410256,4231.794871,4476.923076,4184.102564,4656.410256,3993.333334,4073.333333
221,4681.025641,4561.538461,4547.692307,4284.615384,4492.820512,4206.666666,4441.025641,4226.153846,4233.846153,4486.666666,4187.692307,4662.051282,3994.871795,4077.435897
222,4682.051282,4561.025641,4548.205128,4284.102564,4490.769230,4208.717948,4445.641025,4228.717948,4230.769230,4484.102564,4182.051282,4662.564102,4002.564102,4077.435897
223,4673.846153,4555.897435,4543.589743,4282.051282,4493.333333,4205.128205,4436.410256,4220.000000,4227.692307,4473.846153,4172.307692,4658.974358,4000.000000,4074.871794
224,4660.512820,4549.230769,4536.410256,4277.435897,4489.743589,4200.512820,4427.179487,4212.307692,4220.000000,4469.743589,4168.205128,4651.282051,3984.102565,4066.666666
225,4650.769230,4550.769230,4530.769230,4277.435897,4489.230769,4203.589743,4432.820512,4211.794871,4214.358974,4465.128205,4170.256410,4647.179487,3975.897436,4060.000000
226,4649.230769,4554.358974,4533.846153,4278.461538,4491.794871,4203.076923,4441.025641,4213.846153,4220.000000,4463.076923,4172.307692,4650.769230,3982.564103,4064.102564
227,4644.615384,4548.205128,4534.358974,4273.846153,4483.076923,4198.974358,4435.384615,4215.384615,4221.538461,4467.179487,4174.871794,4651.794871,3988.205129,4066.153846
228,4637.948717,4546.666666,4530.769230,4271.794871,4477.435897,4198.461538,4431.794871,4215.897435,4219.487179,4471.794871,4172.307692,4650.769230,3989.230770,4064.102564
229,4636.923076,4550.256410,4532.820512,4278.461538,4485.641025,4200.000000,4438.974358,4214.358974,4226.153846,4474.871794,4169.743589,4651.282051,3991.282052,4065.641025
230,4636.923076,4545.641025,4533.333333,4279.487179,4484.615384,4199.487179,4435.384615,4213.333333,4226.153846,4473.333333,4170.256410,4650.769230,3991.282052,4067.692307
231,4636.923076,4542.564102,4529.743589,4276.923076,4476.923076,4197.948717,4428.205128,4212.820512,4221.025641,4470.256410,4170.769230,4651.282051,3988.717949,4065.128205
232,4644.615384,4552.820512,4535.384615,4283.076923,4482.564102,4200.512820,4437.435897,4214.871794,4229.230769,4478.974358,4177.435897,4657.948717,3991.794872,4070.256410
233,4653.333333,4561.025641,4544.615384,4289.230769,4493.846153,4203.076923,4446.153846,4219.487179,4238.461538,4488.205128,4190.256410,4665.128205,3995.384616,4077.948717
234,4650.256410,4553.333333,4543.076923,4285.128205,4489.743589,4201.025641,4441.538461,4218.461538,4229.743589,4479.487179,4191.282051,4658.974358,3989.743590,4070.769230
235,4646.153846,4543.076923,4537.435897,4279.487179,4478.461538,4198.974358,4432.820512,4209.743589,4217.948717,4469.230769,4177.435897,4648.717948,3986.666667,4064.102564
236,4648.717948,4543.589743,4538.461538,4278.461538,4483.589743,4201.025641,4434.358974,4207.179487,4220.512820,4470.769230,4172.307692,4650.256410,3992.307693,4068.717948
237,4653.333333,4551.794871,4542.051282,4277.948717,4490.256410,4202.564102,4442.051282,4215.384615,4225.128205,4471.282051,4177.948717,4658.461538,3986.153847,4070.769230
238,4658.974358,4554.871794,4541.538461,4277.948717,4483.076923,4201.025641,4436.410256,4217.435897,4222.564102,4467.179487,4182.564102,4657.435897,3976.923077,4068.205128
239,4665.128205,4551.794871,4542.564102,4284.615384,4478.461538,4198.974358,4428.205128,4212.820512,4222.564102,4467.692307,4188.205128,4657.948717,3993.333334,4071.794871
240,4672.307692,4556.923076,4548.205128,4290.769230,4486.153846,4201.025641,4437.948717,4216.923076,4231.794871,4476.923076,4195.384615,4669.743589,4012.307692,4082.051282
241,4673.333333,4558.461538,4547.179487,4285.641025,4489.230769,4203.589743,4441.025641,4222.564102,4234.358974,4481.025641,4188.205128,4670.256410,4000.000000,4080.000000
242,4665.641025,4549.230769,4537.435897,4277.435897,4483.589743,4199.487179,4430.256410,4216.410256,4230.769230,4473.846153,4177.948717,4657.435897,3979.487180,4066.153846
243,4662.051282,4547.692307,4537.435897,4279.487179,4481.538461,4198.461538,4436.410256,4216.923076,4234.358974,4475.897435,4186.666666,4655.897435,3986.153847,4067.179487
244,4665.641025,4555.897435,4545.128205,4282.564102,4484.102564,4208.717948,4447.179487,4225.641025,4235.384615,4486.153846,4192.820512,4660.512820,3998.974359,4077.435897
245,4664.102564,4553.333333,4542.564102,4276.410256,4491.282051,4210.256410,4443.589743,4224.102564,4230.256410,4480.512820,4177.948717,4655.897435,3993.846154,4071.282051
246,4661.025641,4544.615384,4535.897435,4268.717948,4493.846153,4203.589743,4441.538461,4216.410256,4230.769230,4475.897435,4165.641025,4649.743589,3986.666667,4062.564102
247,4663.589743,4546.153846,4536.410256,4263.589743,4490.769230,4203.589743,4440.512820,4216.410256,4231.794871,4486.153846,4164.615384,4648.717948,3993.333334,4066.666666
248,4657.948717,4542.051282,4533.333333,4254.871794,4489.743589,4197.435897,4430.256410,4215.897435,4223.076923,4487.179487,4163.076923,4645.641025,3997.435898,4062.051282
249,4646.666666,4536.410256,4526.666666,4245.128205,4488.717948,4188.717948,4423.589743,4212.820512,4218.974358,4481.025641,4160.512820,4645.128205,3992.307693,4056.923076
250,4647.692307,4547.179487,4530.256410,4246.666666,4496.410256,4196.410256,4427.179487,4216.410256,4228.205128,4489.230769,4158.974358,4649.743589,3995.384616,4066.666666
251,4652.820512,4560.512820,4541.025641,4252.820512,4507.179487,4206.666666,4433.846153,4220.000000,4234.871794,4499.487179,4162.564102,4655.384615,4005.641025,4073.846153
252,4649.743589,4553.846153,4540.000000,4250.256410,4507.692307,4202.564102,4434.358974,4218.974358,4231.794871,4496.923076,4164.615384,4656.410256,4010.256410,4073.333333
253,4644.102564,4541.025641,4531.794871,4241.025641,4505.128205,4196.923076,4429.743589,4214.358974,4221.538461,4495.384615,4160.512820,4651.794871,4006.153846,4073.846153
254,4643.076923,4543.589743,4531.282051,4238.461538,4506.153846,4201.538461,4431.794871,4213.333333,4224.102564,4501.538461,4161.538461,4653.846153,4004.102564,4073.846153
255,4650.769230,4553.846153,4540.512820,4246.153846,4507.179487,4211.282051,4443.589743,4223.589743,4240.512820,4505.641025,4168.717948,4663.589743,4013.846153,4078.974358
256,4657.435897,4561.025641,4545.641025,4251.794871,4510.256410,4217.948717,4453.846153,4233.333333,4245.128205,4510.769230,4175.897435,4669.743589,4023.076923,4088.717948
257,4648.205128,4558.974358,4545.128205,4249.743589,4514.871794,4214.871794,4455.897435,4229.743589,4237.948717,4514.358974,4180.512820,4668.205128,4021.025641,4091.282051
258,4634.358974,4555.384615,4548.205128,4249.230769,4512.307692,4213.333333,4458.461538,4229.743589,4244.102564,4513.846153,4181.538461,4670.769230,4020.512820,4090.769230
259,4624.615384,4560.000000,4553.333333,4252.307692,4509.743589,4217.948717,4458.461538,4237.435897,4252.820512,4516.410256,4178.461538,4676.923076,4025.641025,4094.358974
