,AF3,F7,F3,FC5,T7,P7,O1,O2,P8,T8,FC6,F4,F8,AF4
0,4395.384615,4520.512820,4534.871794,4274.358974,4457.435897,4166.666666,4441.025641,4206.153846,4224.615384,4477.435897,4188.717948,4634.358974,3974.358975,4044.615384
1,4395.897435,4518.974358,4537.435897,4264.102564,4457.435897,4168.205128,4442.564102,4206.666666,4224.102564,4476.410256,4190.769230,4631.282051,3961.538462,4044.615384
2,4390.769230,4514.358974,4542.051282,4257.948717,4458.974358,4165.641025,4440.512820,4209.230769,4226.153846,4469.230769,4177.435897,4632.307692,3962.051283,4046.153846
3,4402.051282,4521.538461,4549.743589,4272.307692,4462.564102,4170.256410,4445.128205,4218.974358,4234.871794,4483.076923,4183.076923,4643.076923,3984.615385,4057.948717
4,4416.410256,4531.794871,4552.307692,4286.666666,4461.538461,4176.923076,4450.256410,4221.025641,4243.076923,4497.435897,4209.230769,4652.820512,4002.051282,4067.179487
5,4411.282051,4527.692307,4548.205128,4286.153846,4461.538461,4175.897435,4443.589743,4212.820512,4237.435897,4487.692307,4217.435897,4650.769230,3994.871795,4063.076923
6,4403.589743,4524.102564,4542.564102,4280.000000,4460.512820,4170.256410,4436.923076,4208.205128,4229.230769,4480.000000,4204.102564,4644.102564,3983.076924,4058.974358
7,4406.666666,4528.205128,4541.538461,4270.256410,4457.948717,4168.205128,4435.384615,4206.666666,4224.615384,4485.128205,4195.897435,4640.000000,3984.615385,4059.487179
8,4411.282051,4525.641025,4543.589743,4266.153846,4462.051282,4170.769230,4434.871794,4203.589743,4224.615384,4483.076923,4196.410256,4643.589743,3991.282052,4057.948717
9,4412.307692,4524.102564,4543.589743,4275.897435,4466.666666,4176.410256,4437.435897,4204.615384,4230.769230,4482.564102,4201.025641,4651.794871,3993.333334,4061.025641
10,4408.205128,4530.256410,4545.128205,4284.615384,4464.615384,4175.384615,4441.025641,4210.769230,4236.923076,4489.743589,4212.820512,4651.794871,3990.256411,4064.615384
11,4404.615384,4530.769230,4542.051282,4282.564102,4466.153846,4172.307692,4439.487179,4206.153846,4236.410256,4493.333333,4220.000000,4644.615384,3983.076924,4061.025641
12,4407.179487,4523.589743,4537.948717,4281.538461,4469.743589,4176.923076,4438.974358,4199.487179,4228.717948,4488.205128,4208.717948,4638.974358,3984.615385,4058.461538
13,4401.538461,4517.435897,4532.820512,4277.435897,4467.179487,4176.923076,4437.948717,4202.051282,4219.487179,4480.000000,4189.743589,4633.846153,3987.179488,4050.769230
14,4393.333333,4513.846153,4526.666666,4263.076923,4460.512820,4166.153846,4430.256410,4200.000000,4216.410256,4476.410256,4182.051282,4630.256410,3979.487180,4042.564102
15,4403.076923,4518.974358,4530.256410,4262.051282,4458.461538,4165.641025,4429.743589,4198.974358,4223.076923,4480.000000,4194.358974,4635.384615,3980.512821,4051.282051
16,4412.820512,4531.282051,4538.461538,4278.461538,4466.666666,4175.897435,4438.461538,4202.564102,4230.769230,4489.230769,4209.230769,4639.487179,3990.769231,4062.051282
17,4403.076923,4530.256410,4534.871794,4285.128205,4467.179487,4168.717948,4433.846153,4198.461538,4227.692307,4487.692307,4198.974358,4633.846153,3986.666667,4049.230769
18,4391.282051,4516.410256,4529.230769,4271.794871,4458.974358,4158.461538,4427.179487,4197.435897,4220.000000,4471.282051,4184.102564,4630.769230,3977.435898,4037.948717
19,4391.794871,4514.358974,4534.871794,4267.179487,4461.538461,4168.717948,4434.871794,4201.538461,4218.974358,4465.128205,4194.358974,4633.846153,3984.102565,4049.230769
20,4395.384615,4521.538461,4536.410256,4279.487179,4466.153846,4175.897435,4443.589743,4201.025641,4224.615384,4478.461538,4200.000000,4633.846153,3983.076924,4054.871794
21,4395.384615,4525.641025,4533.333333,4283.076923,4463.589743,4172.307692,4442.051282,4204.102564,4231.794871,4488.717948,4188.205128,4632.307692,3971.794872,4043.589743
22,4398.974358,4528.717948,4538.974358,4275.384615,4467.692307,4174.871794,4442.564102,4214.871794,4238.461538,4487.692307,4196.923076,4635.384615,3981.538462,4045.128205
23,4405.128205,4531.282051,4548.205128,4275.384615,4472.820512,4180.000000,4446.153846,4213.846153,4240.512820,4490.769230,4212.307692,4643.589743,3999.487180,4060.512820
24,4406.666666,4525.128205,4549.743589,4283.589743,4467.692307,4178.461538,4445.128205,4208.717948,4236.923076,4498.461538,4208.205128,4649.743589,3997.435898,4065.128205
25,4407.692307,4525.128205,4550.256410,4290.769230,4469.743589,4182.564102,4451.282051,4215.897435,4238.461538,4497.435897,4212.820512,4650.769230,3995.384616,4064.615384
26,4416.410256,4540.000000,4555.897435,4294.358974,4479.487179,4190.256410,4460.512820,4223.589743,4245.641025,4495.897435,4236.410256,4654.871794,4007.692307,4069.743589
27,4418.461538,4542.564102,4553.333333,4291.282051,4478.974358,4187.692307,4453.846153,4219.487179,4245.128205,4499.487179,4237.948717,4657.435897,4012.307692,4065.641025
28,4409.230769,4528.205128,4542.564102,4285.128205,4469.230769,4178.461538,4441.025641,4216.923076,4245.641025,4502.564102,4214.358974,4649.230769,4004.615384,4061.025641
29,4407.179487,4524.615384,4542.564102,4287.692307,4467.179487,4179.487179,4442.564102,4224.615384,4251.282051,4505.128205,4207.692307,4645.128205,4000.000000,4064.615384
30,4410.256410,4534.358974,4546.153846,4294.871794,4470.769230,4184.102564,4450.769230,4223.076923,4247.692307,4503.589743,4222.051282,4650.769230,4002.051282,4062.564102
31,4405.641025,4532.820512,4537.435897,4290.256410,4466.153846,4180.000000,4447.692307,4209.230769,4235.897435,4496.410256,4227.179487,4646.666666,4000.000000,4052.820512
32,4398.461538,4521.538461,4529.230769,4277.435897,4464.102564,4177.948717,4442.564102,4206.153846,4234.358974,4490.256410,4212.820512,4637.435897,3988.205129,4049.743589
33,4395.897435,4518.461538,4529.230769,4272.307692,4466.666666,4177.948717,4442.051282,4208.717948,4237.948717,4484.102564,4202.051282,4634.871794,3979.487180,4052.820512
34,4396.923076,4523.589743,4532.820512,4278.974358,4465.128205,4176.410256,4444.102564,4208.205128,4237.948717,4483.076923,4205.128205,4635.384615,3987.692308,4051.794871
35,4405.128205,4528.205128,4541.025641,4291.282051,4466.153846,4178.461538,4448.717948,4211.794871,4240.512820,4492.820512,4213.333333,4643.076923,3998.974359,4050.256410
36,4409.230769,4526.666666,4542.051282,4285.128205,4466.666666,4176.410256,4444.615384,4211.794871,4234.871794,4496.410256,4221.025641,4648.205128,3994.358975,4054.871794
37,4401.025641,4521.538461,4531.282051,4266.153846,4457.948717,4165.128205,4430.256410,4202.564102,4219.487179,4486.666666,4216.923076,4641.025641,3984.615385,4058.974358
38,4393.333333,4515.384615,4527.692307,4266.666666,4451.794871,4157.435897,4423.076923,4193.333333,4212.307692,4476.923076,4203.589743,4634.871794,3985.128206,4050.769230
39,4388.717948,4511.794871,4531.282051,4272.307692,4454.871794,4156.923076,4427.692307,4191.794871,4210.769230,4468.205128,4195.897435,4633.333333,3981.025642,4036.923076
40,4387.692307,4510.256410,4531.282051,4268.717948,4451.794871,4155.384615,4429.230769,4193.846153,4211.282051,4463.076923,4195.384615,4632.307692,3968.205129,4035.384615
41,4392.820512,4510.769230,4530.769230,4275.897435,4446.666666,4155.897435,4426.153846,4193.846153,4220.000000,4467.692307,4195.897435,4633.846153,3970.256411,4042.564102
42,4390.256410,4507.179487,4528.717948,4282.051282,4450.256410,4156.923076,4429.230769,4190.769230,4221.025641,4469.230769,4189.743589,4630.256410,3977.948718,4041.025641
43,4383.076923,4502.051282,4527.692307,4273.333333,4459.487179,4161.025641,4434.871794,4193.846153,4210.769230,4465.641025,4186.153846,4623.076923,3972.307693,4032.307692
44,4389.230769,4510.256410,4531.794871,4275.897435,4465.128205,4171.282051,4440.000000,4203.589743,4218.461538,4475.897435,4191.282051,4629.743589,3970.256411,4034.358974
45,4395.897435,4521.538461,4533.846153,4281.538461,4464.615384,4175.897435,4444.102564,4212.307692,4236.410256,4487.179487,4198.461538,4638.461538,3980.000000,4044.102564
46,4396.923076,4517.435897,4532.307692,4270.769230,4462.051282,4172.820512,4446.666666,4218.974358,4242.564102,4486.153846,4204.102564,4638.461538,3990.256411,4051.794871
47,4397.435897,4508.205128,4533.846153,4268.717948,4462.051282,4173.846153,4445.641025,4216.923076,4238.461538,4483.589743,4202.051282,4637.948717,3993.846154,4051.794871
48,4396.410256,4513.333333,4535.897435,4278.974358,4463.076923,4177.948717,4444.615384,4213.846153,4233.333333,4489.230769,4199.487179,4636.923076,3989.230770,4046.153846
49,4394.871794,4525.641025,4535.384615,4284.615384,4466.153846,4178.974358,4446.153846,4217.948717,4235.897435,4498.461538,4202.564102,4636.410256,3982.051283,4042.051282
50,4393.333333,4522.051282,4531.794871,4280.512820,4464.102564,4174.358974,4443.076923,4215.897435,4237.948717,4493.333333,4201.025641,4631.794871,3981.538462,4041.025641
51,4391.282051,4512.307692,4529.230769,4277.948717,4462.051282,4172.307692,4440.000000,4212.307692,4233.333333,4482.051282,4197.435897,4629.743589,3987.179488,4045.128205
52,4394.358974,4514.871794,4533.846153,4278.974358,4466.666666,4176.410256,4445.128205,4216.923076,4235.897435,4481.538461,4198.461538,4636.410256,3990.256411,4046.666666
53,4403.076923,4523.589743,4541.538461,4277.435897,4473.333333,4181.538461,4449.743589,4223.076923,4243.589743,4490.256410,4200.000000,4644.615384,3987.692308,4044.615384
54,4404.615384,4525.128205,4541.538461,4275.897435,4471.794871,4186.153846,4450.256410,4223.076923,4240.000000,4495.897435,4201.025641,4644.102564,3988.205129,4051.794871
55,4399.487179,4524.102564,4536.923076,4276.923076,4469.743589,4184.102564,4451.794871,4220.000000,4231.282051,4492.307692,4200.000000,4638.461538,3988.717949,4061.025641
56,4395.384615,4523.589743,4534.871794,4282.051282,4468.717948,4176.410256,4448.717948,4213.333333,4228.205128,4483.589743,4187.179487,4633.333333,3980.000000,4052.820512
57,4394.871794,4517.948717,4531.794871,4281.025641,4462.051282,4174.358974,4443.589743,4209.230769,4228.717948,4483.076923,4175.384615,4628.205128,3977.948718,4041.538461
58,4392.820512,4513.333333,4532.307692,4268.717948,4461.538461,4176.923076,4445.128205,4212.307692,4231.282051,4485.128205,4178.461538,4626.666666,3986.666667,4048.717948
59,4391.794871,4518.461538,4540.512820,4268.717948,4469.743589,4179.487179,4451.282051,4216.410256,4235.897435,4479.487179,4186.153846,4629.230769,3982.564103,4061.025641
60,4396.410256,4527.692307,4546.153846,4281.538461,4471.794871,4181.538461,4456.410256,4220.512820,4238.974358,4480.512820,4190.769230,4635.897435,3972.820513,4062.051282
61,4395.897435,4526.153846,4543.076923,4281.538461,4471.282051,4187.179487,4457.948717,4224.102564,4237.435897,4486.666666,4182.051282,4636.410256,3972.820513,4054.358974
62,4390.769230,4516.923076,4543.076923,4276.410256,4473.846153,4187.179487,4460.000000,4222.051282,4233.333333,4480.000000,4170.769230,4629.230769,3975.384616,4049.230769
63,4389.743589,4517.948717,4544.615384,4278.461538,4468.717948,4182.051282,4454.871794,4212.820512,4227.179487,4468.205128,4170.256410,4629.743589,3968.717949,4051.282051
64,4388.717948,4525.128205,4537.435897,4270.769230,4462.051282,4182.564102,4447.692307,4211.282051,4226.666666,4471.282051,4173.333333,4632.820512,3961.538462,4054.871794
65,4388.205128,4523.589743,4535.897435,4262.564102,4468.205128,4185.128205,4450.769230,4221.025641,4241.025641,4481.538461,4173.333333,4630.256410,3965.128206,4055.897435
66,4391.282051,4519.487179,4541.025641,4266.666666,4471.282051,4184.615384,4453.846153,4223.589743,4249.743589,4491.282051,4179.487179,4631.794871,3976.923077,4054.358974
67,4393.846153,4522.564102,4542.564102,4271.282051,4469.230769,4184.615384,4452.820512,4221.538461,4242.051282,4493.333333,4189.230769,4638.974358,3989.230770,4056.410256
68,4393.846153,4523.589743,4543.076923,4274.871794,4468.717948,4185.128205,4454.871794,4223.589743,4236.410256,4490.256410,4195.384615,4637.948717,3988.205129,4060.512820
69,4396.410256,4519.487179,4545.128205,4278.461538,4465.641025,4184.615384,4454.871794,4222.564102,4240.000000,4491.794871,4201.025641,4637.948717,3977.948718,4063.589743
70,4398.974358,4518.461538,4544.102564,4277.948717,4466.153846,4184.615384,4451.794871,4222.051282,4239.487179,4492.307692,4201.025641,4644.615384,3978.461539,4069.743589
71,4396.923076,4516.923076,4542.051282,4270.256410,4467.179487,4185.641025,4453.333333,4227.179487,4242.564102,4490.769230,4199.487179,4643.076923,3985.128206,4066.666666
72,4393.846153,4512.307692,4545.128205,4262.564102,4464.615384,4182.051282,4453.333333,4225.128205,4252.820512,4494.358974,4201.538461,4637.435897,3984.102565,4055.384615
73,4390.769230,4514.871794,4546.153846,4269.743589,4466.666666,4180.512820,4448.717948,4221.025641,4251.794871,4495.897435,4198.974358,4636.410256,3976.923077,4053.333333
74,4391.282051,4518.461538,4546.153846,4277.948717,4469.743589,4183.589743,4447.179487,4221.025641,4240.512820,4487.692307,4196.923076,4641.025641,3972.820513,4061.538461
75,4396.923076,4516.923076,4548.717948,4270.256410,4465.641025,4186.153846,4451.282051,4221.025641,4238.974358,4485.641025,4203.076923,4646.666666,3980.512821,4065.128205
76,4398.974358,4517.435897,4550.769230,4266.153846,4468.717948,4185.128205,4453.846153,4220.000000,4244.615384,4492.820512,4201.025641,4645.128205,3988.717949,4060.000000
77,4391.282051,4522.564102,4547.692307,4276.410256,4475.384615,4184.102564,4452.307692,4220.000000,4245.128205,4491.794871,4190.769230,4641.025641,3984.102565,4056.923076
78,4395.384615,4529.230769,4548.717948,4281.025641,4474.358974,4189.230769,4453.333333,4221.538461,4246.153846,4492.307692,4197.435897,4645.128205,3980.512821,4060.000000
79,4405.641025,4525.641025,4553.846153,4278.461538,4471.794871,4190.769230,4460.000000,4226.153846,4254.358974,4498.974358,4209.230769,4651.282051,3986.153847,4065.128205
80,4402.051282,4519.487179,4554.871794,4280.000000,4468.205128,4186.666666,4463.076923,4231.282051,4256.410256,4498.974358,4204.615384,4652.307692,3986.153847,4066.153846
81,4400.512820,4526.666666,4556.410256,4283.589743,4467.692307,4189.230769,4462.051282,4229.743589,4246.153846,4489.743589,4195.897435,4653.333333,3986.153847,4065.128205
82,4407.179487,4535.384615,4560.512820,4286.666666,4474.358974,4192.307692,4464.102564,4225.641025,4236.410256,4482.051282,4203.076923,4652.820512,3994.358975,4068.717948
83,4404.615384,4531.282051,4558.461538,4282.564102,4475.897435,4189.743589,4462.564102,4226.153846,4243.076923,4486.153846,4215.384615,4648.717948,3996.410257,4072.307692
84,4397.948717,4522.564102,4550.256410,4277.435897,4469.230769,4182.564102,4454.871794,4225.128205,4252.307692,4495.384615,4209.743589,4646.666666,3986.666667,4067.179487
85,4394.358974,4517.948717,4545.641025,4278.461538,4463.076923,4180.512820,4449.230769,4220.000000,4244.102564,4495.384615,4196.410256,4644.102564,3977.435898,4055.384615
86,4388.205128,4511.282051,4545.128205,4278.461538,4461.538461,4182.051282,4451.282051,4217.948717,4237.435897,4487.692307,4194.358974,4640.000000,3981.538462,4051.794871
87,4387.179487,4508.205128,4546.153846,4275.897435,4467.692307,4181.538461,4455.897435,4221.538461,4247.179487,4486.666666,4201.538461,4642.564102,3992.307693,4058.974358
88,4392.820512,4517.948717,4550.769230,4278.461538,4474.871794,4180.000000,4455.897435,4223.589743,4251.282051,4495.384615,4212.307692,4649.743589,3989.230770,4064.102564
89,4396.410256,4530.769230,4554.358974,4278.974358,4470.769230,4179.487179,4453.333333,4225.128205,4251.282051,4501.025641,4215.384615,4651.794871,3983.589744,4061.538461
90,4396.410256,4531.282051,4551.794871,4272.307692,4464.102564,4179.487179,4455.384615,4230.769230,4255.897435,4500.000000,4209.230769,4646.153846,3995.897436,4055.384615
91,4392.307692,4516.923076,4544.102564,4270.769230,4466.153846,4178.461538,4456.923076,4230.769230,4252.307692,4494.358974,4205.641025,4640.512820,3997.948718,4051.794871
92,4391.282051,4516.410256,4541.025641,4276.923076,4471.794871,4181.538461,4452.307692,4222.051282,4242.564102,4488.717948,4208.717948,4641.025641,3979.487180,4053.846153
93,4398.974358,4532.820512,4546.666666,4283.589743,4471.282051,4185.128205,4449.230769,4216.923076,4241.025641,4493.846153,4215.897435,4646.153846,3983.076924,4057.948717
94,4405.641025,4533.846153,4553.846153,4290.769230,4471.282051,4183.076923,4455.384615,4217.948717,4246.666666,4497.948717,4214.871794,4650.256410,4000.000000,4062.564102
95,4404.615384,4524.615384,4558.461538,4296.923076,4478.461538,4187.179487,4460.000000,4218.974358,4249.743589,4493.333333,4209.230769,4651.794871,3998.461539,4062.564102
96,4404.615384,4530.256410,4560.512820,4294.358974,4478.974358,4195.384615,4457.435897,4220.512820,4250.769230,4495.384615,4214.871794,4652.307692,3994.871795,4063.076923
97,4409.230769,4544.615384,4559.487179,4289.743589,4474.871794,4195.384615,4460.512820,4225.128205,4261.025641,4505.128205,4226.153846,4656.410256,3998.974359,4069.743589
98,4412.820512,4543.589743,4554.871794,4294.358974,4475.897435,4195.384615,4464.102564,4230.769230,4272.307692,4505.641025,4223.076923,4656.923076,3999.487180,4074.358974
99,4405.641025,4530.769230,4547.179487,4289.230769,4475.897435,4196.923076,4461.025641,4227.692307,4259.487179,4494.871794,4211.794871,4649.230769,4001.538461,4068.717948
100,4396.923076,4524.102564,4543.589743,4277.948717,4471.794871,4191.282051,4457.948717,4219.487179,4243.076923,4495.897435,4211.282051,4646.666666,4007.692307,4061.025641
101,4404.615384,4532.820512,4554.871794,4284.615384,4471.794871,4191.794871,4462.051282,4222.564102,4252.307692,4506.153846,4220.000000,4657.435897,4008.717948,4063.589743
102,4413.333333,4538.974358,4565.128205,4292.307692,4477.948717,4198.461538,4468.205128,4231.282051,4262.564102,4507.179487,4225.641025,4665.641025,4006.666666,4070.769230
103,4410.769230,4529.743589,4557.948717,4282.564102,4477.435897,4191.282051,4462.051282,4225.128205,4251.794871,4497.435897,4221.538461,4660.512820,4001.025641,4070.769230
104,4406.666666,4525.128205,4551.282051,4282.051282,4471.794871,4183.076923,4455.384615,4215.384615,4240.512820,4494.358974,4211.794871,4652.307692,3994.358975,4064.615384
105,4405.641025,4529.230769,4555.897435,4292.820512,4472.820512,4189.230769,4458.974358,4221.538461,4247.692307,4500.512820,4207.179487,4651.794871,3996.923077,4062.564102
106,4402.051282,4521.538461,4560.512820,4285.128205,4477.435897,4191.794871,4462.564102,4229.230769,4257.948717,4494.358974,4204.615384,4652.307692,4001.538461,4062.051282
107,4395.897435,4516.410256,4556.410256,4276.410256,4471.282051,4186.666666,4460.512820,4225.641025,4254.871794,4487.692307,4202.564102,4647.692307,3993.846154,4060.000000
108,4394.358974,4522.051282,4550.256410,4281.538461,4462.564102,4186.666666,4460.000000,4222.051282,4250.769230,4498.461538,4206.153846,4646.153846,3987.692308,4056.923076
109,4393.846153,4522.051282,4549.743589,4281.025641,4468.717948,4187.692307,4457.948717,4222.564102,4253.846153,4507.692307,4211.282051,4647.692307,3994.358975,4052.820512
110,4396.410256,4520.512820,4550.256410,4277.948717,4477.948717,4188.205128,4458.461538,4224.102564,4256.923076,4507.179487,4211.794871,4647.179487,3997.435898,4053.333333
111,4402.051282,4523.589743,4547.179487,4279.487179,4476.410256,4190.256410,4461.538461,4224.615384,4258.461538,4512.307692,4210.769230,4646.666666,3992.307693,4057.948717
112,4406.666666,4523.589743,4548.205128,4280.512820,4471.794871,4191.282051,4459.487179,4222.564102,4256.923076,4512.307692,4215.897435,4649.743589,3995.384616,4062.564102
113,4404.615384,4525.128205,4551.282051,4280.512820,4471.282051,4187.692307,4458.461538,4218.461538,4249.743589,4496.923076,4221.025641,4651.282051,4001.538461,4060.000000
114,4396.923076,4529.230769,4545.128205,4276.923076,4473.846153,4184.102564,4458.974358,4214.871794,4247.179487,4493.846153,4215.897435,4642.564102,3996.923077,4050.256410
115,4394.358974,4525.641025,4540.000000,4274.871794,4472.307692,4184.102564,4451.794871,4216.923076,4252.307692,4505.128205,4204.615384,4635.384615,3992.820513,4046.666666
116,4402.564102,4522.564102,4548.717948,4288.205128,4471.282051,4187.692307,4450.769230,4223.076923,4258.461538,4506.153846,4204.615384,4639.487179,3997.948718,4057.435897
117,4409.743589,4529.743589,4553.846153,4297.948717,4474.871794,4190.769230,4459.487179,4227.179487,4258.974358,4505.128205,4214.358974,4645.641025,4003.076923,4065.641025
118,4403.076923,4532.820512,4548.205128,4288.205128,4473.846153,4188.205128,4459.487179,4224.102564,4253.333333,4504.102564,4211.794871,4639.487179,4001.025641,4054.871794
119,4390.256410,4519.487179,4543.076923,4278.974358,4464.615384,4184.615384,4453.846153,4214.871794,4244.615384,4491.282051,4195.897435,4626.153846,3990.769231,4042.051282
120,4384.102564,4502.564102,4537.435897,4271.282051,4457.435897,4178.461538,4447.692307,4204.615384,4233.846153,4475.384615,4183.589743,4622.051282,3980.000000,4039.487179
121,4386.153846,4509.743589,4533.846153,4261.025641,4461.025641,4174.358974,4444.615384,4200.512820,4225.128205,4477.948717,4185.641025,4627.692307,3980.000000,4043.076923
122,4392.307692,4523.076923,4540.512820,4268.717948,4468.717948,4179.487179,4450.256410,4205.641025,4227.692307,4486.666666,4197.948717,4634.871794,3985.641026,4044.102564
123,4395.384615,4515.384615,4546.666666,4281.538461,4467.692307,4183.589743,4457.435897,4210.769230,4236.410256,4483.589743,4197.435897,4635.384615,3984.615385,4042.051282
124,4391.794871,4510.256410,4544.615384,4279.487179,4461.538461,4182.564102,4457.435897,4212.307692,4241.025641,4481.538461,4183.589743,4630.769230,3982.051283,4042.051282
125,4387.179487,4517.948717,4539.487179,4276.410256,4463.076923,4178.461538,4453.333333,4213.846153,4240.000000,4488.205128,4183.076923,4624.102564,3985.128206,4043.589743
126,4384.615384,4516.410256,4533.333333,4271.282051,4463.589743,4175.384615,4450.256410,4214.871794,4237.948717,4487.179487,4189.743589,4618.974358,3981.538462,4042.564102
127,4377.948717,4501.538461,4526.666666,4258.974358,4457.948717,4175.384615,4446.666666,4210.769230,4230.256410,4473.333333,4183.589743,4617.948717,3967.692308,4029.230769
128,4373.333333,4497.435897,4527.692307,4263.076923,4460.000000,4174.358974,4444.102564,4202.564102,4222.051282,4465.641025,4175.384615,4618.461538,3961.538462,4021.538461
129,4383.076923,4509.743589,4535.897435,4278.974358,4464.102564,4174.358974,4449.743589,4204.102564,4227.692307,4470.769230,4183.589743,4626.666666,3972.307693,4036.410256
130,4397.948717,4519.487179,4543.076923,4280.512820,4460.512820,4177.948717,4451.282051,4211.282051,4238.974358,4481.538461,4197.948717,4637.948717,3981.538462,4053.846153
131,4401.538461,4522.051282,4545.641025,4277.948717,4461.538461,4183.076923,4446.153846,4213.846153,4244.102564,4492.820512,4198.461538,4638.461538,3986.153847,4053.333333
132,4396.410256,4518.974358,4546.153846,4283.589743,4467.179487,4181.538461,4447.692307,4220.000000,4251.794871,4501.025641,4196.923076,4636.410256,3994.871795,4046.153846
133,4396.923076,4512.307692,4547.692307,4278.461538,4465.128205,4175.897435,4451.794871,4228.205128,4258.461538,4501.538461,4201.025641,4638.974358,3998.461539,4048.717948
134,4398.461538,4511.794871,4543.589743,4265.128205,4459.487179,4174.871794,4450.256410,4222.051282,4250.769230,4495.384615,4198.974358,4637.948717,3995.384616,4053.333333
135,4394.871794,4516.923076,4538.974358,4270.769230,4457.948717,4178.461538,4448.205128,4212.820512,4243.589743,4488.205128,4193.333333,4630.769230,3990.256411,4047.179487
136,4393.333333,4520.000000,4542.564102,4280.000000,4461.538461,4180.000000,4449.743589,4217.435897,4242.051282,4484.615384,4193.333333,4626.666666,3983.589744,4040.512820
137,4395.897435,4515.897435,4544.615384,4273.846153,4466.153846,4178.974358,4451.282051,4220.512820,4240.512820,4488.205128,4196.410256,4628.205128,3981.538462,4046.153846
138,4395.897435,4512.307692,4537.948717,4274.358974,4466.153846,4177.435897,4446.153846,4211.794871,4236.410256,4488.717948,4191.282051,4631.282051,3988.717949,4051.794871
139,4391.794871,4510.256410,4533.846153,4281.538461,4465.128205,4174.871794,4437.435897,4205.641025,4234.358974,4481.025641,4185.641025,4630.256410,3991.282052,4045.128205
140,4390.256410,4518.461538,4541.538461,4276.923076,4464.615384,4177.948717,4443.589743,4217.948717,4240.000000,4482.564102,4193.846153,4629.230769,3986.666667,4042.051282
141,4398.461538,4533.846153,4549.230769,4279.487179,4466.666666,4187.179487,4462.051282,4234.358974,4251.794871,4497.948717,4204.615384,4637.435897,3993.333334,4052.307692
142,4407.179487,4530.769230,4552.820512,4291.282051,4473.333333,4192.820512,4465.641025,4236.923076,4254.871794,4503.589743,4203.589743,4643.076923,4004.615384,4063.589743
143,4403.076923,4520.000000,4552.307692,4284.102564,4480.000000,4193.846153,4459.487179,4232.820512,4249.230769,4499.487179,4201.025641,4638.974358,4004.615384,4064.102564
144,4399.487179,4525.641025,4547.179487,4275.897435,4476.410256,4188.205128,4459.487179,4225.641025,4246.153846,4496.410256,4206.153846,4634.358974,3994.871795,4055.384615
145,4400.512820,4534.358974,4545.128205,4284.102564,4469.743589,4183.076923,4455.897435,4216.923076,4243.076923,4483.076923,4201.538461,4634.358974,3983.589744,4045.128205
146,4397.435897,4527.179487,4546.153846,4286.153846,4473.333333,4187.692307,4449.743589,4217.948717,4239.487179,4476.410256,4189.230769,4633.846153,3978.461539,4047.692307
147,4398.974358,4524.615384,4544.102564,4283.076923,4475.384615,4187.179487,4450.256410,4218.974358,4238.461538,4485.128205,4187.692307,4631.794871,3987.179488,4057.435897
148,4408.717948,4536.410256,4547.692307,4293.333333,4472.820512,4182.051282,4454.358974,4215.384615,4244.615384,4490.256410,4198.461538,4638.461538,4002.051282,4061.538461
149,4413.333333,4543.076923,4555.384615,4301.538461,4473.846153,4183.076923,4454.871794,4224.102564,4253.846153,4497.948717,4209.743589,4648.717948,4004.615384,4063.589743
150,4413.846153,4543.076923,4555.897435,4293.333333,4475.897435,4187.692307,4454.358974,4230.769230,4251.282051,4505.128205,4212.820512,4645.641025,3997.435898,4066.153846
151,4411.794871,4537.948717,4548.717948,4283.589743,4475.897435,4188.717948,4458.974358,4221.538461,4246.153846,4500.512820,4205.641025,4632.820512,3993.333334,4062.051282
152,4404.615384,4525.128205,4543.076923,4281.025641,4474.871794,4187.692307,4460.512820,4216.410256,4248.205128,4501.538461,4194.358974,4627.692307,3996.923077,4052.307692
153,4400.000000,4521.025641,4542.564102,4281.025641,4471.282051,4184.615384,4454.871794,4216.410256,4244.615384,4504.615384,4190.769230,4630.769230,4000.000000,4050.256410
154,4398.974358,4525.128205,4544.102564,4282.051282,4469.743589,4182.051282,4448.205128,4209.743589,4236.410256,4487.179487,4200.000000,4628.717948,3988.205129,4050.256410
155,4400.512820,4522.564102,4543.076923,4281.025641,4471.794871,4181.538461,4444.102564,4204.615384,4236.923076,4476.923076,4201.025641,4622.051282,3977.435898,4052.307692
156,4402.051282,4521.025641,4541.025641,4280.000000,4466.666666,4179.487179,4445.128205,4205.128205,4238.974358,4492.820512,4191.794871,4619.487179,3985.641026,4055.384615
157,4397.948717,4525.128205,4538.974358,4281.538461,4465.641025,4181.025641,4447.179487,4209.230769,4240.512820,4500.000000,4191.794871,4622.564102,3992.307693,4048.205128
158,4389.743589,4523.076923,4536.410256,4279.487179,4468.717948,4181.538461,4449.230769,4212.307692,4244.102564,4486.666666,4199.487179,4621.538461,3982.564103,4037.435897
159,4388.717948,4515.897435,4532.307692,4271.794871,4466.666666,4179.487179,4448.717948,4211.282051,4240.512820,4481.025641,4195.384615,4615.897435,3976.410257,4038.974358
160,4393.846153,4517.435897,4531.282051,4272.820512,4465.128205,4177.948717,4447.179487,4209.743589,4229.230769,4485.641025,4185.128205,4617.948717,3983.589744,4046.153846
161,4390.769230,4516.410256,4532.307692,4278.461538,4464.615384,4176.410256,4445.641025,4206.666666,4222.564102,4475.897435,4182.564102,4619.487179,3984.102565,4041.025641
162,4383.589743,4511.282051,4531.794871,4275.897435,4466.153846,4177.435897,4445.128205,4206.666666,4228.205128,4468.205128,4186.666666,4616.410256,3976.410257,4035.897435
163,4386.666666,4514.358974,4535.897435,4272.820512,4468.205128,4180.000000,4447.179487,4217.948717,4242.051282,4486.153846,4194.358974,4620.512820,3979.487180,4041.538461
164,4399.487179,4520.000000,4545.641025,4281.538461,4467.692307,4182.051282,4449.743589,4228.205128,4256.410256,4508.717948,4203.076923,4626.666666,3992.820513,4051.282051
165,4403.076923,4518.461538,4549.743589,4292.307692,4465.128205,4180.512820,4448.205128,4224.615384,4252.307692,4505.128205,4204.615384,4626.153846,3995.897436,4056.410256
166,4389.230769,4509.230769,4540.000000,4284.102564,4461.025641,4174.358974,4443.589743,4213.333333,4236.923076,4484.102564,4192.307692,4618.974358,3985.641026,4043.076923
167,4380.000000,4507.692307,4530.256410,4267.179487,4460.512820,4172.307692,4444.615384,4206.153846,4228.205128,4470.769230,4177.948717,4612.307692,3974.871795,4027.179487
168,4380.512820,4510.256410,4529.230769,4264.102564,4462.051282,4175.384615,4447.692307,4204.102564,4226.666666,4473.333333,4176.923076,4609.743589,3968.717949,4031.794871
169,4384.102564,4512.820512,4531.794871,4273.846153,4464.615384,4175.897435,4446.666666,4206.666666,4231.282051,4483.076923,4189.230769,4616.410256,3973.333334,4042.564102
170,4391.794871,4518.461538,4539.487179,4284.615384,4468.205128,4177.435897,4450.256410,4208.717948,4238.974358,4484.102564,4195.897435,4625.641025,3986.153847,4043.076923
171,4392.307692,4518.461538,4541.025641,4286.153846,4467.692307,4182.051282,4454.358974,4204.615384,4234.871794,4476.410256,4187.179487,4624.615384,3986.153847,4041.538461
172,4381.025641,4511.282051,4531.282051,4283.076923,4463.076923,4181.538461,4451.282051,4200.512820,4224.615384,4472.307692,4184.102564,4616.410256,3974.358975,4040.512820
173,4385.641025,4511.282051,4530.256410,4291.282051,4467.179487,4181.538461,4455.384615,4209.230769,4232.307692,4480.512820,4196.410256,4621.025641,3971.282052,4038.974358
174,4400.000000,4525.641025,4542.051282,4295.897435,4475.384615,4184.102564,4458.461538,4220.000000,4245.128205,4486.153846,4198.461538,4632.820512,3975.897436,4041.538461
175,4394.871794,4527.179487,4544.102564,4284.615384,4470.769230,4180.000000,4450.769230,4214.358974,4240.512820,4480.512820,4187.179487,4629.743589,3980.000000,4043.076923
176,4387.179487,4516.923076,4539.487179,4278.974358,4463.076923,4174.358974,4444.615384,4207.692307,4237.948717,4480.000000,4187.692307,4622.051282,3989.230770,4044.615384
177,4397.435897,4522.564102,4545.641025,4290.769230,4469.743589,4177.435897,4447.692307,4222.564102,4248.205128,4486.666666,4198.974358,4629.743589,3995.897436,4052.307692
178,4407.179487,4533.846153,4550.256410,4303.589743,4476.410256,4185.641025,4452.820512,4232.820512,4253.333333,4490.256410,4204.615384,4638.974358,3989.743590,4054.358974
179,4402.564102,4528.717948,4540.512820,4300.512820,4474.358974,4185.128205,4452.820512,4225.641025,4248.717948,4488.717948,4204.615384,4632.820512,3982.051283,4046.666666
180,4391.282051,4514.358974,4526.153846,4286.153846,4469.230769,4177.948717,4445.641025,4215.384615,4237.435897,4487.179487,4197.435897,4619.487179,3981.025642,4038.461538
181,4380.000000,4509.230769,4522.564102,4276.923076,4463.589743,4175.897435,4441.538461,4208.717948,4229.743589,4483.076923,4182.051282,4612.820512,3980.512821,4035.384615
182,4377.435897,4508.717948,4525.641025,4272.307692,4459.487179,4178.974358,4445.641025,4201.538461,4231.794871,4473.846153,4174.871794,4613.333333,3970.769231,4031.794871
183,4381.025641,4511.282051,4526.153846,4270.769230,4462.564102,4178.974358,4448.717948,4201.538461,4231.282051,4466.666666,4178.461538,4614.358974,3964.102565,4030.256410
184,4383.076923,4519.487179,4527.179487,4278.974358,4473.846153,4183.076923,4456.410256,4211.282051,4229.743589,4474.871794,4183.589743,4616.923076,3970.769231,4040.000000
185,4387.179487,4521.538461,4530.769230,4282.564102,4477.435897,4193.333333,4463.589743,4218.974358,4237.435897,4487.692307,4192.307692,4626.153846,3976.410257,4051.794871
186,4395.384615,4511.282051,4537.948717,4272.820512,4472.307692,4195.384615,4460.000000,4224.102564,4245.641025,4491.282051,4197.948717,4634.871794,3977.435898,4057.435897
187,4399.487179,4510.769230,4545.128205,4276.410256,4470.769230,4189.743589,4460.000000,4225.641025,4251.282051,4494.358974,4194.358974,4638.461538,3988.205129,4062.051282
188,4392.820512,4522.051282,4544.102564,4287.179487,4472.307692,4184.615384,4461.025641,4216.923076,4248.717948,4492.307692,4186.153846,4634.871794,3989.230770,4060.512820
189,4387.692307,4520.512820,4540.000000,4278.461538,4468.205128,4181.025641,4451.282051,4213.333333,4237.435897,4482.051282,4184.102564,4629.230769,3973.846154,4057.948717
190,4391.794871,4510.769230,4544.102564,4271.282051,4463.589743,4177.948717,4445.641025,4218.461538,4237.948717,4481.025641,4189.230769,4632.820512,3975.384616,4067.179487
191,4396.410256,4511.794871,4550.256410,4283.076923,4465.641025,4177.435897,4452.307692,4217.948717,4243.589743,4488.205128,4191.282051,4640.512820,3984.102565,4070.769230
192,4396.410256,4521.538461,4548.717948,4287.179487,4466.666666,4177.948717,4450.256410,4212.820512,4235.384615,4485.128205,4188.717948,4639.487179,3978.461539,4063.076923
193,4393.846153,4527.179487,4546.666666,4281.538461,4466.153846,4176.410256,4446.153846,4216.410256,4232.820512,4483.589743,4190.769230,4636.410256,3980.000000,4064.102564
194,4394.871794,4524.615384,4548.717948,4282.051282,4467.692307,4176.410256,4449.230769,4216.410256,4238.461538,4490.256410,4200.512820,4640.512820,3990.256411,4074.358974
195,4401.025641,4515.384615,4550.256410,4286.153846,4466.153846,4177.435897,4448.205128,4209.230769,4237.948717,4485.641025,4204.615384,4641.538461,3985.641026,4076.923076
196,4405.641025,4515.384615,4549.743589,4286.666666,4466.666666,4181.538461,4448.717948,4211.794871,4240.000000,4481.025641,4201.025641,4638.461538,3980.512821,4067.692307
197,4402.564102,4527.179487,4549.230769,4285.641025,4473.333333,4187.692307,4457.948717,4221.025641,4242.564102,4491.282051,4192.307692,4641.025641,3986.666667,4063.076923
198,4402.564102,4525.641025,4550.256410,4286.666666,4473.846153,4187.179487,4462.051282,4221.025641,4240.512820,4494.871794,4184.102564,4643.589743,3988.205129,4071.282051
199,4406.666666,4518.974358,4551.282051,4285.128205,4470.769230,4183.076923,4454.358974,4213.846153,4242.564102,4484.102564,4194.358974,4641.025641,3985.641026,4077.435897
200,4405.128205,4523.589743,4548.717948,4282.564102,4476.923076,4183.589743,4449.230769,4211.282051,4245.641025,4478.974358,4210.256410,4637.948717,3986.666667,4072.307692
201,4401.025641,4525.641025,4546.666666,4282.051282,4476.410256,4181.538461,4446.666666,4212.307692,4243.589743,4483.589743,4206.666666,4638.461538,3984.615385,4069.230769
202,4401.538461,4518.461538,4547.179487,4279.487179,4468.205128,4176.923076,4445.128205,4211.282051,4241.538461,4491.794871,4195.384615,4635.897435,3982.051283,4070.256410
203,4407.179487,4523.076923,4551.282051,4275.384615,4467.692307,4178.974358,4452.307692,4212.307692,4240.512820,4491.794871,4195.384615,4635.384615,3988.205129,4070.256410
204,4409.230769,4531.282051,4555.384615,4272.820512,4469.743589,4186.666666,4458.461538,4212.820512,4239.487179,4480.000000,4198.974358,4641.025641,3990.769231,4071.794871
205,4401.025641,4520.512820,4549.230769,4276.923076,4466.153846,4182.564102,4452.307692,4211.794871,4236.410256,4477.948717,4198.461538,4640.512820,3982.564103,4067.179487
206,4399.487179,4512.307692,4544.615384,4282.564102,4461.538461,4174.871794,4448.205128,4217.435897,4239.487179,4490.256410,4198.461538,4633.333333,3979.487180,4063.076923
207,4407.179487,4515.897435,4550.769230,4283.076923,4460.512820,4179.487179,4455.384615,4223.589743,4252.820512,4497.435897,4202.051282,4633.846153,3987.692308,4072.820512
208,4410.769230,4518.974358,4555.384615,4277.948717,4464.615384,4186.666666,4457.948717,4227.692307,4256.410256,4501.538461,4204.615384,4642.051282,3999.487180,4083.589743
209,4407.692307,4521.025641,4550.769230,4278.461538,4468.205128,4181.538461,4453.333333,4228.205128,4247.179487,4502.051282,4203.589743,4643.076923,3998.974359,4073.846153
210,4402.051282,4517.435897,4548.717948,4286.666666,4466.666666,4176.923076,4457.435897,4225.128205,4248.717948,4490.769230,4204.102564,4635.384615,3986.666667,4059.487179
211,4395.897435,4512.820512,4549.743589,4282.564102,4466.666666,4178.974358,4459.487179,4218.461538,4251.794871,4483.589743,4206.666666,4633.846153,3984.615385,4063.076923
212,4393.846153,4512.307692,4541.025641,4265.128205,4466.666666,4176.410256,4448.717948,4209.230769,4238.974358,4485.128205,4195.897435,4633.846153,3990.256411,4067.179487
213,4393.846153,4510.769230,4533.846153,4260.000000,4462.051282,4169.743589,4438.974358,4200.512820,4233.333333,4484.615384,4186.153846,4628.717948,3988.717949,4058.974358
214,4392.820512,4506.666666,4538.461538,4274.358974,4457.948717,4167.179487,4440.512820,4200.000000,4242.051282,4485.128205,4199.487179,4627.179487,3981.538462,4052.307692
215,4393.333333,4508.205128,4545.128205,4281.025641,4455.897435,4171.282051,4445.128205,4204.615384,4242.051282,4486.666666,4211.282051,4632.820512,3984.615385,4055.897435
216,4396.923076,4512.820512,4544.615384,4267.692307,4460.000000,4174.358974,4444.102564,4207.179487,4239.487179,4482.564102,4201.025641,4632.820512,3988.205129,4057.948717
217,4402.051282,4517.948717,4547.692307,4261.538461,4467.692307,4171.282051,4442.564102,4211.282051,4242.051282,4489.230769,4195.384615,4632.820512,3986.153847,4061.538461
218,4403.076923,4523.076923,4553.846153,4275.897435,4468.717948,4172.820512,4446.666666,4214.871794,4243.589743,4498.461538,4202.051282,4638.461538,3989.743590,4066.153846
219,4399.487179,4523.076923,4555.897435,4289.230769,4465.128205,4182.051282,4452.820512,4214.871794,4244.102564,4489.230769,4202.564102,4641.538461,3993.846154,4065.128205
220,4399.487179,4518.974358,4551.794871,4288.205128,4463.589743,4183.589743,4451.794871,4215.384615,4243.589743,4478.461538,4195.384615,4637.948717,3986.666667,4061.538461
221,4397.435897,4513.333333,4543.589743,4281.538461,4461.538461,4175.384615,4447.179487,4212.307692,4240.512820,4481.025641,4189.230769,4630.256410,3973.333334,4057.435897
222,4392.307692,4510.769230,4542.564102,4278.461538,4462.051282,4178.974358,4447.692307,4210.256410,4239.487179,4487.179487,4193.333333,4629.230769,3976.923077,4059.487179
223,4396.923076,4516.410256,4549.230769,4276.923076,4466.666666,4188.205128,4452.307692,4217.435897,4241.538461,4493.846153,4205.641025,4637.435897,3996.923077,4064.615384
224,4406.153846,4522.564102,4551.794871,4276.410256,4468.205128,4185.641025,4453.333333,4223.589743,4245.641025,4500.000000,4208.717948,4641.538461,4003.589743,4066.153846
225,4407.179487,4520.000000,4549.230769,4282.051282,4462.564102,4180.000000,4447.692307,4219.487179,4252.307692,4494.871794,4199.487179,4637.948717,3991.794872,4069.230769
226,4398.974358,4514.358974,4549.230769,4283.076923,4460.000000,4181.025641,4447.692307,4220.000000,4249.743589,4485.641025,4194.358974,4637.435897,3985.641026,4072.307692
227,4399.487179,4513.846153,4550.769230,4278.974358,4465.641025,4185.641025,4456.410256,4227.692307,4243.076923,4488.717948,4198.461538,4641.538461,3996.923077,4074.871794
228,4403.076923,4514.358974,4548.205128,4281.025641,4470.256410,4188.717948,4463.589743,4227.179487,4241.538461,4489.743589,4197.435897,4641.025641,3995.897436,4067.179487
229,4391.794871,4508.205128,4544.102564,4275.897435,4462.564102,4186.666666,4459.487179,4218.461538,4234.871794,4477.948717,4187.692307,4633.846153,3976.923077,4050.769230
230,4379.487179,4497.948717,4536.410256,4262.051282,4456.410256,4179.487179,4449.743589,4211.282051,4225.641025,4470.769230,4183.076923,4627.179487,3966.666667,4046.666666
231,4382.051282,4494.358974,4533.846153,4264.615384,4457.435897,4175.384615,4447.179487,4210.256410,4226.666666,4471.794871,4187.179487,4626.153846,3969.743590,4051.282051
232,4384.615384,4497.948717,4534.358974,4274.871794,4455.384615,4178.461538,4448.205128,4211.282051,4229.230769,4470.256410,4183.589743,4624.102564,3972.820513,4046.666666
233,4384.102564,4506.153846,4533.333333,4268.205128,4456.923076,4183.076923,4449.230769,4213.333333,4229.743589,4471.794871,4183.589743,4621.025641,3975.384616,4042.051282
234,4390.769230,4509.230769,4538.974358,4270.256410,4463.076923,4186.153846,4454.358974,4219.487179,4242.564102,4484.102564,4200.512820,4628.717948,3977.435898,4052.820512
235,4392.820512,4501.025641,4543.076923,4280.512820,4466.153846,4186.666666,4456.923076,4224.102564,4251.282051,4489.743589,4206.153846,4635.384615,3974.358975,4061.025641
236,4385.128205,4492.820512,4536.923076,4272.307692,4461.538461,4181.025641,4449.230769,4219.487179,4236.923076,4476.923076,4192.307692,4627.179487,3975.384616,4055.897435
237,4386.153846,4497.435897,4536.410256,4270.256410,4457.435897,4176.923076,4447.692307,4215.384615,4227.692307,4465.128205,4192.307692,4623.589743,3988.717949,4050.769230
238,4393.846153,4510.256410,4544.615384,4281.025641,4461.025641,4183.589743,4453.846153,4220.512820,4240.000000,4476.410256,4206.153846,4630.769230,3993.846154,4055.897435
239,4393.846153,4511.794871,4544.102564,4273.846153,4463.076923,4187.179487,4450.256410,4221.538461,4243.589743,4489.743589,4207.179487,4629.743589,3983.076924,4056.410256
240,4385.128205,4500.000000,4536.410256,4261.538461,4460.000000,4179.487179,4445.128205,4215.897435,4235.384615,4487.179487,4196.410256,4621.538461,3973.846154,4047.692307
241,4383.076923,4496.923076,4533.846153,4271.794871,4459.487179,4175.897435,4447.179487,4216.410256,4240.512820,4488.717948,4194.871794,4622.564102,3976.923077,4043.589743
242,4387.179487,4507.179487,4534.358974,4277.435897,4462.564102,4181.025641,4443.076923,4222.051282,4248.205128,4493.333333,4199.487179,4630.256410,3983.589744,4044.102564
243,4390.256410,4511.282051,4536.923076,4269.743589,4461.025641,4180.512820,4441.538461,4224.615384,4243.589743,4486.666666,4200.512820,4633.333333,3985.128206,4043.589743
244,4392.307692,4507.179487,4541.025641,4271.794871,4457.435897,4179.487179,4453.333333,4221.538461,4241.025641,4484.615384,4195.897435,4632.820512,3978.461539,4050.256410
245,4387.692307,4500.512820,4538.974358,4272.820512,4458.974358,4180.512820,4457.435897,4216.923076,4241.025641,4487.692307,4186.153846,4631.282051,3969.743590,4051.794871
246,4380.000000,4495.384615,4534.871794,4267.179487,4461.025641,4178.461538,4450.769230,4217.435897,4242.564102,4485.641025,4182.564102,4632.307692,3973.333334,4040.512820
247,4383.589743,4496.410256,4537.948717,4270.256410,4459.487179,4177.435897,4451.794871,4221.538461,4246.153846,4486.153846,4192.307692,4635.384615,3986.666667,4041.538461
248,4397.435897,4507.692307,4545.641025,4274.358974,4454.358974,4175.897435,4453.846153,4223.589743,4241.025641,4487.692307,4203.076923,4635.897435,3992.820513,4058.974358
249,4404.102564,4516.410256,4546.666666,4263.589743,4453.333333,4176.923076,4449.743589,4220.512820,4235.384615,4484.102564,4203.589743,4633.846153,3990.256411,4066.153846
250,4394.358974,4506.666666,4541.538461,4260.000000,4458.461538,4177.435897,4446.153846,4213.846153,4237.948717,4484.615384,4193.846153,4633.846153,3982.051283,4054.358974
251,4389.743589,4496.410256,4541.025641,4278.974358,4462.051282,4176.923076,4447.692307,4213.333333,4237.948717,4486.153846,4186.153846,4634.358974,3978.974359,4045.128205
252,4395.897435,4507.692307,4546.153846,4291.282051,4462.051282,4178.974358,4451.794871,4218.461538,4239.487179,4487.179487,4187.692307,4636.410256,3988.717949,4051.794871
253,4396.923076,4520.000000,4550.769230,4286.153846,4462.051282,4181.538461,4454.358974,4221.025641,4243.589743,4491.282051,4190.769230,4639.487179,3994.871795,4060.512820
254,4393.846153,4516.923076,4547.692307,4279.487179,4462.564102,4181.025641,4455.384615,4220.000000,4240.512820,4487.179487,4192.307692,4637.948717,3983.589744,4058.461538
255,4395.384615,4516.923076,4542.564102,4274.871794,4462.051282,4180.512820,4456.410256,4220.512820,4240.000000,4485.128205,4195.384615,4634.871794,3975.897436,4048.205128
256,4391.282051,4520.512820,4540.000000,4275.384615,4462.564102,4180.000000,4454.358974,4221.538461,4245.128205,4493.846153,4196.410256,4635.384615,3986.153847,4046.666666
257,4385.641025,4510.256410,4540.512820,4280.000000,4463.589743,4179.487179,4451.794871,4220.000000,4244.615384,4496.410256,4194.871794,4637.435897,3992.820513,4054.358974
258,4384.615384,4497.948717,4541.538461,4278.974358,4458.461538,4181.025641,4451.794871,4216.410256,4236.923076,4488.205128,4190.256410,4636.410256,3983.589744,4054.871794
259,4381.025641,4503.076923,4534.358974,4265.641025,4449.230769,4178.974358,4448.205128,4210.256410,4227.692307,4474.871794,4179.487179,4631.794871,3976.923077,4048.205128
