,AF3,F7,F3,FC5,T7,P7,O1,O2,P8,T8,FC6,F4,F8,AF4
0,4383.589743,4546.666666,4521.025641,4263.589743,4488.717948,4199.487179,4423.589743,4203.589743,4227.692307,4487.179487,4195.384615,4633.333333,4072.820512,4033.333333
1,4381.538461,4543.589743,4520.512820,4261.025641,4489.743589,4201.025641,4422.564102,4205.641025,4224.615384,4495.897435,4188.205128,4634.871794,4074.871794,4031.282051
2,4383.589743,4545.128205,4524.615384,4262.051282,4494.871794,4203.589743,4427.179487,4212.307692,4232.307692,4501.025641,4194.871794,4643.589743,4073.333333,4033.846153
3,4386.153846,4548.717948,4524.615384,4265.128205,4498.461538,4205.128205,4430.256410,4219.487179,4239.487179,4494.871794,4203.589743,4645.128205,4077.435897,4039.487179
4,4383.076923,4550.256410,4521.538461,4265.128205,4492.820512,4206.666666,4426.666666,4217.435897,4237.435897,4493.846153,4202.051282,4642.051282,4079.487179,4038.974358
5,4376.923076,4549.743589,4523.076923,4258.461538,4487.692307,4206.666666,4425.128205,4215.384615,4233.333333,4496.410256,4192.820512,4640.512820,4074.358974,4033.846153
6,4368.717948,4541.025641,4520.512820,4253.846153,4489.230769,4203.076923,4426.666666,4217.435897,4234.358974,4494.358974,4188.205128,4638.974358,4074.871794,4030.769230
7,4366.666666,4533.846153,4513.846153,4255.897435,4490.769230,4198.974358,4426.153846,4214.358974,4236.410256,4494.871794,4197.435897,4638.974358,4072.820512,4029.743589
8,4371.282051,4539.487179,4517.435897,4255.897435,4493.333333,4200.512820,4424.615384,4213.846153,4237.435897,4496.923076,4200.000000,4641.538461,4065.128205,4030.769230
9,4370.769230,4543.076923,4523.589743,4256.410256,4501.538461,4208.205128,4425.641025,4219.487179,4240.512820,4492.820512,4189.230769,4642.051282,4066.666666,4033.333333
10,4363.076923,4538.461538,4523.589743,4254.871794,4505.128205,4206.153846,4427.179487,4217.948717,4237.948717,4485.128205,4180.512820,4637.435897,4072.820512,4029.230769
11,4356.923076,4538.461538,4515.384615,4248.717948,4507.179487,4200.512820,4424.102564,4210.256410,4230.769230,4481.025641,4175.897435,4630.769230,4069.743589,4023.589743
12,4358.974358,4545.641025,4511.282051,4249.230769,4512.307692,4206.666666,4427.179487,4215.384615,4233.846153,4485.641025,4177.948717,4633.846153,4067.179487,4026.153846
13,4362.564102,4549.743589,4517.948717,4254.871794,4514.358974,4212.307692,4438.461538,4225.641025,4244.102564,4494.358974,4189.230769,4642.564102,4073.846153,4034.358974
14,4358.974358,4544.615384,4521.538461,4255.384615,4516.923076,4210.256410,4442.564102,4224.615384,4240.000000,4494.358974,4191.282051,4642.051282,4082.051282,4035.384615
15,4349.230769,4535.897435,4516.410256,4249.230769,4521.025641,4207.692307,4434.358974,4215.384615,4228.205128,4485.128205,4180.000000,4634.871794,4075.897435,4027.692307
16,4342.051282,4531.794871,4511.282051,4242.051282,4522.051282,4204.102564,4429.230769,4211.282051,4230.256410,4480.000000,4172.820512,4630.256410,4065.128205,4022.051282
17,4342.564102,4532.820512,4512.307692,4238.461538,4521.538461,4203.589743,4436.410256,4214.358974,4233.333333,4483.589743,4175.384615,4632.307692,4067.179487,4020.000000
18,4348.205128,4534.871794,4517.435897,4243.076923,4521.538461,4207.692307,4444.615384,4217.435897,4229.743589,4488.717948,4181.538461,4638.974358,4072.307692,4022.051282
19,4351.794871,4542.564102,4524.615384,4250.769230,4524.102564,4208.205128,4444.102564,4223.076923,4229.230769,4493.846153,4186.666666,4642.564102,4074.358974,4026.666666
20,4350.256410,4549.230769,4525.641025,4255.384615,4529.230769,4206.153846,4440.512820,4229.743589,4235.897435,4497.435897,4183.076923,4644.615384,4080.000000,4027.179487
21,4351.282051,4545.641025,4522.051282,4255.897435,4534.358974,4207.179487,4443.076923,4227.692307,4243.589743,4496.410256,4180.512820,4646.153846,4080.512820,4026.153846
22,4350.769230,4540.512820,4522.564102,4250.256410,4532.820512,4205.641025,4441.538461,4216.923076,4234.871794,4488.717948,4180.512820,4641.538461,4069.743589,4022.564102
23,4342.564102,4539.487179,4521.025641,4246.666666,4526.666666,4203.589743,4428.717948,4209.230769,4215.897435,4477.948717,4171.794871,4634.358974,4063.589743,4016.923076
24,4342.051282,4543.589743,4516.410256,4247.692307,4529.743589,4202.564102,4425.641025,4209.743589,4217.435897,4482.051282,4168.205128,4636.923076,4072.307692,4017.948717
25,4349.230769,4545.641025,4516.410256,4246.153846,4533.846153,4199.487179,4430.769230,4213.846153,4228.205128,4488.717948,4178.461538,4643.076923,4081.025641,4021.538461
26,4348.717948,4543.076923,4520.512820,4246.666666,4531.282051,4201.025641,4434.358974,4217.948717,4225.641025,4484.615384,4185.641025,4643.076923,4078.974358,4023.076923
27,4353.333333,4544.615384,4523.589743,4254.871794,4534.358974,4205.128205,4438.461538,4222.051282,4229.743589,4488.717948,4189.743589,4648.717948,4081.025641,4030.256410
28,4367.179487,4554.358974,4529.743589,4260.512820,4537.948717,4207.179487,4442.564102,4226.153846,4242.051282,4502.564102,4200.512820,4657.948717,4088.205128,4039.487179
29,4368.205128,4560.000000,4536.410256,4258.461538,4535.897435,4204.102564,4443.589743,4230.256410,4247.179487,4508.205128,4204.615384,4656.923076,4086.153846,4038.974358
30,4355.384615,4550.256410,4530.256410,4255.897435,4534.871794,4198.461538,4440.512820,4230.256410,4245.128205,4500.512820,4194.358974,4649.743589,4082.051282,4031.794871
31,4357.948717,4542.564102,4526.153846,4252.307692,4531.282051,4198.461538,4435.384615,4225.641025,4241.538461,4499.487179,4191.794871,4650.256410,4090.769230,4029.230769
32,4375.384615,4546.666666,4534.871794,4254.358974,4526.666666,4198.461538,4434.358974,4224.102564,4239.487179,4503.589743,4197.948717,4655.897435,4102.051282,4036.410256
33,4388.717948,4554.358974,4539.487179,4260.512820,4533.333333,4197.948717,4441.025641,4228.205128,4240.512820,4508.205128,4200.512820,4660.000000,4101.025641,4042.051282
34,4391.794871,4555.384615,4535.384615,4265.128205,4535.897435,4201.538461,4444.615384,4229.743589,4245.641025,4511.282051,4201.025641,4663.076923,4096.923076,4041.025641
35,4388.205128,4551.794871,4534.871794,4260.000000,4528.717948,4201.538461,4442.051282,4227.179487,4244.102564,4508.205128,4204.102564,4659.487179,4096.410256,4038.974358
36,4388.205128,4554.358974,4535.384615,4253.333333,4533.846153,4200.000000,4441.538461,4229.743589,4237.948717,4505.128205,4198.974358,4655.384615,4098.974358,4041.025641
37,4390.769230,4554.871794,4531.794871,4255.897435,4542.051282,4206.153846,4444.615384,4235.384615,4235.897435,4506.153846,4193.333333,4657.435897,4092.820512,4041.538461
38,4389.230769,4552.820512,4529.743589,4260.512820,4538.461538,4210.769230,4447.692307,4234.871794,4243.589743,4514.358974,4204.615384,4661.025641,4085.641025,4038.461538
39,4389.230769,4555.384615,4532.820512,4262.051282,4535.384615,4210.256410,4449.743589,4238.461538,4252.820512,4518.461538,4213.846153,4661.025641,4092.307692,4037.948717
40,4393.333333,4558.461538,4537.948717,4262.051282,4537.948717,4212.307692,4449.743589,4244.102564,4251.282051,4511.794871,4201.538461,4658.974358,4096.923076,4041.025641
41,4389.743589,4552.307692,4538.974358,4264.102564,4535.897435,4210.769230,4446.153846,4237.948717,4240.512820,4498.461538,4187.179487,4651.794871,4085.128205,4036.410256
42,4381.025641,4545.128205,4531.794871,4264.102564,4532.820512,4201.538461,4443.076923,4227.692307,4235.384615,4493.333333,4184.102564,4646.153846,4075.897435,4028.205128
43,4386.153846,4546.153846,4529.743589,4256.923076,4530.256410,4200.000000,4445.641025,4227.179487,4237.948717,4500.512820,4184.615384,4648.205128,4081.538461,4028.717948
44,4392.307692,4548.205128,4535.897435,4248.717948,4528.717948,4203.589743,4447.179487,4228.205128,4238.974358,4501.538461,4189.743589,4649.230769,4080.512820,4030.256410
45,4383.589743,4546.153846,4534.871794,4250.769230,4530.256410,4198.974358,4442.564102,4223.076923,4236.410256,4490.256410,4191.282051,4646.153846,4068.717948,4024.615384
46,4380.512820,4540.000000,4528.717948,4260.512820,4526.153846,4196.923076,4440.512820,4219.487179,4234.871794,4486.153846,4186.153846,4646.153846,4070.256410,4023.589743
47,4390.769230,4540.000000,4534.871794,4261.025641,4516.923076,4201.538461,4445.641025,4225.128205,4238.974358,4499.487179,4194.871794,4651.282051,4083.076923,4033.333333
48,4394.358974,4549.230769,4540.512820,4257.948717,4517.435897,4200.512820,4446.153846,4229.230769,4243.589743,4505.128205,4201.538461,4652.820512,4084.102564,4036.923076
49,4392.307692,4556.410256,4534.871794,4262.051282,4524.102564,4198.974358,4442.051282,4223.076923,4240.000000,4496.410256,4188.717948,4649.743589,4076.410256,4031.282051
50,4397.948717,4556.410256,4536.923076,4265.641025,4526.666666,4204.102564,4443.589743,4221.538461,4235.897435,4496.410256,4187.692307,4651.282051,4082.051282,4031.282051
51,4394.871794,4551.794871,4538.974358,4261.025641,4531.794871,4205.128205,4443.076923,4224.102564,4234.358974,4500.000000,4200.000000,4651.282051,4086.666666,4033.846153
52,4380.512820,4546.153846,4525.641025,4257.435897,4533.846153,4200.000000,4434.358974,4214.871794,4230.256410,4494.871794,4191.282051,4643.076923,4074.358974,4024.615384
53,4381.538461,4547.692307,4523.589743,4259.487179,4523.076923,4198.461538,4434.871794,4212.307692,4232.307692,4492.820512,4180.512820,4641.025641,4066.153846,4020.000000
54,4393.333333,4556.923076,4538.461538,4266.666666,4521.538461,4202.051282,4445.128205,4229.743589,4239.487179,4496.923076,4190.769230,4647.692307,4077.948717,4027.692307
55,4391.794871,4556.410256,4537.435897,4264.615384,4529.230769,4207.179487,4446.666666,4235.384615,4241.538461,4499.487179,4188.717948,4649.230769,4088.205128,4028.717948
56,4385.641025,4544.615384,4528.717948,4252.820512,4529.230769,4206.666666,4443.589743,4228.717948,4240.512820,4496.923076,4183.076923,4647.692307,4081.025641,4026.153846
57,4385.641025,4544.102564,4530.256410,4248.205128,4522.564102,4201.025641,4445.128205,4233.333333,4243.076923,4496.410256,4187.692307,4646.666666,4071.794871,4025.641025
58,4383.076923,4550.769230,4528.205128,4254.871794,4521.025641,4199.487179,4445.641025,4234.871794,4243.076923,4494.871794,4186.666666,4643.076923,4070.256410,4021.538461
59,4380.000000,4545.641025,4526.153846,4255.384615,4525.641025,4202.051282,4442.564102,4230.256410,4239.487179,4493.846153,4183.589743,4641.025641,4074.358974,4018.461538
60,4386.153846,4544.102564,4532.820512,4254.358974,4525.128205,4206.666666,4449.230769,4235.384615,4244.615384,4501.538461,4189.230769,4644.102564,4081.025641,4025.128205
61,4388.717948,4549.743589,4536.923076,4260.000000,4521.538461,4209.230769,4456.923076,4242.564102,4250.256410,4505.128205,4189.230769,4646.153846,4084.102564,4028.717948
62,4382.564102,4548.205128,4533.333333,4256.923076,4521.025641,4205.128205,4451.794871,4237.435897,4245.128205,4497.435897,4180.000000,4643.076923,4078.461538,4024.102564
63,4380.000000,4545.128205,4527.179487,4248.205128,4522.564102,4200.512820,4444.102564,4232.307692,4239.487179,4493.333333,4180.512820,4637.435897,4069.230769,4018.974358
64,4383.076923,4545.128205,4520.000000,4249.230769,4518.974358,4203.589743,4445.641025,4233.846153,4242.564102,4498.974358,4186.666666,4638.974358,4065.641025,4017.435897
65,4382.051282,4540.000000,4516.410256,4253.846153,4514.871794,4204.615384,4446.666666,4229.230769,4237.435897,4495.384615,4182.564102,4638.974358,4066.153846,4015.384615
66,4381.538461,4538.974358,4519.487179,4255.897435,4518.974358,4198.461538,4443.076923,4222.564102,4227.692307,4484.615384,4178.974358,4635.384615,4068.205128,4013.846153
67,4387.692307,4550.769230,4526.153846,4259.487179,4524.102564,4200.000000,4445.641025,4229.743589,4240.512820,4492.307692,4186.153846,4641.538461,4076.410256,4022.051282
68,4390.769230,4556.410256,4529.743589,4252.820512,4522.564102,4208.205128,4447.179487,4236.410256,4252.820512,4505.641025,4188.717948,4651.282051,4081.025641,4029.230769
69,4387.179487,4548.717948,4528.717948,4245.641025,4513.846153,4207.179487,4443.589743,4226.666666,4244.615384,4501.538461,4182.564102,4646.666666,4071.282051,4024.102564
70,4385.128205,4544.615384,4529.230769,4256.923076,4509.743589,4200.000000,4442.564102,4217.435897,4233.333333,4493.846153,4186.153846,4640.512820,4064.102564,4020.000000
71,4386.666666,4548.205128,4529.230769,4269.230769,4514.871794,4198.974358,4438.974358,4216.410256,4230.769230,4489.743589,4187.692307,4644.102564,4068.205128,4020.512820
72,4383.076923,4544.615384,4522.564102,4265.128205,4517.435897,4201.025641,4430.256410,4215.897435,4230.769230,4482.564102,4177.435897,4639.487179,4067.179487,4014.871794
73,4380.000000,4535.897435,4520.000000,4258.974358,4508.205128,4200.000000,4431.794871,4220.000000,4234.358974,4482.564102,4177.948717,4631.794871,4063.589743,4011.282051
74,4383.589743,4540.000000,4522.564102,4258.461538,4503.589743,4200.512820,4443.076923,4226.153846,4240.512820,4492.820512,4184.102564,4636.923076,4064.615384,4016.923076
75,4386.666666,4545.128205,4524.615384,4257.435897,4508.717948,4203.076923,4445.641025,4226.666666,4242.564102,4496.923076,4182.051282,4644.102564,4063.589743,4021.025641
76,4385.641025,4536.923076,4524.102564,4254.358974,4507.179487,4202.564102,4441.538461,4226.666666,4242.564102,4496.410256,4181.538461,4641.025641,4064.102564,4020.512820
77,4387.692307,4535.384615,4526.153846,4251.282051,4503.589743,4201.538461,4443.076923,4233.333333,4243.076923,4500.000000,4186.153846,4641.025641,4071.794871,4023.589743
78,4393.846153,4538.461538,4531.282051,4251.794871,4509.230769,4209.743589,4446.666666,4239.487179,4247.692307,4505.641025,4194.871794,4646.153846,4075.384615,4025.128205
79,4396.923076,4537.435897,4528.205128,4255.897435,4514.358974,4213.333333,4445.641025,4236.410256,4247.179487,4504.615384,4202.051282,4647.692307,4071.282051,4023.076923
80,4393.333333,4538.461538,4522.051282,4251.794871,4508.205128,4205.641025,4441.538461,4229.743589,4236.923076,4498.461538,4195.384615,4642.564102,4069.743589,4021.025641
81,4382.564102,4537.435897,4522.051282,4247.179487,4502.564102,4207.692307,4441.025641,4228.205128,4233.846153,4497.435897,4181.538461,4637.435897,4071.794871,4023.076923
82,4371.794871,4536.410256,4523.076923,4258.461538,4505.641025,4213.846153,4443.076923,4225.641025,4238.974358,4497.948717,4184.615384,4638.461538,4068.205128,4024.102564
83,4369.230769,4545.641025,4524.102564,4269.230769,4508.205128,4208.717948,4440.512820,4218.974358,4232.820512,4494.871794,4196.410256,4642.051282,4063.589743,4023.589743
84,4369.230769,4547.692307,4526.153846,4263.589743,4504.102564,4208.717948,4438.974358,4220.512820,4227.179487,4496.923076,4194.358974,4643.589743,4067.692307,4024.615384
85,4366.153846,4538.461538,4525.641025,4261.538461,4506.666666,4217.948717,4443.076923,4226.153846,4236.410256,4501.025641,4186.666666,4644.102564,4074.871794,4024.615384
86,4369.230769,4542.564102,4523.076923,4270.256410,4515.897435,4216.923076,4443.076923,4223.589743,4241.538461,4495.897435,4190.256410,4643.076923,4073.333333,4023.589743
87,4378.461538,4553.333333,4526.153846,4271.282051,4514.358974,4213.846153,4440.000000,4220.000000,4238.461538,4491.282051,4192.820512,4641.538461,4069.230769,4026.666666
88,4382.051282,4559.487179,4533.846153,4270.769230,4505.128205,4216.923076,4442.051282,4222.564102,4233.333333,4494.358974,4189.230769,4645.641025,4069.230769,4032.820512
89,4384.615384,4563.076923,4537.948717,4274.871794,4503.076923,4215.384615,4443.589743,4221.025641,4230.769230,4496.923076,4190.769230,4649.743589,4070.769230,4033.846153
90,4389.230769,4559.487179,4537.435897,4273.846153,4507.179487,4213.846153,4441.538461,4217.948717,4232.307692,4496.410256,4196.410256,4647.692307,4072.820512,4030.769230
91,4387.692307,4553.333333,4536.410256,4273.846153,4507.692307,4215.384615,4441.538461,4220.512820,4231.282051,4494.358974,4193.846153,4648.205128,4072.820512,4031.282051
92,4383.589743,4552.820512,4538.461538,4274.871794,4504.615384,4217.948717,4443.589743,4222.051282,4231.282051,4491.282051,4188.205128,4649.230769,4066.153846,4031.282051
93,4382.051282,4551.282051,4536.410256,4269.230769,4506.153846,4218.461538,4443.076923,4224.615384,4233.333333,4492.307692,4193.333333,4647.179487,4063.076923,4027.179487
94,4378.461538,4548.717948,4528.205128,4266.666666,4508.717948,4213.333333,4441.538461,4225.641025,4231.282051,4496.410256,4193.333333,4648.205128,4067.692307,4024.615384
95,4378.974358,4555.384615,4523.589743,4274.871794,4506.153846,4212.820512,4444.102564,4224.615384,4229.743589,4498.461538,4189.743589,4649.743589,4073.333333,4028.717948
96,4383.589743,4556.923076,4525.128205,4278.974358,4504.102564,4215.897435,4444.102564,4224.102564,4232.307692,4498.461538,4196.410256,4649.230769,4072.307692,4033.846153
97,4382.051282,4551.282051,4525.641025,4273.333333,4501.025641,4208.717948,4436.923076,4221.025641,4233.333333,4500.512820,4203.076923,4648.205128,4070.256410,4032.820512
98,4382.564102,4549.743589,4522.051282,4267.179487,4495.384615,4202.051282,4433.333333,4218.461538,4232.307692,4500.000000,4201.025641,4647.179487,4072.307692,4030.769230
99,4390.256410,4554.871794,4523.076923,4265.641025,4494.871794,4207.692307,4436.410256,4223.589743,4231.282051,4494.871794,4197.948717,4648.717948,4074.358974,4030.256410
100,4389.230769,4553.846153,4525.641025,4268.717948,4494.358974,4207.692307,4433.846153,4224.102564,4224.615384,4486.153846,4194.871794,4649.230769,4075.384615,4028.717948
101,4375.384615,4539.487179,4516.923076,4264.615384,4489.230769,4197.948717,4425.641025,4211.282051,4220.000000,4480.000000,4181.538461,4638.974358,4067.692307,4021.538461
102,4372.820512,4533.846153,4508.717948,4258.974358,4488.717948,4196.410256,4421.025641,4208.205128,4221.538461,4484.615384,4180.512820,4631.794871,4054.871794,4015.897435
103,4382.564102,4541.025641,4516.410256,4263.589743,4493.333333,4202.564102,4426.666666,4218.974358,4227.692307,4491.282051,4190.769230,4638.974358,4058.974358,4021.025641
104,4384.615384,4541.025641,4525.641025,4266.153846,4491.282051,4201.538461,4430.769230,4218.974358,4229.743589,4490.256410,4187.692307,4641.025641,4071.282051,4026.666666
105,4378.974358,4535.897435,4519.487179,4261.025641,4486.666666,4195.384615,4423.589743,4207.179487,4222.051282,4488.205128,4174.358974,4631.794871,4064.102564,4024.102564
106,4376.410256,4537.435897,4512.307692,4263.076923,4486.153846,4196.923076,4420.000000,4203.076923,4216.410256,4485.128205,4174.358974,4628.205128,4051.794871,4020.000000
107,4382.051282,4541.538461,4517.948717,4271.794871,4489.230769,4202.051282,4425.128205,4205.641025,4215.384615,4476.923076,4180.000000,4634.358974,4054.358974,4022.051282
108,4389.743589,4541.538461,4524.102564,4271.282051,4494.358974,4202.564102,4426.666666,4205.128205,4210.769230,4475.897435,4176.923076,4637.948717,4058.461538,4024.615384
109,4390.256410,4540.000000,4522.051282,4265.641025,4492.820512,4203.076923,4425.641025,4206.153846,4208.717948,4481.538461,4178.974358,4636.923076,4057.435897,4023.589743
110,4384.615384,4537.435897,4518.461538,4264.102564,4489.230769,4205.641025,4428.205128,4208.717948,4214.871794,4481.538461,4183.076923,4634.871794,4058.461538,4023.076923
111,4382.051282,4535.384615,4517.435897,4264.102564,4489.743589,4202.051282,4427.692307,4207.692307,4218.461538,4481.025641,4180.512820,4634.358974,4056.923076,4021.538461
112,4381.025641,4536.923076,4519.487179,4263.076923,4490.769230,4200.000000,4426.153846,4207.179487,4214.871794,4483.589743,4180.000000,4634.358974,4051.794871,4018.974358
113,4380.000000,4537.435897,4523.076923,4261.025641,4492.307692,4202.051282,4427.692307,4208.717948,4208.205128,4482.564102,4180.512820,4633.333333,4054.871794,4020.000000
114,4378.974358,4536.410256,4518.974358,4256.923076,4497.948717,4199.487179,4424.615384,4203.076923,4206.666666,4473.846153,4169.743589,4632.307692,4057.948717,4020.000000
115,4374.358974,4536.410256,4511.794871,4248.717948,4503.076923,4198.461538,4419.487179,4198.461538,4209.230769,4468.205128,4159.487179,4629.743589,4051.282051,4016.923076
116,4374.358974,4536.923076,4514.358974,4251.282051,4508.717948,4201.538461,4421.538461,4206.153846,4211.794871,4475.384615,4171.794871,4630.256410,4055.897435,4020.512820
117,4381.025641,4536.923076,4518.974358,4260.000000,4512.307692,4200.512820,4427.179487,4212.307692,4216.923076,4483.076923,4187.179487,4633.846153,4073.333333,4027.179487
118,4381.538461,4535.897435,4517.948717,4256.410256,4512.820512,4200.000000,4428.205128,4213.846153,4223.589743,4481.538461,4181.025641,4635.384615,4072.307692,4026.153846
119,4376.923076,4542.051282,4518.461538,4252.307692,4517.435897,4202.051282,4432.820512,4218.974358,4226.153846,4480.512820,4172.307692,4637.948717,4060.512820,4024.615384
120,4379.487179,4548.205128,4523.589743,4262.051282,4524.102564,4204.102564,4441.025641,4225.128205,4229.230769,4487.692307,4182.051282,4644.615384,4067.692307,4031.282051
121,4384.615384,4549.743589,4526.153846,4267.692307,4525.128205,4205.128205,4441.538461,4226.153846,4235.384615,4495.384615,4192.307692,4651.282051,4082.051282,4035.897435
122,4381.538461,4546.666666,4526.666666,4257.435897,4526.153846,4203.589743,4433.846153,4224.615384,4233.846153,4495.897435,4188.717948,4650.769230,4080.512820,4033.846153
123,4375.384615,4541.025641,4523.589743,4249.743589,4529.230769,4200.512820,4430.769230,4222.564102,4223.076923,4491.794871,4185.128205,4648.205128,4073.333333,4029.230769
124,4374.358974,4539.487179,4521.538461,4249.230769,4531.282051,4203.076923,4436.410256,4222.051282,4222.564102,4490.769230,4180.512820,4647.179487,4069.743589,4025.128205
125,4370.769230,4533.333333,4521.025641,4244.102564,4525.641025,4202.051282,4438.974358,4219.487179,4227.692307,4486.666666,4167.179487,4642.564102,4061.538461,4019.487179
126,4364.102564,4527.692307,4519.487179,4240.000000,4522.051282,4198.461538,4437.435897,4218.461538,4225.128205,4482.051282,4168.717948,4638.461538,4055.897435,4015.384615
127,4368.205128,4534.358974,4521.025641,4244.615384,4530.769230,4205.128205,4440.512820,4224.102564,4222.564102,4486.153846,4184.615384,4645.641025,4063.589743,4021.025641
128,4375.384615,4542.564102,4525.128205,4251.282051,4535.384615,4209.743589,4445.641025,4225.641025,4222.564102,4489.230769,4182.564102,4651.282051,4071.282051,4030.769230
129,4373.333333,4540.512820,4524.615384,4253.846153,4530.256410,4203.076923,4442.051282,4216.923076,4222.051282,4484.102564,4174.358974,4647.179487,4067.179487,4032.307692
130,4375.384615,4539.487179,4523.589743,4250.769230,4531.282051,4197.948717,4435.384615,4211.794871,4223.076923,4484.615384,4178.974358,4646.666666,4063.589743,4030.256410
131,4383.076923,4545.128205,4529.230769,4248.205128,4538.461538,4202.051282,4437.948717,4220.000000,4226.153846,4492.820512,4184.615384,4650.256410,4070.256410,4032.307692
132,4384.102564,4550.256410,4530.256410,4253.846153,4537.435897,4206.153846,4442.051282,4225.641025,4226.666666,4494.871794,4185.128205,4649.230769,4074.358974,4032.820512
133,4381.538461,4547.179487,4525.128205,4258.461538,4530.256410,4204.102564,4443.076923,4224.102564,4227.692307,4494.358974,4190.769230,4650.769230,4070.769230,4032.820512
134,4381.025641,4542.564102,4523.589743,4254.358974,4529.743589,4202.564102,4442.564102,4226.153846,4228.717948,4491.794871,4189.743589,4652.307692,4065.641025,4035.384615
135,4381.538461,4543.076923,4527.179487,4249.230769,4530.256410,4202.051282,4443.076923,4228.205128,4224.615384,4487.692307,4176.923076,4648.717948,4062.564102,4032.820512
136,4383.589743,4541.025641,4531.282051,4250.256410,4524.102564,4201.538461,4444.615384,4224.615384,4225.641025,4490.769230,4177.948717,4649.230769,4067.179487,4029.743589
137,4387.692307,4541.538461,4535.897435,4253.333333,4522.051282,4201.025641,4445.641025,4223.589743,4230.769230,4493.846153,4194.358974,4657.435897,4074.358974,4034.871794
138,4390.256410,4551.282051,4537.435897,4251.282051,4528.205128,4200.512820,4446.153846,4224.615384,4228.717948,4490.256410,4198.461538,4663.076923,4072.307692,4037.435897
139,4386.153846,4548.205128,4529.230769,4243.076923,4525.128205,4196.923076,4443.076923,4221.538461,4225.641025,4491.794871,4186.666666,4656.410256,4063.076923,4031.282051
140,4381.538461,4533.846153,4527.692307,4241.538461,4517.435897,4195.384615,4441.538461,4222.564102,4232.820512,4497.948717,4185.128205,4650.256410,4066.666666,4030.769230
141,4384.615384,4536.410256,4534.871794,4251.282051,4517.948717,4201.025641,4445.128205,4231.282051,4242.051282,4499.487179,4195.384615,4656.923076,4075.897435,4037.948717
142,4384.615384,4545.128205,4532.820512,4252.307692,4513.333333,4204.615384,4445.641025,4233.846153,4238.974358,4502.564102,4189.230769,4659.487179,4069.230769,4033.846153
143,4373.846153,4535.897435,4522.051282,4239.487179,4500.000000,4197.948717,4442.051282,4224.102564,4228.205128,4503.076923,4179.487179,4649.743589,4058.461538,4022.051282
144,4370.769230,4528.205128,4517.435897,4233.846153,4494.871794,4193.846153,4441.025641,4216.410256,4223.589743,4494.358974,4186.153846,4647.692307,4062.051282,4022.564102
145,4382.051282,4538.461538,4522.564102,4248.717948,4500.000000,4198.461538,4443.589743,4221.538461,4230.769230,4497.948717,4198.974358,4657.435897,4071.282051,4032.820512
146,4391.282051,4555.384615,4528.205128,4267.179487,4505.128205,4204.102564,4446.153846,4227.692307,4238.461538,4513.333333,4204.615384,4664.102564,4072.820512,4038.974358
147,4390.769230,4560.512820,4530.769230,4266.666666,4507.179487,4209.743589,4446.666666,4227.179487,4238.974358,4513.333333,4202.051282,4662.564102,4075.897435,4041.025641
148,4387.692307,4551.282051,4525.641025,4255.384615,4504.102564,4210.256410,4445.641025,4228.717948,4241.025641,4503.076923,4197.435897,4654.871794,4078.461538,4040.512820
149,4386.153846,4541.025641,4521.025641,4249.743589,4497.435897,4205.128205,4445.128205,4230.256410,4243.589743,4504.615384,4192.820512,4648.717948,4072.307692,4031.794871
150,4381.538461,4537.435897,4523.589743,4248.717948,4493.333333,4199.487179,4443.589743,4222.564102,4235.384615,4505.128205,4185.128205,4645.641025,4065.128205,4023.076923
151,4373.333333,4538.974358,4522.051282,4245.641025,4494.871794,4193.846153,4434.358974,4210.769230,4224.615384,4495.897435,4175.384615,4643.076923,4060.000000,4021.025641
152,4371.282051,4538.461538,4514.871794,4241.538461,4492.307692,4190.256410,4425.641025,4209.230769,4225.128205,4493.333333,4171.282051,4644.615384,4054.871794,4021.025641
153,4378.461538,4536.410256,4514.871794,4243.076923,4488.205128,4190.769230,4426.666666,4210.769230,4225.128205,4495.384615,4167.692307,4647.179487,4051.794871,4020.000000
154,4382.051282,4537.948717,4520.000000,4249.743589,4492.307692,4192.307692,4428.205128,4207.179487,4222.564102,4493.846153,4160.000000,4644.615384,4056.410256,4022.051282
155,4376.410256,4539.487179,4514.871794,4243.589743,4494.358974,4193.333333,4426.666666,4206.153846,4222.564102,4489.743589,4157.435897,4636.923076,4057.435897,4021.025641
156,4368.205128,4531.282051,4504.615384,4228.717948,4489.743589,4190.256410,4426.666666,4206.666666,4215.384615,4482.051282,4159.487179,4631.794871,4045.641025,4010.769230
157,4364.102564,4522.051282,4503.076923,4227.692307,4488.717948,4183.589743,4426.666666,4203.076923,4207.692307,4476.410256,4158.461538,4628.717948,4035.384615,4004.615384
158,4369.743589,4527.692307,4510.769230,4241.025641,4493.846153,4187.179487,4426.153846,4205.641025,4217.948717,4482.051282,4161.025641,4636.410256,4046.153846,4016.410256
159,4379.487179,4541.025641,4520.000000,4249.230769,4495.897435,4194.871794,4428.205128,4218.461538,4230.769230,4496.923076,4171.282051,4648.717948,4063.076923,4031.282051
160,4386.666666,4546.153846,4516.923076,4246.666666,4495.897435,4194.871794,4430.256410,4220.512820,4227.692307,4500.000000,4168.717948,4650.769230,4061.025641,4029.743589
161,4388.717948,4545.128205,4510.256410,4244.102564,4501.538461,4196.410256,4429.743589,4213.333333,4222.564102,4491.794871,4157.435897,4645.641025,4055.384615,4025.128205
162,4392.307692,4549.743589,4512.820512,4245.128205,4508.717948,4200.512820,4435.897435,4217.948717,4231.794871,4494.871794,4165.128205,4644.102564,4063.589743,4033.846153
163,4393.333333,4551.794871,4515.384615,4247.179487,4508.205128,4202.564102,4443.076923,4226.666666,4241.538461,4505.128205,4177.948717,4646.153846,4071.794871,4036.410256
164,4391.794871,4546.153846,4515.897435,4248.717948,4507.692307,4205.641025,4442.051282,4226.666666,4242.564102,4504.102564,4171.794871,4645.128205,4070.256410,4029.743589
165,4393.846153,4545.641025,4521.025641,4255.384615,4507.692307,4204.102564,4441.538461,4223.589743,4237.948717,4500.512820,4171.794871,4646.666666,4063.076923,4031.794871
166,4396.923076,4553.846153,4528.717948,4261.025641,4504.102564,4201.025641,4442.564102,4223.589743,4235.384615,4505.641025,4184.102564,4653.846153,4062.564102,4039.487179
167,4398.461538,4559.487179,4531.282051,4255.897435,4505.128205,4202.051282,4437.948717,4221.025641,4234.871794,4507.692307,4175.384615,4654.871794,4070.256410,4040.512820
168,4396.410256,4554.358974,4529.743589,4248.717948,4507.179487,4203.076923,4434.358974,4215.897435,4229.743589,4502.051282,4164.615384,4651.282051,4073.333333,4036.410256
169,4390.256410,4542.051282,4523.076923,4246.666666,4496.923076,4196.923076,4433.333333,4212.307692,4224.102564,4497.435897,4169.743589,4647.179487,4061.538461,4027.692307
170,4386.666666,4538.461538,4517.435897,4245.128205,4488.205128,4191.282051,4428.205128,4208.717948,4222.564102,4497.948717,4168.717948,4639.487179,4050.256410,4022.564102
171,4392.307692,4547.692307,4520.000000,4245.641025,4496.410256,4195.897435,4426.666666,4211.794871,4224.615384,4500.000000,4164.102564,4635.897435,4056.923076,4027.179487
172,4391.794871,4548.717948,4516.410256,4249.743589,4501.025641,4202.564102,4429.230769,4219.487179,4228.717948,4498.461538,4159.487179,4636.923076,4060.512820,4025.128205
173,4382.564102,4536.923076,4506.666666,4248.717948,4490.769230,4196.923076,4427.179487,4213.846153,4227.692307,4494.871794,4151.282051,4633.333333,4049.230769,4015.897435
174,4388.205128,4535.384615,4510.769230,4247.692307,4483.076923,4193.333333,4430.256410,4211.282051,4232.820512,4496.410256,4160.512820,4637.948717,4051.282051,4022.051282
175,4398.974358,4546.153846,4527.179487,4256.923076,4486.666666,4197.435897,4437.435897,4221.538461,4238.461538,4501.025641,4176.923076,4649.230769,4065.641025,4033.846153
176,4398.461538,4549.743589,4528.205128,4263.589743,4490.769230,4198.461538,4434.358974,4220.000000,4232.820512,4501.025641,4172.307692,4647.179487,4065.128205,4033.846153
177,4396.923076,4543.589743,4521.025641,4261.025641,4493.333333,4201.025641,4430.769230,4208.717948,4229.230769,4498.974358,4168.205128,4645.128205,4062.051282,4033.846153
178,4399.487179,4547.179487,4525.128205,4261.538461,4495.384615,4204.102564,4438.461538,4208.205128,4230.769230,4501.538461,4173.846153,4652.820512,4067.179487,4038.974358
179,4398.461538,4552.820512,4525.641025,4261.025641,4492.820512,4202.564102,4439.487179,4209.230769,4223.589743,4501.025641,4169.743589,4651.282051,4062.564102,4037.948717
180,4396.923076,4550.769230,4521.025641,4256.923076,4493.333333,4200.000000,4428.717948,4206.153846,4218.974358,4496.410256,4169.230769,4645.641025,4052.820512,4033.333333
181,4397.948717,4545.641025,4521.538461,4256.410256,4490.256410,4198.974358,4427.179487,4211.794871,4226.666666,4494.358974,4176.923076,4649.230769,4054.871794,4031.794871
182,4397.948717,4543.076923,4524.615384,4255.384615,4482.564102,4198.461538,4430.256410,4218.461538,4228.205128,4494.358974,4176.923076,4654.871794,4057.948717,4033.333333
183,4401.025641,4542.051282,4526.153846,4256.923076,4484.615384,4198.974358,4429.743589,4216.410256,4225.641025,4494.871794,4173.846153,4655.897435,4055.384615,4038.461538
184,4404.615384,4540.512820,4523.076923,4259.487179,4491.282051,4202.051282,4435.384615,4215.897435,4229.743589,4497.435897,4174.871794,4655.384615,4050.256410,4039.487179
185,4402.564102,4540.512820,4523.589743,4258.461538,4490.256410,4206.153846,4442.051282,4219.487179,4233.333333,4496.410256,4173.846153,4653.846153,4048.717948,4033.333333
186,4398.974358,4537.435897,4522.564102,4254.358974,4482.051282,4202.051282,4434.871794,4214.358974,4229.230769,4494.358974,4165.128205,4647.692307,4049.230769,4026.666666
187,4394.871794,4530.769230,4510.769230,4251.282051,4477.435897,4190.769230,4421.025641,4203.076923,4222.051282,4492.307692,4156.923076,4633.333333,4041.538461,4020.512820
188,4394.871794,4530.769230,4503.076923,4252.307692,4481.025641,4193.846153,4420.512820,4205.128205,4223.589743,4488.205128,4162.564102,4628.205128,4037.948717,4020.000000
189,4400.000000,4538.461538,4508.205128,4254.871794,4484.615384,4202.564102,4427.692307,4214.358974,4228.717948,4486.666666,4167.179487,4641.538461,4046.666666,4025.641025
190,4401.025641,4534.871794,4511.282051,4251.282051,4477.435897,4198.461538,4427.692307,4215.384615,4223.076923,4486.153846,4164.615384,4647.179487,4047.179487,4025.641025
191,4395.897435,4519.487179,4507.692307,4242.564102,4472.307692,4193.333333,4424.615384,4211.794871,4214.871794,4482.564102,4162.051282,4637.435897,4036.410256,4018.461538
192,4390.256410,4518.461538,4505.641025,4246.153846,4475.897435,4199.487179,4427.692307,4207.692307,4218.461538,4483.076923,4155.897435,4629.230769,4030.769230,4012.820512
193,4388.205128,4529.230769,4504.615384,4249.743589,4478.461538,4201.538461,4429.743589,4200.512820,4219.487179,4481.025641,4152.307692,4625.641025,4026.666666,4010.256410
194,4389.743589,4530.256410,4505.641025,4243.589743,4482.051282,4198.461538,4425.128205,4196.923076,4209.743589,4472.820512,4158.461538,4624.615384,4017.435897,4007.692307
195,4395.897435,4529.743589,4508.717948,4252.307692,4481.538461,4201.025641,4425.641025,4200.000000,4211.794871,4477.435897,4166.153846,4629.743589,4029.230769,4013.846153
196,4401.025641,4536.410256,4510.256410,4265.641025,4473.846153,4201.025641,4425.128205,4202.564102,4223.589743,4490.256410,4168.717948,4635.897435,4050.769230,4023.589743
197,4398.461538,4536.923076,4515.384615,4257.948717,4471.794871,4192.820512,4417.435897,4201.025641,4221.538461,4487.179487,4165.128205,4636.923076,4048.205128,4025.128205
198,4398.974358,4532.820512,4517.948717,4249.230769,4476.410256,4190.769230,4417.435897,4200.512820,4211.794871,4480.512820,4158.974358,4641.025641,4039.487179,4022.051282
199,4404.615384,4534.871794,4518.461538,4260.000000,4476.923076,4198.974358,4426.666666,4205.128205,4213.846153,4484.102564,4161.538461,4644.102564,4040.512820,4023.076923
200,4401.538461,4535.384615,4517.948717,4262.051282,4475.384615,4203.076923,4430.256410,4206.666666,4221.538461,4488.717948,4174.871794,4639.487179,4039.487179,4024.615384
201,4396.923076,4530.769230,4511.282051,4249.743589,4480.000000,4201.025641,4425.641025,4200.512820,4219.487179,4487.179487,4172.307692,4633.846153,4038.974358,4022.564102
202,4407.179487,4532.307692,4506.666666,4246.153846,4484.615384,4198.461538,4425.128205,4198.974358,4215.897435,4483.076923,4161.538461,4631.794871,4045.641025,4022.051282
203,4418.461538,4539.487179,4509.743589,4252.820512,4480.000000,4198.461538,4425.641025,4202.564102,4216.923076,4483.076923,4163.589743,4630.769230,4043.076923,4023.076923
204,4417.435897,4537.948717,4512.820512,4257.435897,4470.769230,4197.435897,4420.512820,4202.051282,4216.923076,4484.615384,4165.128205,4629.743589,4037.948717,4022.051282
205,4408.717948,4529.743589,4508.717948,4253.333333,4466.153846,4192.307692,4414.358974,4194.871794,4211.282051,4480.000000,4157.435897,4629.230769,4042.564102,4019.487179
206,4398.974358,4518.461538,4504.615384,4245.641025,4462.564102,4185.641025,4410.769230,4191.282051,4205.641025,4475.384615,4153.846153,4626.666666,4036.923076,4015.897435
207,4401.025641,4517.435897,4504.615384,4243.589743,4456.923076,4185.641025,4410.769230,4191.282051,4207.179487,4479.487179,4165.128205,4626.666666,4029.743589,4016.923076
208,4413.846153,4532.307692,4507.692307,4249.230769,4465.641025,4196.410256,4414.871794,4193.846153,4212.820512,4483.076923,4172.307692,4631.794871,4042.564102,4022.564102
209,4416.923076,4537.948717,4509.743589,4254.358974,4477.435897,4200.512820,4417.435897,4196.923076,4212.307692,4480.000000,4166.666666,4632.820512,4051.794871,4025.641025
210,4413.846153,4531.282051,4509.743589,4253.846153,4469.743589,4191.794871,4415.897435,4196.923076,4208.717948,4480.512820,4158.974358,4631.794871,4046.153846,4022.564102
211,4416.923076,4531.794871,4511.794871,4252.820512,4462.564102,4191.282051,4413.846153,4196.923076,4210.769230,4478.461538,4155.384615,4632.820512,4043.076923,4021.025641
212,4412.820512,4533.846153,4511.282051,4250.769230,4464.615384,4192.820512,4412.820512,4192.820512,4209.230769,4470.256410,4163.076923,4633.846153,4041.538461,4021.025641
213,4406.153846,4531.794871,4510.256410,4247.692307,4466.153846,4191.794871,4414.358974,4190.769230,4206.666666,4472.307692,4174.871794,4636.923076,4041.538461,4024.615384
214,4403.589743,4531.282051,4510.769230,4248.205128,4468.717948,4191.794871,4414.871794,4195.897435,4211.282051,4482.564102,4172.820512,4643.076923,4047.179487,4030.769230
215,4399.487179,4529.743589,4511.794871,4252.820512,4472.307692,4192.307692,4413.333333,4199.487179,4215.897435,4483.589743,4163.076923,4643.076923,4049.230769,4030.256410
216,4396.410256,4528.205128,4512.307692,4252.820512,4474.358974,4191.282051,4412.307692,4195.384615,4216.923076,4474.871794,4162.564102,4636.410256,4045.641025,4025.128205
217,4393.846153,4529.230769,4508.717948,4246.153846,4479.487179,4190.256410,4410.256410,4190.769230,4212.820512,4468.717948,4160.000000,4629.743589,4041.025641,4020.512820
218,4394.358974,4532.820512,4505.641025,4246.153846,4486.666666,4193.333333,4413.333333,4193.846153,4211.282051,4470.769230,4152.307692,4628.717948,4040.000000,4021.025641
219,4402.051282,4537.435897,4511.794871,4250.769230,4488.717948,4194.358974,4422.564102,4199.487179,4218.461538,4474.358974,4155.384615,4637.435897,4049.743589,4027.692307
220,4403.076923,4535.897435,4520.512820,4250.256410,4490.769230,4191.282051,4424.102564,4200.512820,4225.641025,4474.358974,4160.512820,4642.564102,4051.794871,4029.230769
221,4391.282051,4532.820512,4520.000000,4249.230769,4495.897435,4190.256410,4420.512820,4203.589743,4223.076923,4477.948717,4160.512820,4638.461538,4039.487179,4025.641025
222,4388.717948,4532.820512,4516.923076,4243.589743,4498.461538,4193.333333,4424.102564,4206.666666,4225.128205,4483.589743,4163.589743,4638.461538,4042.564102,4028.205128
223,4398.974358,4532.820512,4520.512820,4236.923076,4502.051282,4198.974358,4429.230769,4208.205128,4234.358974,4483.589743,4170.769230,4646.666666,4062.051282,4032.307692
224,4397.948717,4531.282051,4520.512820,4238.974358,4505.128205,4200.000000,4428.205128,4208.717948,4233.846153,4484.615384,4172.820512,4646.153846,4064.102564,4029.743589
225,4388.717948,4535.384615,4509.743589,4240.512820,4507.692307,4194.358974,4427.179487,4207.179487,4228.205128,4488.717948,4164.102564,4637.948717,4053.846153,4030.769230
226,4389.743589,4538.974358,4503.589743,4240.512820,4508.717948,4190.256410,4428.205128,4210.769230,4236.410256,4487.692307,4164.615384,4640.000000,4058.974358,4034.358974
227,4393.333333,4535.897435,4512.307692,4243.589743,4507.692307,4195.384615,4430.769230,4221.538461,4243.589743,4488.717948,4178.974358,4650.256410,4071.794871,4036.923076
228,4384.102564,4532.307692,4522.051282,4241.538461,4505.128205,4195.384615,4429.230769,4224.102564,4236.923076,4492.820512,4182.051282,4649.743589,4066.153846,4037.435897
229,4380.000000,4531.794871,4521.538461,4237.948717,4509.743589,4188.717948,4426.153846,4217.948717,4232.820512,4495.384615,4174.871794,4645.128205,4056.923076,4035.897435
230,4392.307692,4537.435897,4526.666666,4246.666666,4517.435897,4197.435897,4434.871794,4218.461538,4235.897435,4498.974358,4180.000000,4655.384615,4067.179487,4039.487179
231,4399.487179,4543.076923,4535.384615,4253.846153,4516.410256,4206.153846,4445.641025,4223.589743,4242.051282,4503.076923,4191.282051,4665.641025,4078.974358,4047.692307
232,4394.358974,4537.435897,4531.282051,4245.128205,4517.435897,4201.025641,4441.538461,4221.538461,4245.128205,4503.589743,4186.153846,4662.564102,4071.794871,4048.205128
233,4394.871794,4531.794871,4521.025641,4241.025641,4525.641025,4200.000000,4434.358974,4218.974358,4239.487179,4500.000000,4174.871794,4656.923076,4064.615384,4041.025641
234,4400.000000,4532.820512,4522.564102,4245.641025,4525.128205,4205.128205,4438.461538,4222.051282,4240.000000,4501.025641,4183.589743,4660.000000,4067.179487,4040.000000
235,4401.538461,4539.487179,4533.333333,4247.692307,4520.000000,4207.692307,4445.641025,4227.692307,4248.205128,4506.153846,4203.076923,4667.179487,4067.179487,4045.128205
236,4400.512820,4539.487179,4536.410256,4247.179487,4521.538461,4203.589743,4446.153846,4230.769230,4245.641025,4505.128205,4196.410256,4668.205128,4063.589743,4047.692307
237,4401.025641,4535.384615,4533.333333,4248.717948,4521.538461,4198.974358,4443.589743,4228.205128,4239.487179,4500.512820,4177.948717,4664.102564,4065.128205,4050.256410
238,4403.589743,4540.512820,4536.923076,4252.820512,4520.512820,4202.051282,4444.615384,4223.589743,4241.025641,4501.538461,4186.153846,4662.051282,4070.769230,4054.358974
239,4401.025641,4545.128205,4537.435897,4250.769230,4522.564102,4205.128205,4445.641025,4224.102564,4238.974358,4502.564102,4194.358974,4659.487179,4073.333333,4052.820512
240,4396.410256,4539.487179,4530.256410,4246.153846,4519.487179,4200.000000,4443.589743,4227.179487,4239.487179,4500.512820,4184.102564,4654.871794,4069.743589,4045.641025
241,4396.410256,4536.410256,4530.769230,4247.692307,4515.897435,4197.948717,4442.564102,4226.153846,4244.102564,4505.641025,4187.179487,4655.384615,4067.692307,4044.102564
242,4398.974358,4545.128205,4538.461538,4249.743589,4520.000000,4206.153846,4443.589743,4225.128205,4243.589743,4511.282051,4203.076923,4661.538461,4068.717948,4049.230769
243,4400.512820,4549.743589,4538.974358,4247.692307,4518.974358,4207.179487,4444.615384,4229.230769,4249.230769,4511.282051,4199.487179,4665.128205,4068.717948,4052.307692
244,4399.487179,4545.641025,4535.384615,4248.717948,4512.820512,4202.051282,4443.076923,4230.256410,4250.769230,4507.179487,4188.717948,4660.512820,4067.692307,4049.743589
245,4397.948717,4545.128205,4537.948717,4252.307692,4511.282051,4205.641025,4443.076923,4228.717948,4243.589743,4505.128205,4191.282051,4656.923076,4068.717948,4045.128205
246,4395.384615,4544.102564,4538.974358,4252.820512,4515.384615,4209.230769,4444.615384,4227.692307,4248.205128,4508.717948,4193.333333,4657.435897,4065.128205,4042.051282
247,4385.641025,4537.435897,4532.820512,4246.666666,4517.948717,4203.076923,4443.076923,4226.153846,4252.307692,4507.179487,4190.256410,4652.820512,4055.384615,4037.435897
248,4382.051282,4532.307692,4529.230769,4236.923076,4509.743589,4197.435897,4441.025641,4223.589743,4239.487179,4501.025641,4185.641025,4648.717948,4053.333333,4033.846153
249,4392.820512,4533.846153,4535.897435,4238.461538,4499.487179,4198.974358,4442.051282,4224.102564,4234.358974,4501.025641,4188.717948,4655.384615,4057.948717,4038.974358
250,4398.461538,4536.410256,4541.025641,4250.769230,4500.512820,4198.974358,4441.538461,4226.153846,4243.589743,4505.128205,4199.487179,4664.102564,4055.897435,4043.589743
251,4394.358974,4535.897435,4538.974358,4251.794871,4509.743589,4197.435897,4436.923076,4223.589743,4242.564102,4501.538461,4196.410256,4663.076923,4051.282051,4040.512820
252,4394.358974,4538.461538,4537.948717,4248.205128,4511.282051,4197.948717,4437.435897,4220.512820,4233.333333,4498.461538,4184.102564,4658.461538,4057.435897,4038.461538
253,4403.076923,4544.615384,4540.512820,4252.307692,4506.666666,4201.538461,4444.102564,4226.666666,4243.589743,4506.153846,4193.333333,4663.076923,4068.717948,4049.230769
254,4412.307692,4548.205128,4541.538461,4256.923076,4512.307692,4205.641025,4446.153846,4229.743589,4254.358974,4510.769230,4207.692307,4665.641025,4068.717948,4056.410256
255,4412.307692,4543.076923,4540.000000,4253.846153,4518.974358,4200.512820,4442.564102,4226.153846,4246.153846,4505.641025,4200.000000,4661.025641,4060.512820,4049.230769
256,4402.564102,4542.564102,4542.051282,4252.820512,4513.846153,4199.487179,4444.102564,4231.794871,4245.128205,4508.205128,4197.948717,4661.538461,4064.102564,4048.717948
257,4390.769230,4548.205128,4545.641025,4255.384615,4509.743589,4209.230769,4446.666666,4234.871794,4251.794871,4512.307692,4204.102564,4665.641025,4072.307692,4055.384615
258,4382.564102,4545.128205,4541.538461,4254.358974,4513.333333,4212.820512,4445.128205,4229.230769,4244.615384,4502.051282,4196.923076,4663.076923,4064.615384,4051.282051
259,4375.897435,4537.948717,4535.897435,4252.307692,4513.333333,4205.128205,4443.589743,4231.794871,4239.487179,4495.897435,4187.692307,4660.000000,4053.333333,4042.051282
