,AF3,F7,F3,FC5,T7,P7,O1,O2,P8,T8,FC6,F4,F8,AF4
0,4285.128205,4444.102564,4544.615384,4267.692307,4476.410256,4187.692307,4472.307692,4235.384615,4247.179487,4464.615384,4139.487179,4686.153846,3928.717949,4050.256410
1,4277.948717,4436.923076,4541.025641,4261.025641,4476.923076,4191.794871,4474.358974,4237.435897,4247.179487,4468.717948,4153.333333,4686.153846,3919.487180,4052.820512
2,4264.615384,4424.102564,4534.358974,4263.589743,4472.307692,4196.410256,4474.358974,4230.769230,4240.000000,4466.666666,4155.384615,4676.923076,3913.333334,4048.717948
3,4253.846153,4426.666666,4526.153846,4265.641025,4467.692307,4190.256410,4463.589743,4220.000000,4233.846153,4448.205128,4130.256410,4662.564102,3903.076924,4038.974358
4,4246.153846,4428.717948,4518.974358,4249.230769,4461.025641,4182.564102,4460.000000,4213.333333,4226.153846,4440.512820,4111.282051,4654.871794,3894.358975,4024.102564
5,4249.743589,4430.256410,4524.102564,4241.538461,4461.025641,4186.666666,4470.256410,4217.435897,4230.769230,4454.871794,4121.025641,4662.564102,3903.589744,4021.538461
6,4257.435897,4431.282051,4532.820512,4255.384615,4468.205128,4187.692307,4470.256410,4225.128205,4240.512820,4460.000000,4132.820512,4668.717948,3907.179488,4030.256410
7,4260.000000,4426.666666,4535.384615,4266.153846,4468.205128,4180.512820,4458.461538,4231.282051,4243.589743,4464.102564,4142.564102,4673.846153,3907.179488,4042.051282
8,4261.025641,4433.846153,4539.487179,4267.692307,4464.102564,4184.102564,4457.948717,4235.384615,4246.666666,4477.948717,4157.948717,4681.538461,3925.641026,4052.820512
9,4260.512820,4446.153846,4541.025641,4260.512820,4460.512820,4186.153846,4461.538461,4229.230769,4244.102564,4473.333333,4155.384615,4677.948717,3929.230770,4044.102564
10,4250.769230,4438.461538,4530.256410,4239.487179,4459.487179,4174.871794,4456.410256,4218.974358,4235.384615,4453.846153,4139.487179,4665.128205,3908.717949,4026.153846
11,4234.871794,4416.923076,4519.487179,4229.743589,4457.948717,4171.794871,4457.948717,4214.871794,4232.820512,4442.051282,4130.256410,4655.384615,3899.487180,4022.051282
12,4226.153846,4406.153846,4517.948717,4233.333333,4455.897435,4181.025641,4468.205128,4214.358974,4231.794871,4444.102564,4132.307692,4654.871794,3899.487180,4022.564102
13,4235.384615,4418.974358,4526.153846,4231.794871,4460.000000,4188.205128,4477.948717,4221.538461,4235.897435,4461.025641,4138.974358,4663.589743,3898.461539,4021.538461
14,4247.692307,4435.384615,4539.487179,4236.410256,4464.102564,4193.333333,4481.025641,4232.307692,4250.769230,4470.769230,4135.384615,4670.769230,3903.589744,4025.128205
15,4241.538461,4436.923076,4539.487179,4245.128205,4463.076923,4193.333333,4478.461538,4234.358974,4250.769230,4465.128205,4131.282051,4666.153846,3910.769231,4030.256410
16,4233.846153,4433.333333,4530.769230,4238.461538,4461.025641,4185.641025,4472.307692,4226.153846,4238.974358,4460.000000,4141.025641,4662.051282,3913.846154,4031.282051
17,4231.794871,4433.333333,4526.153846,4231.282051,4463.076923,4181.025641,4459.487179,4219.487179,4241.538461,4450.769230,4139.487179,4658.461538,3906.153847,4031.282051
18,4223.589743,4429.230769,4520.000000,4234.871794,4461.538461,4184.615384,4456.410256,4214.871794,4241.025641,4439.487179,4123.076923,4649.743589,3889.743590,4021.538461
19,4220.512820,4428.717948,4520.000000,4230.769230,4457.948717,4185.641025,4470.256410,4215.384615,4229.230769,4448.717948,4120.000000,4651.794871,3889.743590,4012.820512
20,4224.102564,4432.820512,4530.256410,4229.230769,4461.538461,4187.692307,4480.000000,4216.923076,4229.230769,4456.923076,4121.538461,4660.000000,3902.564103,4016.923076
21,4222.051282,4429.743589,4533.846153,4242.051282,4464.615384,4189.230769,4475.897435,4218.461538,4240.000000,4450.256410,4116.410256,4659.487179,3899.487180,4020.512820
22,4216.923076,4427.692307,4527.692307,4247.692307,4461.025641,4187.179487,4473.333333,4222.051282,4242.564102,4449.743589,4121.025641,4656.923076,3887.692308,4016.923076
23,4217.435897,4431.282051,4528.205128,4243.589743,4457.948717,4187.179487,4474.871794,4224.102564,4239.487179,4453.333333,4131.282051,4661.538461,3893.846154,4017.435897
24,4217.948717,4427.179487,4533.846153,4249.230769,4460.000000,4185.641025,4472.820512,4225.128205,4240.512820,4453.333333,4132.820512,4668.717948,3909.743590,4026.153846
25,4218.461538,4421.538461,4536.923076,4252.307692,4455.897435,4184.615384,4470.769230,4223.076923,4236.923076,4451.794871,4134.871794,4669.743589,3907.179488,4027.692307
26,4219.487179,4428.717948,4531.794871,4241.538461,4448.717948,4184.102564,4472.820512,4219.487179,4234.871794,4447.179487,4141.538461,4668.717948,3899.487180,4022.051282
27,4215.897435,4434.871794,4528.717948,4233.846153,4451.794871,4182.564102,4474.871794,4224.102564,4244.615384,4448.717948,4138.461538,4671.282051,3904.615385,4020.512820
28,4212.820512,4422.051282,4530.769230,4233.333333,4458.974358,4182.564102,4473.846153,4225.128205,4243.589743,4457.948717,4117.435897,4666.666666,3905.128206,4015.384615
29,4215.384615,4412.820512,4530.769230,4241.025641,4461.538461,4183.076923,4473.846153,4216.923076,4229.743589,4455.897435,4105.128205,4658.461538,3894.358975,4010.769230
30,4213.846153,4421.538461,4527.179487,4258.461538,4460.512820,4183.076923,4472.820512,4211.794871,4226.666666,4445.641025,4120.512820,4656.410256,3888.717949,4009.230769
31,4200.000000,4425.128205,4523.589743,4260.000000,4461.025641,4183.589743,4469.743589,4215.384615,4231.794871,4440.512820,4127.692307,4653.333333,3888.717949,4002.564102
32,4199.487179,4422.051282,4526.666666,4247.692307,4462.564102,4184.102564,4473.333333,4221.538461,4238.974358,4447.179487,4120.000000,4657.948717,3902.051283,4007.179487
33,4217.948717,4427.179487,4536.923076,4249.230769,4461.538461,4184.615384,4471.794871,4224.102564,4244.102564,4459.487179,4131.794871,4672.820512,3913.846154,4025.641025
34,4222.564102,4432.307692,4538.974358,4254.358974,4460.000000,4182.564102,4458.461538,4224.102564,4237.435897,4461.538461,4146.153846,4673.333333,3899.487180,4029.230769
35,4213.333333,4426.666666,4532.820512,4247.179487,4463.589743,4181.538461,4462.051282,4228.205128,4232.307692,4461.538461,4136.923076,4662.564102,3888.717949,4013.846153
36,4202.564102,4416.410256,4530.256410,4236.923076,4467.692307,4186.153846,4478.461538,4229.230769,4237.948717,4456.410256,4120.000000,4658.974358,3900.512821,3998.974359
37,4190.256410,4409.230769,4524.102564,4224.102564,4461.538461,4186.153846,4477.435897,4218.461538,4235.384615,4438.974358,4110.769230,4653.333333,3895.384616,3993.846154
38,4184.102564,4409.743589,4514.871794,4212.820512,4455.384615,4182.051282,4469.743589,4209.230769,4224.102564,4434.358974,4097.435897,4643.589743,3877.435898,3993.846154
39,4188.205128,4411.282051,4516.410256,4211.794871,4465.128205,4184.615384,4473.333333,4209.230769,4214.871794,4447.692307,4093.333333,4642.051282,3884.102565,3992.820513
40,4188.717948,4409.743589,4523.589743,4220.000000,4475.384615,4191.794871,4475.384615,4211.794871,4215.897435,4450.769230,4110.769230,4645.128205,3902.051283,3997.435898
41,4186.153846,4412.307692,4525.641025,4229.743589,4473.333333,4191.282051,4474.871794,4220.000000,4228.717948,4445.641025,4125.641025,4649.230769,3905.128206,4005.128205
42,4186.153846,4411.794871,4525.128205,4231.794871,4468.205128,4186.153846,4476.923076,4224.615384,4236.410256,4445.128205,4114.871794,4650.256410,3902.051283,4004.615384
43,4189.230769,4409.743589,4525.128205,4224.102564,4463.589743,4184.615384,4474.871794,4217.948717,4229.230769,4441.538461,4096.410256,4648.717948,3904.615385,4000.000000
44,4194.871794,4414.871794,4529.743589,4214.871794,4463.076923,4186.666666,4473.333333,4220.000000,4226.153846,4443.589743,4112.820512,4655.384615,3910.256411,4000.512820
45,4192.307692,4417.435897,4537.435897,4215.384615,4466.153846,4187.692307,4477.948717,4236.410256,4235.897435,4455.897435,4135.897435,4668.205128,3919.487180,4005.641025
46,4178.974358,4410.256410,4537.435897,4221.025641,4464.102564,4184.615384,4479.487179,4243.589743,4242.564102,4462.564102,4134.871794,4672.307692,3928.717949,4010.256410
47,4169.230769,4403.589743,4532.307692,4217.435897,4457.435897,4185.641025,4476.923076,4234.871794,4245.128205,4458.461538,4131.282051,4671.794871,3929.743590,4006.666666
48,4166.666666,4397.948717,4530.769230,4211.282051,4457.435897,4181.538461,4469.743589,4231.794871,4244.102564,4450.256410,4132.307692,4672.307692,3917.948718,3995.897436
49,4167.692307,4393.333333,4530.256410,4223.076923,4458.974358,4175.384615,4458.974358,4234.871794,4236.923076,4448.205128,4128.717948,4667.692307,3907.692308,3994.358975
50,4167.692307,4404.102564,4531.282051,4236.410256,4456.923076,4178.974358,4463.076923,4238.974358,4234.871794,4452.820512,4122.564102,4666.666666,3916.410257,4002.051282
51,4157.948717,4412.307692,4531.282051,4226.153846,4460.000000,4185.128205,4475.384615,4239.487179,4238.461538,4450.769230,4115.384615,4664.615384,3922.564103,4002.564102
52,4145.128205,4400.000000,4523.589743,4215.897435,4461.538461,4189.743589,4473.333333,4230.769230,4228.205128,4441.025641,4107.179487,4654.871794,3906.153847,3989.230770
53,4147.692307,4391.282051,4523.589743,4228.205128,4458.974358,4193.333333,4475.384615,4229.230769,4221.025641,4443.076923,4106.666666,4655.897435,3898.461539,3980.512821
54,4158.461538,4401.025641,4531.282051,4237.435897,4464.102564,4196.923076,4487.179487,4238.461538,4240.512820,4457.948717,4111.282051,4667.692307,3914.358975,3992.307693
55,4154.871794,4401.538461,4529.230769,4225.641025,4469.743589,4195.897435,4483.589743,4236.923076,4250.256410,4454.358974,4115.897435,4668.205128,3916.923077,3996.923077
56,4150.769230,4390.769230,4524.102564,4213.333333,4463.589743,4190.256410,4476.410256,4231.794871,4237.435897,4443.589743,4119.487179,4661.538461,3905.128206,3988.717949
57,4151.794871,4400.512820,4528.205128,4215.897435,4458.974358,4191.282051,4481.025641,4233.846153,4232.307692,4449.743589,4114.871794,4663.076923,3909.743590,3990.256411
58,4145.128205,4413.846153,4528.717948,4219.487179,4463.589743,4193.846153,4480.000000,4235.384615,4231.794871,4456.923076,4110.256410,4664.615384,3917.435898,3986.153847
59,4136.923076,4405.641025,4522.051282,4216.923076,4464.102564,4188.717948,4475.384615,4233.846153,4231.282051,4457.948717,4112.820512,4661.538461,3912.307693,3975.384616
60,4137.948717,4397.948717,4523.076923,4221.025641,4463.589743,4189.230769,4476.410256,4232.820512,4236.923076,4460.512820,4116.923076,4660.000000,3905.641026,3981.538462
61,4141.538461,4403.589743,4529.743589,4226.666666,4472.307692,4197.948717,4476.410256,4234.358974,4240.512820,4456.410256,4123.076923,4662.564102,3903.076924,3990.256411
62,4138.461538,4409.230769,4529.743589,4220.512820,4475.897435,4193.846153,4474.871794,4234.358974,4232.820512,4446.153846,4121.025641,4665.128205,3901.025642,3978.461539
63,4135.897435,4408.717948,4524.102564,4216.923076,4468.205128,4182.051282,4472.307692,4222.564102,4220.000000,4443.076923,4106.153846,4661.025641,3904.615385,3968.205129
64,4141.025641,4413.333333,4525.128205,4233.333333,4466.666666,4185.641025,4471.794871,4218.461538,4224.102564,4449.230769,4101.538461,4663.076923,3915.384616,3972.307693
65,4145.128205,4423.076923,4530.256410,4241.538461,4477.435897,4197.435897,4478.461538,4232.820512,4244.615384,4457.435897,4108.205128,4669.743589,3919.487180,3978.974359
66,4129.743589,4414.358974,4524.102564,4225.128205,4475.384615,4194.358974,4477.948717,4233.846153,4242.564102,4458.461538,4104.102564,4660.000000,3905.641026,3970.769231
67,4112.820512,4390.256410,4516.410256,4210.769230,4460.000000,4181.025641,4471.794871,4223.589743,4223.589743,4446.666666,4098.974358,4649.230769,3893.846154,3952.820513
68,4126.153846,4391.282051,4527.179487,4217.948717,4460.512820,4185.128205,4481.538461,4234.358974,4231.282051,4447.179487,4111.794871,4662.051282,3905.128206,3959.487180
69,4144.615384,4417.948717,4540.512820,4222.051282,4474.871794,4199.487179,4496.410256,4251.794871,4250.769230,4469.230769,4129.743589,4676.923076,3921.538462,3976.410257
70,4132.307692,4415.384615,4534.358974,4205.641025,4476.410256,4201.025641,4495.384615,4253.333333,4250.769230,4480.000000,4126.153846,4670.256410,3914.871795,3968.205129
71,4113.333333,4385.128205,4521.025641,4191.794871,4467.179487,4191.282051,4489.230769,4246.153846,4243.589743,4465.128205,4108.205128,4657.948717,3897.948718,3952.307693
72,4115.384615,4381.538461,4518.461538,4202.564102,4469.230769,4189.230769,4488.717948,4241.538461,4243.076923,4455.897435,4097.948717,4662.051282,3903.076924,3954.871795
73,4129.743589,4404.102564,4526.666666,4216.923076,4477.435897,4195.897435,4493.333333,4243.589743,4249.743589,4457.435897,4103.589743,4671.794871,3914.358975,3966.666667
74,4135.897435,4421.538461,4538.461538,4212.820512,4477.948717,4204.102564,4498.974358,4247.179487,4256.410256,4461.025641,4122.051282,4676.410256,3915.897436,3973.333334
75,4140.000000,4431.794871,4544.615384,4216.923076,4482.564102,4204.615384,4496.923076,4246.153846,4250.769230,4468.717948,4138.974358,4680.000000,3922.564103,3973.846154
76,4148.205128,4436.410256,4544.102564,4230.256410,4486.153846,4201.025641,4491.282051,4243.589743,4244.615384,4473.333333,4136.923076,4684.615384,3928.205129,3973.333334
77,4148.717948,4429.743589,4543.589743,4229.743589,4481.538461,4201.538461,4484.102564,4239.487179,4250.256410,4466.666666,4116.923076,4681.538461,3918.974359,3976.410257
78,4141.025641,4422.051282,4540.512820,4232.307692,4482.564102,4201.538461,4476.923076,4231.794871,4247.179487,4461.538461,4105.641025,4670.769230,3906.666667,3972.820513
79,4136.923076,4422.051282,4534.358974,4241.538461,4484.615384,4201.538461,4481.025641,4230.256410,4237.435897,4459.487179,4115.384615,4668.205128,3910.769231,3962.051283
80,4136.410256,4425.128205,4534.871794,4236.923076,4479.487179,4200.512820,4485.641025,4235.897435,4237.435897,4462.051282,4123.589743,4673.333333,3923.589744,3961.025642
81,4142.564102,4430.256410,4544.102564,4225.641025,4480.000000,4198.461538,4483.076923,4241.025641,4245.641025,4470.769230,4124.615384,4676.923076,3926.666667,3972.307693
82,4154.358974,4433.333333,4548.205128,4231.794871,4483.076923,4200.512820,4482.564102,4241.025641,4249.230769,4470.769230,4127.692307,4677.948717,3918.974359,3984.102565
83,4153.846153,4432.307692,4544.102564,4247.692307,4474.871794,4202.564102,4484.102564,4235.897435,4248.205128,4465.641025,4126.666666,4676.923076,3919.487180,3978.974359
84,4135.897435,4427.179487,4538.461538,4248.205128,4472.820512,4195.384615,4482.564102,4232.820512,4246.153846,4467.179487,4120.512820,4670.769230,3922.564103,3958.974359
85,4123.589743,4417.435897,4530.769230,4229.230769,4474.871794,4191.794871,4480.000000,4232.307692,4238.461538,4465.128205,4123.589743,4661.538461,3914.358975,3949.230770
86,4124.615384,4409.743589,4520.512820,4214.358974,4472.820512,4195.384615,4476.923076,4230.769230,4229.230769,4454.358974,4121.025641,4654.358974,3906.153847,3951.282052
87,4126.153846,4413.846153,4514.871794,4217.435897,4475.384615,4192.307692,4475.897435,4231.794871,4231.282051,4447.179487,4095.897435,4650.256410,3899.487180,3948.717949
88,4122.564102,4426.666666,4518.974358,4224.615384,4475.897435,4192.307692,4478.974358,4233.846153,4237.948717,4452.307692,4087.692307,4648.717948,3898.461539,3942.051283
89,4120.000000,4433.333333,4525.641025,4227.179487,4474.871794,4195.384615,4474.871794,4228.717948,4237.435897,4456.410256,4111.794871,4651.794871,3908.205129,3940.000000
90,4126.153846,4424.615384,4528.205128,4229.743589,4474.871794,4190.256410,4469.743589,4223.076923,4234.871794,4451.794871,4130.769230,4656.410256,3906.153847,3942.051283
91,4133.846153,4419.487179,4529.230769,4232.307692,4472.307692,4185.641025,4472.820512,4224.615384,4234.358974,4449.743589,4127.692307,4663.076923,3897.435898,3948.205129
92,4136.923076,4427.692307,4533.333333,4229.230769,4473.846153,4190.256410,4477.435897,4234.871794,4235.897435,4462.564102,4120.512820,4668.205128,3906.666667,3958.461539
93,4136.923076,4430.769230,4537.435897,4225.128205,4475.897435,4194.358974,4475.897435,4236.923076,4241.538461,4469.743589,4113.846153,4668.205128,3914.871795,3953.333334
94,4136.923076,4428.205128,4540.000000,4227.179487,4473.333333,4193.333333,4477.948717,4230.256410,4244.102564,4463.589743,4126.153846,4669.743589,3908.717949,3939.487180
95,4140.000000,4425.641025,4542.051282,4231.794871,4472.307692,4196.923076,4485.641025,4238.461538,4246.666666,4457.948717,4143.589743,4673.333333,3911.282052,3946.666667
96,4139.487179,4415.384615,4542.051282,4231.282051,4472.820512,4193.846153,4481.538461,4249.743589,4255.384615,4456.923076,4125.641025,4673.846153,3914.871795,3963.589744
97,4138.461538,4409.743589,4542.564102,4228.717948,4472.307692,4189.230769,4478.974358,4243.076923,4257.435897,4467.692307,4115.384615,4676.923076,3913.846154,3963.589744
98,4143.589743,4411.282051,4542.051282,4223.076923,4473.846153,4194.871794,4486.153846,4235.384615,4247.179487,4476.923076,4141.538461,4682.051282,3918.461539,3949.743590
99,4148.717948,4412.820512,4537.948717,4206.666666,4474.358974,4196.410256,4482.051282,4238.461538,4243.589743,4473.846153,4147.692307,4679.487179,3922.564103,3951.282052
100,4153.846153,4423.589743,4534.358974,4200.512820,4475.384615,4192.820512,4473.333333,4238.461538,4252.820512,4472.820512,4129.743589,4672.820512,3927.692308,3965.128206
101,4152.307692,4433.333333,4532.307692,4210.256410,4477.435897,4193.333333,4476.410256,4235.384615,4258.974358,4468.717948,4130.769230,4670.769230,3928.717949,3960.000000
102,4141.538461,4427.692307,4528.717948,4217.948717,4474.871794,4192.820512,4475.384615,4231.794871,4251.282051,4457.948717,4142.564102,4665.641025,3907.179488,3942.051283
103,4140.512820,4426.153846,4528.717948,4225.128205,4480.512820,4191.282051,4470.256410,4230.256410,4246.153846,4462.051282,4142.051282,4659.487179,3895.897436,3940.512821
104,4154.358974,4437.435897,4528.717948,4230.769230,4488.205128,4196.923076,4473.333333,4229.230769,4246.666666,4467.692307,4127.179487,4662.051282,3919.487180,3948.205129
105,4151.794871,4437.948717,4520.000000,4222.051282,4482.051282,4197.948717,4473.846153,4223.589743,4241.538461,4454.358974,4112.820512,4661.538461,3925.128206,3941.538462
106,4136.923076,4431.282051,4520.000000,4210.256410,4480.512820,4192.820512,4472.820512,4218.974358,4237.948717,4455.897435,4118.461538,4653.846153,3904.102565,3938.461539
107,4135.897435,4427.692307,4524.102564,4206.153846,4485.641025,4192.820512,4473.333333,4219.487179,4236.410256,4463.076923,4127.692307,4651.282051,3908.717949,3942.564103
108,4138.974358,4428.205128,4515.897435,4198.461538,4476.923076,4187.692307,4469.743589,4216.923076,4234.871794,4452.820512,4128.717948,4654.871794,3920.512821,3929.743590
109,4136.923076,4424.615384,4510.256410,4198.974358,4467.692307,4181.538461,4468.205128,4218.974358,4236.923076,4457.435897,4134.871794,4656.410256,3902.564103,3923.076924
110,4141.025641,4417.948717,4518.974358,4222.564102,4473.333333,4185.128205,4475.384615,4230.256410,4242.564102,4471.282051,4141.538461,4655.897435,3892.307693,3937.435898
111,4149.230769,4427.179487,4527.179487,4240.000000,4482.564102,4193.333333,4480.512820,4237.948717,4249.230769,4463.076923,4140.000000,4662.051282,3916.923077,3949.230770
112,4147.179487,4440.000000,4523.589743,4227.179487,4484.102564,4197.948717,4477.435897,4237.435897,4252.820512,4456.410256,4129.230769,4665.641025,3932.307693,3940.512821
113,4137.948717,4428.205128,4516.410256,4207.692307,4480.512820,4191.794871,4474.358974,4232.307692,4252.307692,4465.641025,4126.153846,4657.948717,3914.358975,3922.564103
114,4141.025641,4413.846153,4518.974358,4211.282051,4472.307692,4181.538461,4474.358974,4229.230769,4244.615384,4468.717948,4140.512820,4654.358974,3901.025642,3925.641026
115,4149.743589,4424.102564,4529.743589,4223.076923,4466.153846,4185.641025,4474.871794,4235.384615,4238.461538,4467.179487,4147.692307,4661.538461,3910.769231,3942.564103
116,4140.000000,4432.820512,4527.692307,4216.923076,4468.205128,4188.205128,4470.769230,4236.410256,4240.512820,4462.051282,4135.384615,4660.512820,3913.333334,3937.948718
117,4131.794871,4428.717948,4519.487179,4211.282051,4468.205128,4178.974358,4461.025641,4226.153846,4241.025641,4453.333333,4133.846153,4652.307692,3903.589744,3921.025642
118,4146.153846,4427.692307,4524.615384,4214.358974,4464.102564,4177.435897,4456.923076,4222.564102,4237.948717,4455.897435,4143.076923,4657.435897,3906.153847,3923.076924
119,4155.897435,4426.153846,4529.743589,4215.384615,4463.076923,4183.589743,4463.589743,4230.256410,4246.153846,4467.179487,4137.948717,4665.128205,3922.051283,3937.435898
120,4152.820512,4430.256410,4526.153846,4214.871794,4462.564102,4185.641025,4473.333333,4237.948717,4260.512820,4471.794871,4131.794871,4662.051282,3925.641026,3943.076924
121,4149.743589,4430.256410,4523.076923,4215.384615,4460.512820,4184.102564,4475.897435,4235.897435,4252.307692,4467.179487,4147.692307,4659.487179,3912.307693,3940.000000
122,4148.205128,4415.897435,4526.666666,4217.435897,4465.641025,4184.615384,4474.358974,4229.230769,4242.564102,4470.256410,4164.615384,4664.102564,3912.820513,3933.846154
123,4157.948717,4422.051282,4533.846153,4221.025641,4472.820512,4187.692307,4474.871794,4233.846153,4254.358974,4478.461538,4162.564102,4670.256410,3930.769231,3936.410257
124,4171.282051,4446.666666,4532.820512,4217.435897,4470.769230,4186.153846,4475.897435,4243.076923,4260.000000,4474.871794,4156.923076,4670.256410,3934.358975,3943.076924
125,4165.128205,4445.128205,4526.666666,4216.923076,4470.769230,4184.615384,4473.333333,4241.538461,4261.025641,4476.410256,4156.923076,4667.692307,3926.666667,3943.589744
126,4157.435897,4435.384615,4528.205128,4231.794871,4473.846153,4188.205128,4473.333333,4240.512820,4267.692307,4488.717948,4157.435897,4669.230769,3927.692308,3941.025642
127,4169.743589,4441.538461,4530.256410,4240.000000,4473.333333,4189.230769,4476.923076,4244.615384,4264.615384,4489.743589,4164.615384,4670.256410,3930.769231,3940.000000
128,4170.769230,4436.410256,4524.615384,4225.641025,4475.897435,4185.641025,4475.897435,4239.487179,4256.923076,4479.487179,4169.230769,4664.615384,3927.692308,3940.000000
129,4154.358974,4424.102564,4520.512820,4212.820512,4471.282051,4183.076923,4474.358974,4229.230769,4254.358974,4474.358974,4158.461538,4660.000000,3925.641026,3934.358975
130,4155.897435,4427.179487,4526.153846,4215.897435,4462.051282,4181.538461,4474.871794,4228.205128,4251.282051,4474.871794,4153.333333,4662.564102,3928.205129,3929.230770
131,4170.256410,4434.358974,4528.205128,4219.487179,4462.051282,4180.000000,4466.666666,4231.794871,4251.794871,4474.871794,4155.897435,4665.128205,3928.205129,3926.666667
132,4173.333333,4440.000000,4524.615384,4217.435897,4463.076923,4179.487179,4457.948717,4228.205128,4250.769230,4475.384615,4155.384615,4664.102564,3923.076924,3926.153847
133,4167.692307,4446.153846,4524.102564,4216.410256,4462.564102,4178.974358,4464.102564,4221.538461,4236.923076,4476.410256,4155.384615,4662.051282,3924.102565,3928.205129
134,4166.153846,4445.128205,4525.128205,4218.461538,4469.743589,4183.076923,4474.871794,4223.589743,4238.461538,4478.974358,4149.230769,4662.051282,3935.384616,3930.256411
135,4177.435897,4443.076923,4529.230769,4223.076923,4477.435897,4187.692307,4474.871794,4234.358974,4259.487179,4482.564102,4152.307692,4664.615384,3942.051283,3928.717949
136,4182.051282,4442.051282,4529.743589,4215.897435,4469.230769,4180.512820,4465.128205,4235.384615,4261.538461,4480.000000,4166.666666,4665.128205,3933.333334,3928.717949
137,4171.794871,4433.333333,4521.538461,4203.589743,4457.435897,4169.743589,4458.461538,4221.538461,4244.102564,4467.179487,4160.512820,4658.461538,3925.128206,3929.230770
138,4166.153846,4427.179487,4515.897435,4206.666666,4458.974358,4170.769230,4458.461538,4213.333333,4237.435897,4461.538461,4148.717948,4654.871794,3927.692308,3922.051283
139,4170.256410,4431.282051,4518.461538,4219.487179,4468.205128,4178.461538,4460.000000,4220.512820,4241.538461,4472.307692,4160.000000,4659.487179,3927.179488,3916.410257
140,4174.358974,4432.820512,4518.461538,4224.615384,4471.794871,4182.051282,4465.128205,4228.717948,4245.128205,4480.000000,4167.179487,4663.076923,3921.025642,3920.000000
141,4183.076923,4432.820512,4520.000000,4227.179487,4473.846153,4185.641025,4474.871794,4233.333333,4250.256410,4476.923076,4164.102564,4667.692307,3924.615385,3930.256411
142,4189.743589,4440.512820,4527.179487,4233.333333,4475.384615,4186.666666,4477.435897,4238.974358,4254.358974,4475.384615,4168.717948,4671.282051,3927.179488,3931.282052
143,4182.051282,4445.128205,4527.692307,4230.769230,4470.769230,4182.051282,4472.307692,4236.410256,4252.307692,4471.282051,4160.000000,4665.128205,3923.589744,3923.076924
144,4186.153846,4443.076923,4526.153846,4228.205128,4476.410256,4189.230769,4474.358974,4236.923076,4254.358974,4473.846153,4150.769230,4664.615384,3932.820513,3929.743590
145,4201.538461,4445.128205,4530.256410,4230.769230,4488.717948,4200.512820,4478.461538,4243.589743,4257.435897,4476.410256,4156.410256,4674.871794,3946.153847,3944.102565
146,4201.025641,4446.666666,4530.256410,4226.153846,4485.641025,4194.871794,4477.435897,4239.487179,4249.743589,4465.128205,4152.820512,4673.846153,3942.051283,3944.102565
147,4188.205128,4442.564102,4526.153846,4216.923076,4482.051282,4189.743589,4474.358974,4232.307692,4245.641025,4462.564102,4155.897435,4663.589743,3938.461539,3939.487180
148,4181.538461,4436.410256,4522.051282,4216.923076,4485.641025,4196.923076,4473.846153,4235.897435,4258.974358,4477.435897,4170.769230,4662.051282,3942.051283,3941.025642
149,4188.717948,4434.871794,4520.000000,4218.974358,4479.487179,4193.333333,4476.410256,4242.564102,4268.717948,4487.179487,4166.153846,4664.615384,3944.615385,3942.051283
150,4198.461538,4438.461538,4524.615384,4203.589743,4473.846153,4184.102564,4475.384615,4246.666666,4262.564102,4483.589743,4150.256410,4665.641025,3951.794872,3942.564103
151,4200.512820,4433.333333,4526.153846,4200.512820,4475.384615,4184.615384,4469.743589,4248.717948,4255.897435,4475.897435,4154.358974,4670.256410,3958.461539,3941.025642
152,4195.384615,4424.615384,4523.589743,4216.923076,4477.435897,4186.153846,4471.282051,4245.641025,4257.435897,4477.435897,4175.384615,4670.256410,3958.461539,3940.000000
153,4196.410256,4428.717948,4526.153846,4214.358974,4482.564102,4188.205128,4477.948717,4246.666666,4267.179487,4485.128205,4177.435897,4666.666666,3951.794872,3943.589744
154,4201.025641,4436.410256,4526.666666,4201.025641,4485.128205,4188.717948,4468.717948,4248.717948,4263.589743,4487.179487,4160.512820,4665.128205,3944.615385,3937.435898
155,4200.512820,4428.717948,4520.000000,4203.076923,4476.923076,4184.102564,4460.512820,4240.512820,4246.153846,4478.974358,4156.923076,4661.538461,3947.692308,3928.717949
156,4197.435897,4420.000000,4516.410256,4205.128205,4474.358974,4185.128205,4466.666666,4234.358974,4243.076923,4469.230769,4160.512820,4658.461538,3956.410257,3931.794872
157,4195.384615,4424.102564,4521.538461,4202.051282,4483.589743,4187.692307,4467.179487,4233.333333,4249.230769,4464.615384,4158.974358,4659.487179,3957.435898,3934.358975
158,4196.410256,4430.769230,4529.230769,4208.205128,4489.230769,4183.589743,4465.641025,4234.358974,4249.230769,4469.743589,4161.025641,4663.076923,3950.256411,3924.615385
159,4200.000000,4427.692307,4528.205128,4204.102564,4482.051282,4183.076923,4466.666666,4234.871794,4249.230769,4480.512820,4161.025641,4664.615384,3947.179488,3924.102565
160,4199.487179,4417.435897,4520.512820,4196.923076,4472.307692,4183.076923,4464.102564,4231.794871,4246.153846,4473.846153,4154.871794,4660.000000,3945.128206,3933.333334
161,4199.487179,4413.333333,4522.564102,4200.000000,4473.333333,4175.897435,4463.076923,4229.743589,4237.435897,4463.076923,4164.615384,4656.923076,3943.076924,3934.358975
162,4202.051282,4425.128205,4526.666666,4191.794871,4477.948717,4174.358974,4465.128205,4231.282051,4240.000000,4467.179487,4180.000000,4664.102564,3949.230770,3935.897436
163,4201.538461,4430.769230,4526.153846,4184.615384,4475.897435,4182.564102,4468.205128,4232.820512,4248.205128,4467.692307,4171.282051,4671.794871,3958.461539,3934.358975
164,4204.102564,4418.974358,4528.205128,4198.974358,4477.948717,4186.153846,4469.743589,4232.307692,4246.153846,4468.717948,4158.461538,4670.256410,3960.000000,3933.846154
165,4212.820512,4414.358974,4528.205128,4208.205128,4481.538461,4184.102564,4466.153846,4232.820512,4245.641025,4476.410256,4161.025641,4668.205128,3958.461539,3946.666667
166,4217.435897,4427.692307,4524.615384,4202.051282,4482.564102,4183.589743,4459.487179,4233.846153,4247.692307,4480.512820,4170.769230,4671.282051,3965.128206,3956.410257
167,4218.974358,4434.871794,4528.717948,4204.102564,4489.743589,4185.641025,4461.025641,4234.358974,4241.025641,4478.461538,4177.435897,4673.333333,3968.717949,3950.256411
168,4216.923076,4426.666666,4529.230769,4204.102564,4490.256410,4182.051282,4458.974358,4226.666666,4231.282051,4469.743589,4167.179487,4668.205128,3951.794872,3936.923077
169,4214.871794,4419.487179,4521.025641,4195.384615,4476.923076,4173.333333,4453.846153,4214.358974,4230.256410,4457.435897,4155.897435,4664.102564,3936.410257,3933.846154
170,4223.076923,4420.000000,4522.564102,4200.512820,4477.948717,4174.358974,4457.948717,4218.461538,4235.384615,4467.179487,4167.179487,4672.307692,3954.871795,3944.615385
171,4231.794871,4433.333333,4532.307692,4214.871794,4492.820512,4186.153846,4459.487179,4232.820512,4243.589743,4492.820512,4182.051282,4682.051282,3983.076924,3959.487180
172,4238.974358,4449.743589,4534.358974,4218.974358,4492.820512,4187.692307,4460.512820,4236.410256,4249.743589,4495.384615,4182.051282,4681.025641,3985.128206,3963.076924
173,4245.128205,4444.615384,4531.282051,4216.923076,4486.153846,4182.564102,4468.717948,4233.333333,4249.230769,4488.717948,4180.512820,4679.487179,3976.923077,3955.384616
174,4241.025641,4429.230769,4532.307692,4217.435897,4490.769230,4184.102564,4470.769230,4232.307692,4246.666666,4487.179487,4178.974358,4679.487179,3974.871795,3949.230770
175,4235.384615,4431.794871,4531.282051,4220.512820,4494.358974,4186.153846,4462.051282,4230.256410,4246.666666,4476.923076,4167.692307,4673.846153,3972.307693,3953.846154
176,4241.538461,4437.948717,4527.692307,4219.487179,4487.179487,4180.512820,4456.923076,4222.564102,4241.538461,4472.820512,4169.230769,4669.743589,3968.205129,3959.487180
177,4247.179487,4430.769230,4525.641025,4212.820512,4481.025641,4177.948717,4458.974358,4220.000000,4236.410256,4476.410256,4176.923076,4669.743589,3967.692308,3947.692308
178,4246.666666,4427.179487,4523.589743,4213.333333,4485.128205,4181.538461,4461.025641,4223.076923,4230.256410,4473.333333,4170.256410,4666.153846,3970.769231,3933.846154
179,4241.025641,4431.282051,4521.025641,4224.102564,4489.743589,4183.589743,4462.564102,4221.538461,4221.025641,4470.256410,4165.128205,4660.000000,3967.692308,3941.538462
180,4236.410256,4437.948717,4522.564102,4237.435897,4493.333333,4183.589743,4467.692307,4222.051282,4229.743589,4482.564102,4168.717948,4662.051282,3963.589744,3953.846154
181,4245.641025,4445.641025,4530.769230,4234.871794,4500.512820,4186.666666,4473.846153,4232.307692,4252.307692,4491.794871,4172.307692,4666.666666,3968.717949,3955.897436
182,4254.358974,4443.076923,4529.743589,4221.025641,4498.974358,4188.205128,4474.871794,4235.897435,4256.923076,4477.948717,4169.743589,4664.615384,3973.333334,3954.871795
183,4249.230769,4437.435897,4522.051282,4221.538461,4490.256410,4184.102564,4471.282051,4228.205128,4244.615384,4472.307692,4167.692307,4661.538461,3969.230770,3951.794872
184,4245.128205,4438.461538,4524.615384,4230.256410,4491.794871,4184.615384,4473.333333,4224.102564,4240.512820,4492.307692,4178.974358,4665.128205,3965.641026,3949.230770
185,4248.205128,4432.307692,4528.717948,4226.153846,4494.871794,4186.153846,4471.794871,4226.666666,4234.871794,4494.871794,4185.128205,4669.743589,3970.256411,3951.794872
186,4255.384615,4429.743589,4527.179487,4214.358974,4489.743589,4181.538461,4465.128205,4228.205128,4227.692307,4473.846153,4177.435897,4672.820512,3976.410257,3953.846154
187,4262.564102,4441.025641,4527.692307,4216.410256,4488.205128,4177.435897,4467.692307,4229.743589,4235.384615,4471.794871,4176.410256,4681.025641,3980.000000,3957.948718
188,4264.615384,4445.128205,4530.769230,4228.717948,4490.256410,4181.025641,4475.897435,4236.410256,4247.179487,4488.717948,4184.102564,4685.641025,3978.461539,3966.153847
189,4263.076923,4440.000000,4533.333333,4228.717948,4491.282051,4186.153846,4477.948717,4245.128205,4248.205128,4491.282051,4186.666666,4684.102564,3972.307693,3961.538462
190,4256.410256,4433.846153,4532.820512,4216.410256,4492.307692,4181.538461,4471.282051,4240.512820,4239.487179,4481.025641,4184.615384,4677.948717,3967.692308,3948.205129
191,4247.179487,4425.128205,4521.538461,4209.230769,4488.205128,4170.256410,4464.615384,4229.230769,4233.333333,4474.871794,4178.974358,4668.205128,3965.641026,3948.205129
192,4251.282051,4422.051282,4513.333333,4212.307692,4483.589743,4168.205128,4465.641025,4229.230769,4232.820512,4476.410256,4171.794871,4665.641025,3967.179488,3956.923077
193,4262.051282,4426.666666,4518.461538,4212.820512,4487.692307,4175.897435,4466.666666,4233.333333,4230.769230,4477.948717,4171.282051,4668.717948,3969.230770,3956.923077
194,4260.512820,4428.717948,4519.487179,4213.333333,4490.256410,4176.410256,4460.512820,4228.717948,4229.230769,4470.769230,4172.307692,4667.692307,3973.333334,3953.333334
195,4261.025641,4434.358974,4516.410256,4214.358974,4486.153846,4170.256410,4457.435897,4226.153846,4229.230769,4464.615384,4174.871794,4665.641025,3976.410257,3958.974359
196,4275.897435,4443.076923,4523.076923,4213.846153,4486.153846,4169.743589,4461.538461,4230.769230,4231.282051,4470.256410,4180.512820,4671.794871,3970.256411,3972.307693
197,4286.666666,4448.205128,4528.205128,4216.923076,4489.743589,4172.307692,4458.974358,4233.333333,4232.820512,4477.435897,4178.974358,4675.897435,3967.179488,3974.871795
198,4281.025641,4447.179487,4520.512820,4207.179487,4488.717948,4170.256410,4456.923076,4231.794871,4235.384615,4476.410256,4165.641025,4670.256410,3975.897436,3960.000000
199,4270.769230,4441.025641,4512.820512,4195.897435,4489.743589,4169.230769,4457.948717,4226.153846,4233.333333,4475.384615,4155.384615,4663.589743,3980.512821,3953.846154
200,4273.333333,4441.538461,4514.871794,4214.871794,4493.846153,4178.461538,4457.435897,4222.051282,4228.717948,4475.897435,4162.564102,4661.538461,3973.846154,3964.102565
201,4282.051282,4447.692307,4519.487179,4236.410256,4493.846153,4186.153846,4460.512820,4226.153846,4236.923076,4474.358974,4180.000000,4663.589743,3969.230770,3967.692308
202,4281.538461,4436.410256,4517.435897,4231.282051,4493.846153,4182.051282,4458.461538,4228.205128,4241.025641,4476.410256,4191.282051,4665.641025,3968.205129,3962.051283
203,4280.000000,4428.205128,4512.307692,4229.230769,4493.333333,4175.384615,4449.230769,4222.564102,4229.230769,4474.871794,4183.076923,4666.666666,3967.692308,3961.538462
204,4285.128205,4444.102564,4514.358974,4232.307692,4492.307692,4174.358974,4450.256410,4220.000000,4223.076923,4469.743589,4165.128205,4666.153846,3965.641026,3966.666667
205,4285.641025,4452.820512,4517.435897,4222.051282,4491.282051,4172.307692,4455.384615,4220.512820,4224.615384,4476.410256,4155.897435,4661.538461,3963.589744,3964.615385
206,4284.102564,4443.589743,4515.384615,4220.512820,4490.256410,4170.256410,4449.230769,4217.948717,4221.538461,4475.897435,4155.384615,4656.923076,3964.102565,3958.461539
207,4281.538461,4435.384615,4510.256410,4229.743589,4491.794871,4171.282051,4442.564102,4210.256410,4214.358974,4456.410256,4152.307692,4652.820512,3955.384616,3952.820513
208,4279.487179,4429.743589,4507.692307,4230.769230,4491.794871,4170.256410,4444.615384,4200.000000,4203.076923,4444.102564,4157.435897,4648.205128,3942.051283,3950.769231
209,4288.205128,4432.307692,4512.820512,4232.307692,4488.717948,4167.179487,4444.615384,4203.076923,4204.102564,4453.333333,4165.641025,4650.256410,3952.307693,3955.384616
210,4297.435897,4442.564102,4514.871794,4232.307692,4489.230769,4168.205128,4440.512820,4214.871794,4225.128205,4470.256410,4160.512820,4657.435897,3965.641026,3957.948718
211,4297.948717,4444.615384,4515.897435,4229.743589,4494.871794,4174.871794,4442.051282,4219.487179,4234.871794,4486.153846,4166.153846,4662.051282,3958.974359,3963.589744
212,4306.666666,4446.153846,4523.589743,4240.512820,4493.846153,4179.487179,4447.179487,4228.205128,4230.769230,4488.717948,4178.461538,4669.743589,3963.076924,3983.589744
213,4323.589743,4464.615384,4532.307692,4249.743589,4496.923076,4179.487179,4447.692307,4235.897435,4236.410256,4482.564102,4170.769230,4675.384615,3981.538462,3996.410257
214,4324.615384,4475.897435,4530.256410,4240.000000,4501.538461,4179.487179,4448.205128,4225.128205,4236.410256,4482.051282,4167.692307,4673.846153,3988.205129,3982.051283
215,4307.179487,4460.000000,4520.512820,4233.846153,4495.384615,4179.487179,4450.769230,4213.846153,4225.128205,4478.974358,4167.179487,4663.076923,3978.974359,3962.051283
216,4290.769230,4440.000000,4510.769230,4235.897435,4494.871794,4174.358974,4448.717948,4211.794871,4218.461538,4468.205128,4142.051282,4649.743589,3962.051283,3956.923077
217,4297.948717,4444.615384,4510.256410,4230.256410,4500.512820,4170.256410,4447.179487,4213.333333,4220.000000,4467.692307,4137.948717,4652.820512,3953.846154,3966.666667
218,4324.102564,4461.538461,4525.128205,4235.897435,4498.974358,4177.948717,4454.871794,4224.615384,4235.897435,4480.512820,4178.974358,4672.307692,3972.307693,3981.538462
219,4333.333333,4464.615384,4534.358974,4248.205128,4498.974358,4182.051282,4461.538461,4234.358974,4245.641025,4491.282051,4189.743589,4680.512820,3993.846154,3986.153847
220,4319.487179,4458.974358,4528.205128,4237.435897,4503.589743,4176.923076,4455.384615,4232.820512,4234.871794,4494.358974,4171.794871,4673.333333,3995.384616,3989.743590
221,4316.923076,4454.871794,4522.051282,4230.256410,4499.487179,4174.358974,4448.205128,4230.769230,4234.871794,4492.307692,4180.000000,4672.307692,3990.769231,3993.333334
222,4329.230769,4452.820512,4525.641025,4244.615384,4492.820512,4174.358974,4451.282051,4226.666666,4243.076923,4486.153846,4189.743589,4676.410256,3993.846154,3992.820513
223,4336.410256,4461.025641,4530.256410,4242.564102,4492.307692,4170.256410,4453.846153,4219.487179,4229.230769,4478.461538,4176.923076,4678.461538,3997.435898,3992.307693
224,4325.641025,4461.025641,4526.666666,4229.230769,4490.256410,4165.641025,4445.128205,4213.333333,4212.307692,4469.743589,4171.282051,4673.846153,3978.974359,3979.487180
225,4311.282051,4442.051282,4520.000000,4236.410256,4491.794871,4169.743589,4438.461538,4206.153846,4215.384615,4468.205128,4165.128205,4662.051282,3951.794872,3958.974359
226,4310.769230,4434.358974,4515.384615,4240.000000,4493.846153,4171.794871,4444.615384,4206.153846,4220.000000,4474.871794,4146.153846,4657.948717,3955.897436,3965.128206
227,4316.410256,4443.076923,4512.820512,4227.179487,4492.820512,4169.230769,4445.128205,4210.256410,4214.358974,4473.333333,4141.025641,4661.025641,3977.948718,3982.051283
228,4321.538461,4447.179487,4515.897435,4225.128205,4492.820512,4168.717948,4443.076923,4210.256410,4212.307692,4466.666666,4157.948717,4663.589743,3983.076924,3978.974359
229,4319.487179,4445.641025,4521.025641,4238.461538,4489.743589,4168.205128,4446.153846,4213.846153,4220.512820,4468.717948,4169.230769,4663.076923,3969.230770,3971.282052
230,4311.794871,4442.564102,4516.923076,4249.230769,4486.666666,4167.692307,4445.128205,4212.820512,4223.589743,4473.333333,4166.666666,4660.000000,3960.000000,3971.794872
231,4316.923076,4445.128205,4515.897435,4252.820512,4493.846153,4168.205128,4442.564102,4208.717948,4223.076923,4477.435897,4166.153846,4661.538461,3964.615385,3976.410257
232,4333.846153,4450.256410,4526.153846,4249.743589,4501.538461,4171.794871,4446.666666,4212.820512,4225.641025,4484.102564,4168.205128,4668.717948,3974.358975,3988.205129
233,4334.358974,4446.666666,4525.641025,4248.205128,4496.410256,4170.256410,4446.666666,4208.717948,4220.000000,4479.487179,4165.641025,4665.641025,3982.051283,3991.282052
234,4323.076923,4447.179487,4514.358974,4247.692307,4488.717948,4167.179487,4441.025641,4201.025641,4209.743589,4468.717948,4164.102564,4656.923076,3977.435898,3981.538462
235,4327.692307,4455.897435,4518.974358,4248.205128,4490.256410,4170.256410,4449.743589,4212.307692,4220.512820,4470.769230,4169.230769,4662.051282,3972.820513,3980.512821
236,4339.487179,4457.435897,4530.769230,4256.410256,4500.512820,4176.410256,4456.923076,4222.051282,4239.487179,4484.102564,4176.410256,4672.307692,3984.615385,3993.333334
237,4346.666666,4454.358974,4530.769230,4265.641025,4502.051282,4178.461538,4447.692307,4217.435897,4237.435897,4493.333333,4184.102564,4675.897435,3997.435898,4002.051282
238,4346.153846,4450.769230,4521.538461,4263.589743,4497.948717,4175.384615,4441.025641,4211.282051,4223.076923,4485.128205,4183.076923,4674.358974,3991.282052,3996.923077
239,4337.435897,4447.692307,4514.358974,4259.487179,4500.000000,4171.794871,4443.076923,4203.589743,4211.794871,4476.923076,4165.128205,4666.666666,3982.051283,3986.666667
240,4338.974358,4454.871794,4517.948717,4266.666666,4506.666666,4171.282051,4445.641025,4204.615384,4214.871794,4484.102564,4163.589743,4665.128205,3988.717949,3989.743590
241,4346.666666,4457.948717,4528.717948,4265.128205,4506.666666,4176.923076,4453.333333,4216.923076,4231.282051,4484.102564,4187.179487,4673.846153,3995.384616,4001.538461
242,4342.564102,4447.179487,4526.666666,4254.358974,4504.102564,4182.051282,4460.512820,4216.410256,4233.846153,4468.717948,4185.641025,4671.794871,3992.820513,4001.538461
243,4340.512820,4453.846153,4519.487179,4264.615384,4508.205128,4185.128205,4458.461538,4213.846153,4221.538461,4473.846153,4171.794871,4665.128205,3988.205129,3997.948718
244,4346.666666,4469.230769,4520.512820,4278.461538,4510.769230,4184.102564,4453.846153,4215.384615,4214.871794,4488.717948,4184.615384,4669.230769,3980.512821,3998.974359
245,4340.000000,4455.384615,4515.897435,4260.000000,4503.076923,4174.358974,4447.179487,4205.128205,4214.871794,4474.871794,4179.487179,4663.589743,3969.743590,3984.102565
246,4334.358974,4440.000000,4512.820512,4248.205128,4493.846153,4167.179487,4440.512820,4200.512820,4219.487179,4461.025641,4149.743589,4655.384615,3968.717949,3975.384616
247,4345.641025,4455.897435,4523.589743,4266.666666,4496.923076,4169.743589,4443.076923,4212.820512,4226.153846,4473.333333,4158.461538,4665.128205,3980.000000,3992.307693
248,4347.692307,4470.769230,4526.666666,4272.307692,4505.128205,4174.871794,4447.692307,4218.974358,4223.076923,4484.102564,4189.743589,4674.358974,3983.589744,4000.000000
249,4341.025641,4457.948717,4517.948717,4264.102564,4506.666666,4176.923076,4447.179487,4218.461538,4215.897435,4481.025641,4184.615384,4667.179487,3975.384616,3988.717949
250,4338.974358,4440.000000,4515.897435,4257.948717,4501.538461,4173.333333,4443.076923,4216.410256,4215.897435,4470.769230,4156.410256,4659.487179,3971.794872,3985.641026
251,4333.333333,4441.538461,4514.871794,4247.692307,4498.461538,4168.205128,4440.000000,4209.230769,4216.410256,4458.974358,4152.820512,4655.897435,3967.179488,3980.000000
252,4330.256410,4454.358974,4511.794871,4247.179487,4502.564102,4173.846153,4442.564102,4209.230769,4215.897435,4463.589743,4168.205128,4654.871794,3954.871795,3971.794872
253,4339.487179,4458.974358,4515.897435,4261.025641,4507.179487,4184.615384,4447.179487,4217.435897,4216.923076,4476.923076,4164.102564,4661.538461,3955.897436,3981.538462
254,4346.666666,4454.871794,4521.025641,4264.102564,4505.128205,4183.589743,4445.641025,4216.923076,4218.974358,4477.435897,4156.410256,4666.153846,3972.820513,3992.820513
255,4349.743589,4453.846153,4526.153846,4260.512820,4506.153846,4180.512820,4446.153846,4213.846153,4223.589743,4477.948717,4175.897435,4668.205128,3985.128206,4000.512820
256,4349.743589,4456.923076,4529.230769,4266.153846,4508.205128,4182.564102,4450.769230,4216.923076,4224.102564,4479.487179,4190.769230,4671.794871,3987.692308,4006.153846
257,4343.589743,4456.923076,4528.205128,4267.692307,4504.615384,4182.564102,4450.256410,4219.487179,4226.666666,4477.948717,4181.538461,4676.410256,3990.769231,3999.487180
258,4342.051282,4449.230769,4529.743589,4261.538461,4504.615384,4182.051282,4445.641025,4217.948717,4230.256410,4482.051282,4177.435897,4676.410256,3991.794872,3998.974359
259,4347.179487,4438.461538,4527.692307,4260.512820,4507.692307,4182.051282,4442.051282,4215.384615,4225.641025,4485.128205,4175.384615,4675.384615,3990.769231,4012.820512
