,AF3,F7,F3,FC5,T7,P7,O1,O2,P8,T8,FC6,F4,F8,AF4
0,3994.358975,4474.871794,4509.230769,4263.589743,4498.974358,4231.282051,4423.076923,4233.846153,4212.307692,4501.538461,4213.846153,4639.487179,3968.717949,4016.410256
1,3991.794872,4476.923076,4512.307692,4264.615384,4506.666666,4230.256410,4421.538461,4232.820512,4216.923076,4508.205128,4209.230769,4640.512820,3973.333334,4021.025641
2,3988.717949,4473.846153,4512.307692,4266.666666,4513.333333,4236.923076,4427.179487,4236.410256,4221.025641,4506.153846,4207.179487,4639.487179,3976.923077,4021.538461
3,3992.307693,4483.589743,4511.794871,4271.282051,4515.897435,4243.076923,4431.282051,4240.512820,4221.025641,4505.128205,4215.384615,4640.512820,3975.384616,4017.435897
4,3992.307693,4492.820512,4515.384615,4271.282051,4513.333333,4235.384615,4426.666666,4239.487179,4218.974358,4511.794871,4217.435897,4640.512820,3975.897436,4018.974358
5,3997.435898,4488.205128,4518.974358,4271.282051,4511.794871,4228.717948,4425.128205,4242.051282,4224.615384,4517.435897,4222.564102,4645.641025,3988.205129,4032.820512
6,4006.666666,4487.179487,4520.000000,4275.897435,4511.282051,4232.307692,4428.205128,4246.153846,4233.333333,4524.102564,4232.820512,4654.871794,4003.076923,4042.564102
7,4005.128205,4492.820512,4522.564102,4278.461538,4511.282051,4233.333333,4428.717948,4246.666666,4234.871794,4527.179487,4230.769230,4656.410256,4004.102564,4038.461538
8,3999.487180,4489.230769,4525.641025,4274.358974,4517.948717,4231.794871,4429.230769,4245.641025,4228.717948,4521.025641,4226.666666,4654.871794,3993.333334,4033.846153
9,3994.358975,4481.025641,4522.051282,4272.307692,4524.102564,4233.333333,4427.692307,4240.512820,4221.538461,4512.820512,4227.179487,4651.282051,3985.641026,4027.692307
10,3987.179488,4478.461538,4515.897435,4270.769230,4520.512820,4233.333333,4423.076923,4233.333333,4221.025641,4508.717948,4220.512820,4640.000000,3978.461539,4016.410256
11,3987.179488,4476.923076,4513.333333,4268.205128,4521.025641,4233.333333,4422.564102,4233.333333,4224.615384,4510.256410,4212.820512,4636.410256,3971.282052,4013.846153
12,3987.692308,4478.461538,4518.974358,4270.256410,4523.076923,4231.282051,4420.512820,4233.333333,4219.487179,4507.692307,4218.461538,4646.666666,3976.923077,4013.333333
13,3985.128206,4485.641025,4523.589743,4275.897435,4522.564102,4230.769230,4418.974358,4233.846153,4214.358974,4504.615384,4226.153846,4649.743589,3989.743590,4009.743589
14,3995.384616,4494.358974,4522.564102,4280.512820,4522.564102,4231.794871,4425.641025,4239.487179,4223.589743,4513.846153,4226.666666,4648.205128,3991.794872,4021.025641
15,4001.538461,4493.333333,4523.076923,4280.000000,4521.025641,4232.307692,4431.282051,4241.538461,4232.307692,4522.564102,4222.051282,4653.846153,3985.128206,4032.307692
16,3991.794872,4482.564102,4528.205128,4278.461538,4522.051282,4234.358974,4428.717948,4242.051282,4230.256410,4516.410256,4216.923076,4657.948717,3985.128206,4021.538461
17,3994.358975,4481.538461,4531.282051,4280.000000,4524.615384,4235.897435,4429.230769,4245.128205,4233.846153,4514.358974,4228.717948,4656.410256,3992.307693,4019.487179
18,4004.102564,4490.256410,4527.179487,4278.461538,4524.615384,4232.820512,4431.794871,4241.025641,4232.307692,4517.948717,4237.435897,4654.358974,3990.256411,4028.205128
19,3995.897436,4490.769230,4518.974358,4271.794871,4522.564102,4230.256410,4428.717948,4232.307692,4220.000000,4511.282051,4216.410256,4649.230769,3979.487180,4015.897435
20,3986.153847,4485.641025,4511.282051,4269.230769,4521.025641,4232.307692,4426.666666,4231.794871,4215.897435,4504.615384,4197.948717,4641.538461,3975.384616,4000.000000
21,3992.307693,4484.102564,4513.333333,4274.358974,4514.871794,4232.820512,4429.230769,4235.897435,4222.564102,4510.769230,4215.384615,4640.512820,3982.564103,4008.717948
22,3994.358975,4477.948717,4517.435897,4272.307692,4511.794871,4232.307692,4427.179487,4232.307692,4218.974358,4510.769230,4226.666666,4640.000000,3983.589744,4011.282051
23,3987.692308,4470.256410,4510.256410,4263.589743,4515.384615,4230.256410,4423.076923,4226.666666,4208.717948,4497.948717,4210.256410,4632.307692,3976.923077,3995.384616
24,3987.692308,4475.897435,4507.692307,4265.641025,4516.410256,4230.256410,4424.615384,4231.282051,4215.384615,4501.025641,4208.717948,4630.769230,3986.666667,4002.564102
25,3990.256411,4481.025641,4521.538461,4274.871794,4517.948717,4236.923076,4431.282051,4245.128205,4237.435897,4522.564102,4225.128205,4644.102564,4010.769230,4027.179487
26,3986.153847,4468.205128,4529.230769,4273.333333,4518.461538,4238.974358,4438.461538,4252.820512,4247.179487,4532.820512,4228.717948,4651.282051,4024.615384,4032.307692
27,3978.461539,4462.051282,4521.025641,4265.128205,4509.743589,4233.333333,4438.974358,4249.230769,4236.923076,4523.589743,4226.153846,4646.666666,4021.025641,4029.230769
28,3974.358975,4469.743589,4516.923076,4267.692307,4502.051282,4230.769230,4431.282051,4245.128205,4229.230769,4514.871794,4227.179487,4646.666666,4017.435897,4036.410256
29,3968.205129,4467.692307,4521.025641,4278.974358,4506.153846,4232.820512,4427.179487,4247.692307,4232.307692,4514.871794,4224.102564,4649.230769,4022.564102,4042.051282
30,3960.512821,4457.948717,4520.512820,4279.487179,4509.230769,4231.794871,4428.717948,4247.179487,4228.717948,4510.256410,4217.435897,4647.692307,4023.076923,4041.538461
31,3955.897436,4458.974358,4515.384615,4272.307692,4505.128205,4229.230769,4428.205128,4238.461538,4220.000000,4503.076923,4215.384615,4646.666666,4017.948717,4045.641025
32,3956.923077,4461.538461,4517.948717,4275.384615,4503.589743,4230.769230,4427.692307,4239.487179,4218.974358,4505.128205,4215.384615,4649.230769,4018.461538,4051.282051
33,3953.846154,4459.487179,4524.615384,4281.025641,4506.153846,4232.820512,4430.769230,4246.666666,4220.000000,4504.615384,4214.358974,4652.307692,4013.846153,4050.256410
34,3945.641026,4457.948717,4524.615384,4280.000000,4504.615384,4234.871794,4430.769230,4243.589743,4214.871794,4493.846153,4213.846153,4651.794871,4004.615384,4044.615384
35,3946.666667,4457.948717,4522.051282,4278.461538,4495.384615,4233.846153,4428.717948,4235.384615,4213.846153,4490.256410,4217.948717,4650.769230,4009.230769,4048.205128
36,3956.923077,4461.538461,4528.205128,4283.076923,4489.230769,4231.794871,4428.717948,4238.974358,4223.589743,4503.589743,4227.692307,4656.410256,4017.948717,4061.025641
37,3955.897436,4458.974358,4531.794871,4280.512820,4490.256410,4231.282051,4429.230769,4242.564102,4228.205128,4510.256410,4228.717948,4661.025641,4013.846153,4064.615384
38,3948.205129,4452.820512,4524.102564,4269.743589,4490.256410,4230.769230,4427.692307,4236.923076,4221.025641,4502.051282,4216.923076,4653.846153,4005.641025,4056.923076
39,3955.897436,4457.435897,4525.128205,4272.307692,4488.205128,4232.820512,4429.743589,4234.871794,4222.564102,4502.051282,4213.846153,4653.846153,4006.153846,4057.948717
40,3967.179488,4465.641025,4531.282051,4283.076923,4494.358974,4233.846153,4428.205128,4235.897435,4228.205128,4510.256410,4227.692307,4662.051282,4012.820512,4065.641025
41,3967.692308,4462.051282,4529.230769,4280.512820,4500.000000,4228.205128,4418.974358,4231.282051,4219.487179,4503.589743,4230.256410,4658.461538,4012.307692,4062.051282
42,3970.256411,4458.974358,4530.256410,4280.000000,4495.384615,4224.615384,4416.923076,4228.205128,4215.384615,4494.358974,4218.461538,4653.333333,4011.794871,4058.974358
43,3978.974359,4469.743589,4532.820512,4290.769230,4491.282051,4231.282051,4420.000000,4233.333333,4228.717948,4503.589743,4223.076923,4659.487179,4017.948717,4065.641025
44,3982.564103,4469.230769,4528.205128,4289.230769,4494.358974,4230.256410,4417.435897,4230.769230,4226.153846,4506.153846,4229.230769,4658.461538,4015.897435,4064.102564
45,3983.076924,4461.025641,4526.666666,4279.487179,4492.820512,4226.666666,4412.820512,4224.615384,4214.871794,4491.794871,4221.025641,4648.205128,4006.666666,4062.051282
46,3990.769231,4464.102564,4531.794871,4283.076923,4488.205128,4231.282051,4416.923076,4231.282051,4222.564102,4495.897435,4220.000000,4652.820512,4009.743589,4069.743589
47,3990.769231,4466.153846,4525.641025,4283.589743,4490.769230,4228.717948,4420.512820,4235.897435,4230.769230,4507.179487,4224.615384,4656.923076,4011.282051,4066.666666
48,3975.384616,4454.358974,4514.358974,4267.692307,4488.205128,4221.538461,4411.794871,4230.256410,4224.615384,4497.435897,4212.307692,4642.564102,3999.487180,4047.692307
49,3968.205129,4448.205128,4513.333333,4257.948717,4476.923076,4223.589743,4407.692307,4228.717948,4218.974358,4488.205128,4208.717948,4635.384615,3996.410257,4045.128205
50,3982.051283,4456.410256,4520.512820,4269.230769,4477.435897,4231.282051,4419.487179,4240.512820,4226.153846,4497.948717,4222.051282,4647.692307,4002.051282,4058.974358
51,3987.692308,4457.948717,4525.641025,4275.897435,4484.615384,4231.794871,4429.230769,4246.666666,4231.794871,4506.666666,4220.000000,4653.846153,3995.384616,4057.948717
52,3975.384616,4454.358974,4522.564102,4265.641025,4486.153846,4229.743589,4425.128205,4242.051282,4227.179487,4504.615384,4211.282051,4648.205128,3987.179488,4052.307692
53,3976.923077,4455.384615,4522.051282,4266.666666,4486.666666,4231.794871,4425.641025,4244.615384,4227.692307,4505.128205,4212.820512,4648.717948,3992.820513,4058.461538
54,3987.179488,4455.384615,4528.205128,4278.974358,4487.692307,4231.282051,4429.230769,4246.666666,4234.871794,4504.102564,4219.487179,4652.820512,3999.487180,4060.512820
55,3986.666667,4453.846153,4530.256410,4275.384615,4487.692307,4228.205128,4425.641025,4238.974358,4227.179487,4497.948717,4216.410256,4650.256410,3990.769231,4052.307692
56,3986.153847,4455.384615,4530.769230,4270.769230,4489.743589,4230.256410,4427.179487,4240.512820,4219.487179,4495.897435,4210.769230,4650.769230,3985.641026,4055.897435
57,3994.871795,4462.564102,4538.461538,4277.435897,4487.179487,4237.948717,4435.897435,4252.820512,4235.897435,4505.128205,4227.179487,4660.000000,3998.461539,4074.871794
58,3993.333334,4460.000000,4537.948717,4273.846153,4484.615384,4235.897435,4434.358974,4250.769230,4242.564102,4511.794871,4241.538461,4660.512820,4000.000000,4073.846153
59,3979.487180,4453.333333,4524.102564,4260.512820,4485.128205,4225.641025,4424.102564,4238.461538,4226.153846,4501.538461,4225.641025,4646.666666,3980.000000,4052.307692
60,3979.487180,4456.410256,4521.538461,4263.076923,4484.102564,4224.102564,4423.076923,4240.000000,4222.564102,4494.358974,4214.358974,4645.128205,3975.897436,4048.717948
61,3988.717949,4460.512820,4527.692307,4273.333333,4486.153846,4231.794871,4429.743589,4248.205128,4234.358974,4501.025641,4222.564102,4655.384615,3989.230770,4060.512820
62,3989.230770,4458.974358,4527.179487,4274.358974,4492.307692,4234.871794,4429.743589,4246.666666,4239.487179,4502.051282,4220.512820,4653.846153,3988.717949,4059.487179
63,3988.205129,4460.000000,4527.179487,4276.410256,4491.794871,4233.333333,4428.205128,4245.128205,4232.820512,4498.974358,4211.282051,4644.615384,3980.000000,4055.384615
64,3989.230770,4464.615384,4525.641025,4279.487179,4489.230769,4232.820512,4430.256410,4246.153846,4227.692307,4497.948717,4214.358974,4645.128205,3982.051283,4054.358974
65,3981.538462,4463.076923,4519.487179,4270.769230,4490.256410,4235.384615,4428.205128,4237.948717,4229.743589,4494.871794,4218.461538,4643.589743,3978.461539,4047.692307
66,3975.384616,4456.923076,4518.974358,4265.128205,4489.230769,4233.333333,4424.102564,4233.846153,4228.205128,4494.358974,4213.846153,4635.897435,3970.256411,4047.179487
67,3985.641026,4460.512820,4527.179487,4276.410256,4488.205128,4234.358974,4429.743589,4244.615384,4230.769230,4502.051282,4215.384615,4640.512820,3976.410257,4056.923076
68,3996.923077,4472.820512,4532.307692,4284.615384,4493.333333,4243.589743,4434.358974,4253.333333,4246.153846,4513.333333,4227.179487,4658.461538,3994.871795,4064.102564
69,3998.461539,4477.435897,4531.282051,4278.974358,4497.435897,4247.179487,4430.769230,4252.307692,4251.794871,4514.358974,4225.128205,4664.102564,4004.615384,4064.615384
70,3993.333334,4472.307692,4530.769230,4277.948717,4494.358974,4237.435897,4428.717948,4248.717948,4241.025641,4511.794871,4215.897435,4654.358974,3992.820513,4062.564102
71,3991.282052,4472.820512,4532.307692,4282.564102,4489.743589,4232.307692,4426.666666,4248.717948,4236.410256,4514.358974,4228.717948,4651.794871,3979.487180,4060.000000
72,3988.717949,4470.256410,4528.205128,4276.410256,4486.666666,4234.871794,4422.051282,4245.128205,4238.974358,4511.282051,4237.435897,4653.846153,3978.461539,4057.948717
73,3980.512821,4456.923076,4520.000000,4265.641025,4480.512820,4233.333333,4421.538461,4235.384615,4233.333333,4496.923076,4218.974358,4644.102564,3976.410257,4052.820512
74,3980.000000,4453.846153,4521.538461,4263.076923,4474.871794,4228.717948,4421.538461,4235.384615,4227.179487,4495.384615,4208.717948,4638.461538,3971.794872,4048.205128
75,3987.692308,4460.000000,4527.179487,4263.589743,4473.846153,4230.769230,4420.512820,4247.692307,4231.282051,4508.717948,4217.435897,4645.641025,3974.871795,4050.769230
76,3988.205129,4461.538461,4525.641025,4264.102564,4475.384615,4233.846153,4424.615384,4249.743589,4236.923076,4509.743589,4227.179487,4650.769230,3983.076924,4054.871794
77,3988.205129,4463.076923,4527.692307,4268.717948,4474.871794,4235.384615,4430.769230,4248.205128,4236.410256,4507.179487,4227.179487,4652.820512,3985.128206,4055.897435
78,3991.794872,4466.153846,4532.307692,4269.230769,4471.794871,4233.846153,4429.230769,4250.769230,4238.461538,4510.769230,4221.025641,4654.871794,3982.051283,4055.897435
79,3993.333334,4464.615384,4530.256410,4264.102564,4468.205128,4231.282051,4429.230769,4251.282051,4245.641025,4510.769230,4225.128205,4654.871794,3984.102565,4062.564102
80,3997.948718,4461.538461,4527.179487,4264.102564,4472.820512,4233.333333,4431.282051,4250.256410,4243.589743,4511.282051,4238.461538,4655.384615,3988.717949,4067.692307
81,3997.948718,4463.589743,4528.717948,4265.641025,4484.615384,4233.846153,4426.153846,4251.282051,4232.820512,4510.256410,4238.974358,4653.846153,3985.128206,4063.076923
82,3990.769231,4467.179487,4526.153846,4265.641025,4488.205128,4232.307692,4421.538461,4251.794871,4233.333333,4506.666666,4226.666666,4653.333333,3974.358975,4056.410256
83,3987.692308,4463.589743,4520.512820,4266.153846,4485.641025,4230.256410,4424.102564,4251.282051,4236.923076,4507.692307,4216.410256,4650.256410,3965.641026,4052.307692
84,3988.717949,4454.871794,4520.512820,4262.564102,4488.717948,4230.256410,4424.615384,4248.717948,4229.230769,4505.641025,4210.769230,4640.000000,3962.051283,4045.641025
85,3990.256411,4457.948717,4524.102564,4262.564102,4493.846153,4233.846153,4425.128205,4248.717948,4226.153846,4495.897435,4214.358974,4640.000000,3964.102565,4048.205128
86,3991.282052,4466.666666,4522.564102,4266.666666,4494.871794,4237.435897,4429.743589,4250.256410,4228.717948,4495.897435,4215.897435,4649.743589,3966.153847,4053.333333
87,3987.692308,4460.000000,4518.974358,4260.000000,4491.794871,4233.333333,4430.256410,4243.589743,4226.153846,4501.538461,4213.333333,4646.666666,3958.974359,4042.051282
88,3988.717949,4453.333333,4521.538461,4253.846153,4486.666666,4227.692307,4425.128205,4241.025641,4228.205128,4497.948717,4215.384615,4645.128205,3957.948718,4038.461538
89,3996.923077,4465.128205,4526.666666,4261.538461,4482.051282,4230.256410,4422.051282,4244.615384,4230.769230,4498.461538,4216.923076,4654.358974,3968.205129,4056.410256
90,3997.948718,4473.846153,4526.666666,4264.102564,4482.564102,4232.307692,4425.128205,4240.000000,4224.615384,4503.589743,4213.846153,4651.794871,3969.230770,4061.538461
91,3989.743590,4467.179487,4518.974358,4254.871794,4485.641025,4231.282051,4422.051282,4232.820512,4218.974358,4496.410256,4207.179487,4640.512820,3960.000000,4044.615384
92,3987.179488,4462.564102,4513.846153,4255.384615,4489.230769,4227.692307,4413.846153,4232.307692,4218.461538,4487.692307,4200.512820,4639.487179,3957.435898,4038.974358
93,3993.333334,4467.692307,4519.487179,4264.615384,4490.769230,4221.538461,4411.794871,4232.307692,4215.897435,4489.743589,4201.538461,4643.076923,3959.487180,4044.102564
94,3999.487180,4473.333333,4525.641025,4265.641025,4489.743589,4225.641025,4415.384615,4230.769230,4217.948717,4496.923076,4210.256410,4646.666666,3958.974359,4041.538461
95,4005.128205,4476.923076,4529.230769,4263.076923,4495.384615,4230.769230,4415.897435,4232.307692,4220.512820,4500.000000,4216.410256,4651.794871,3970.256411,4043.589743
96,4005.128205,4477.948717,4532.307692,4266.153846,4496.923076,4227.179487,4412.820512,4233.333333,4217.948717,4500.512820,4217.435897,4653.846153,3980.512821,4051.794871
97,4000.512820,4475.897435,4530.256410,4264.615384,4488.205128,4225.128205,4413.333333,4234.358974,4222.051282,4498.974358,4215.897435,4651.282051,3968.205129,4048.205128
98,3995.384616,4469.743589,4523.589743,4254.358974,4486.666666,4224.615384,4416.923076,4234.358974,4225.128205,4495.897435,4211.794871,4644.615384,3953.333334,4035.384615
99,3995.897436,4462.051282,4518.974358,4250.769230,4490.769230,4217.435897,4417.948717,4231.282051,4220.000000,4491.794871,4209.743589,4637.948717,3956.410257,4036.923076
100,4000.000000,4466.666666,4517.435897,4258.974358,4488.717948,4214.871794,4413.846153,4231.794871,4215.384615,4491.282051,4205.128205,4640.000000,3962.564103,4044.102564
101,3999.487180,4475.897435,4518.974358,4263.076923,4487.179487,4220.000000,4410.256410,4232.307692,4212.307692,4492.307692,4200.000000,4642.564102,3961.025642,4038.974358
102,3998.461539,4472.307692,4523.076923,4261.025641,4490.256410,4216.923076,4412.820512,4230.769230,4211.282051,4493.333333,4206.153846,4640.512820,3960.000000,4034.358974
103,4003.589743,4470.256410,4521.538461,4260.512820,4490.769230,4213.846153,4414.871794,4230.769230,4218.461538,4500.512820,4216.923076,4643.589743,3963.076924,4042.564102
104,4008.205128,4475.384615,4520.000000,4266.153846,4488.717948,4226.153846,4413.846153,4235.384615,4228.717948,4511.282051,4218.974358,4649.743589,3970.769231,4049.743589
105,4005.641025,4474.358974,4527.692307,4269.230769,4489.230769,4231.794871,4415.897435,4243.076923,4231.794871,4512.820512,4221.538461,4655.384615,3977.435898,4048.205128
106,4009.230769,4477.948717,4533.846153,4269.743589,4493.846153,4225.641025,4422.564102,4249.743589,4233.846153,4510.769230,4230.256410,4659.487179,3977.435898,4052.820512
107,4021.538461,4490.256410,4531.794871,4271.282051,4495.384615,4224.102564,4427.692307,4250.769230,4239.487179,4517.435897,4233.333333,4660.512820,3978.974359,4060.000000
108,4017.435897,4478.461538,4526.153846,4266.666666,4485.128205,4223.076923,4425.128205,4247.692307,4238.974358,4517.435897,4225.641025,4654.358974,3974.871795,4048.205128
109,4003.076923,4462.564102,4523.589743,4256.923076,4478.974358,4220.512820,4422.564102,4245.641025,4232.307692,4508.205128,4218.974358,4648.205128,3965.128206,4032.307692
110,4001.538461,4474.358974,4525.641025,4259.487179,4483.589743,4224.102564,4425.128205,4247.692307,4236.410256,4508.717948,4221.025641,4650.256410,3965.641026,4038.461538
111,4010.256410,4485.641025,4525.128205,4266.666666,4482.564102,4227.692307,4428.205128,4247.692307,4241.025641,4512.820512,4223.589743,4650.256410,3972.820513,4046.153846
112,4004.615384,4475.384615,4516.923076,4258.461538,4480.000000,4224.102564,4423.076923,4238.461538,4230.256410,4506.666666,4215.384615,4642.564102,3972.307693,4037.435897
113,3991.282052,4468.717948,4511.794871,4246.153846,4485.641025,4220.512820,4418.974358,4230.256410,4224.102564,4500.512820,4204.102564,4638.974358,3964.102565,4028.717948
114,3991.282052,4475.897435,4515.897435,4252.307692,4493.846153,4224.102564,4423.076923,4237.435897,4231.794871,4501.025641,4213.846153,4643.076923,3963.076924,4027.692307
115,4004.615384,4483.076923,4521.538461,4265.641025,4496.410256,4231.282051,4429.230769,4247.692307,4235.384615,4503.589743,4228.717948,4648.205128,3969.230770,4032.307692
116,4006.666666,4481.538461,4521.025641,4261.538461,4496.410256,4233.846153,4429.743589,4246.153846,4228.205128,4509.743589,4224.102564,4646.153846,3969.743590,4029.743589
117,3997.435898,4471.794871,4521.025641,4250.769230,4491.794871,4226.666666,4426.666666,4242.051282,4222.051282,4507.179487,4210.769230,4637.948717,3965.128206,4021.538461
118,3999.487180,4470.769230,4525.641025,4255.897435,4487.692307,4228.717948,4431.282051,4246.666666,4224.615384,4503.076923,4213.333333,4642.564102,3968.717949,4030.256410
119,4009.743589,4476.923076,4532.820512,4265.641025,4493.333333,4235.897435,4438.461538,4253.333333,4235.897435,4508.717948,4228.205128,4654.871794,3977.435898,4041.538461
120,4004.102564,4473.846153,4529.743589,4257.948717,4496.923076,4231.282051,4435.384615,4251.282051,4234.871794,4509.743589,4232.307692,4649.743589,3971.794872,4031.282051
121,3991.282052,4468.717948,4518.974358,4246.666666,4494.358974,4228.717948,4430.769230,4244.615384,4219.487179,4505.128205,4221.025641,4637.435897,3958.974359,4020.512820
122,3997.435898,4473.333333,4517.948717,4253.846153,4498.461538,4233.333333,4435.897435,4245.641025,4220.512820,4504.615384,4211.794871,4639.487179,3958.461539,4021.538461
123,4008.717948,4478.461538,4523.076923,4265.128205,4508.205128,4235.384615,4441.538461,4246.153846,4227.692307,4504.615384,4215.897435,4647.179487,3964.615385,4020.000000
124,4003.589743,4474.358974,4520.512820,4264.102564,4508.717948,4234.871794,4438.974358,4240.000000,4223.076923,4503.076923,4218.461538,4645.128205,3963.076924,4021.025641
125,4001.538461,4476.410256,4517.948717,4260.000000,4504.615384,4237.948717,4438.461538,4240.512820,4223.076923,4503.589743,4212.820512,4643.589743,3961.538462,4026.153846
126,4010.769230,4488.205128,4525.128205,4263.589743,4508.205128,4237.435897,4442.564102,4248.717948,4235.384615,4504.615384,4218.974358,4652.307692,3971.282052,4027.179487
127,4014.358974,4488.205128,4529.743589,4267.692307,4509.743589,4238.974358,4444.615384,4251.794871,4241.538461,4512.307692,4229.230769,4659.487179,3980.000000,4030.256410
128,4003.076923,4477.435897,4524.615384,4263.589743,4504.615384,4242.564102,4443.589743,4246.666666,4231.282051,4514.871794,4220.000000,4651.282051,3975.897436,4031.282051
129,3988.717949,4472.307692,4517.948717,4254.358974,4504.615384,4236.923076,4438.974358,4243.589743,4221.538461,4506.153846,4214.358974,4642.564102,3970.256411,4023.076923
130,3991.282052,4474.871794,4520.512820,4253.333333,4508.205128,4230.769230,4436.923076,4245.641025,4226.666666,4509.230769,4233.846153,4649.230769,3975.897436,4021.538461
131,4002.564102,4477.948717,4525.128205,4263.076923,4508.205128,4233.846153,4440.512820,4246.666666,4234.358974,4518.461538,4231.794871,4649.743589,3977.948718,4026.153846
132,3996.923077,4476.923076,4517.948717,4263.589743,4503.589743,4233.333333,4440.000000,4243.589743,4228.717948,4511.282051,4205.128205,4641.025641,3967.692308,4020.512820
133,3989.743590,4472.307692,4512.820512,4258.461538,4502.564102,4227.692307,4434.358974,4244.102564,4225.641025,4502.564102,4212.307692,4643.076923,3963.589744,4015.384615
134,4000.512820,4478.974358,4523.076923,4265.128205,4508.205128,4232.820512,4436.410256,4250.256410,4234.871794,4511.282051,4239.487179,4653.333333,3972.820513,4021.538461
135,4008.205128,4491.794871,4531.282051,4270.256410,4511.282051,4241.538461,4443.076923,4250.256410,4235.897435,4515.897435,4236.923076,4653.846153,3976.410257,4024.615384
136,4001.538461,4487.179487,4525.641025,4265.128205,4509.743589,4240.512820,4442.051282,4245.641025,4230.256410,4505.128205,4219.487179,4646.153846,3970.256411,4015.384615
137,3998.974359,4475.897435,4515.384615,4262.564102,4510.256410,4233.333333,4434.358974,4243.076923,4228.717948,4497.948717,4214.358974,4640.512820,3965.128206,4012.307692
138,4001.025641,4471.794871,4512.820512,4260.512820,4505.128205,4229.743589,4429.230769,4243.076923,4228.205128,4504.615384,4221.538461,4640.000000,3967.179488,4015.897435
139,4004.615384,4472.820512,4517.435897,4258.974358,4495.384615,4231.794871,4432.820512,4246.666666,4232.307692,4510.769230,4230.769230,4649.230769,3973.846154,4018.974358
140,4011.282051,4479.487179,4524.102564,4262.051282,4500.000000,4232.820512,4436.923076,4247.179487,4236.410256,4507.692307,4231.282051,4657.435897,3977.435898,4023.589743
141,4012.820512,4483.076923,4525.128205,4265.641025,4509.230769,4231.794871,4433.846153,4240.000000,4224.102564,4501.025641,4222.564102,4651.794871,3968.717949,4023.076923
142,4007.692307,4478.461538,4518.461538,4263.076923,4505.641025,4230.256410,4427.179487,4229.743589,4214.358974,4496.410256,4216.923076,4642.051282,3962.051283,4010.769230
143,4006.153846,4475.384615,4514.871794,4261.025641,4503.076923,4227.179487,4421.025641,4227.692307,4222.564102,4500.000000,4213.846153,4643.589743,3968.205129,4005.641025
144,4014.358974,4481.025641,4518.974358,4264.615384,4509.230769,4226.666666,4422.051282,4231.794871,4226.153846,4506.666666,4217.948717,4651.282051,3978.974359,4017.948717
145,4021.025641,4486.666666,4523.076923,4266.666666,4509.230769,4230.256410,4427.179487,4232.820512,4225.641025,4511.794871,4227.692307,4650.769230,3984.102565,4022.051282
146,4020.000000,4488.205128,4523.589743,4266.153846,4503.589743,4231.794871,4428.205128,4235.897435,4234.871794,4518.461538,4233.333333,4649.743589,3984.615385,4015.897435
147,4020.000000,4490.769230,4526.153846,4266.153846,4505.641025,4232.820512,4430.769230,4244.615384,4238.461538,4525.128205,4233.333333,4654.358974,3983.589744,4021.025641
148,4018.461538,4490.769230,4527.692307,4267.179487,4509.230769,4236.923076,4437.948717,4248.205128,4236.923076,4522.564102,4230.769230,4650.769230,3978.974359,4023.589743
149,4009.743589,4481.538461,4522.564102,4262.051282,4507.692307,4236.410256,4438.974358,4246.153846,4238.461538,4512.820512,4229.230769,4642.051282,3973.846154,4013.846153
150,4004.102564,4472.820512,4515.897435,4254.871794,4503.589743,4231.794871,4433.846153,4244.615384,4235.384615,4513.846153,4231.282051,4643.589743,3974.358975,4007.179487
151,4015.384615,4474.871794,4518.461538,4257.948717,4504.615384,4234.358974,4435.897435,4247.179487,4235.384615,4521.538461,4230.256410,4653.333333,3979.487180,4012.820512
152,4023.589743,4480.512820,4526.153846,4264.615384,4506.153846,4237.948717,4440.512820,4250.769230,4242.564102,4520.000000,4222.051282,4655.384615,3981.538462,4019.487179
153,4012.820512,4480.000000,4524.102564,4263.589743,4505.641025,4233.333333,4435.897435,4242.051282,4233.333333,4506.153846,4215.384615,4645.641025,3973.333334,4012.820512
154,4005.641025,4473.333333,4517.948717,4256.410256,4502.564102,4231.794871,4428.205128,4232.307692,4225.641025,4499.487179,4215.384615,4638.974358,3962.051283,4003.589743
155,4014.358974,4474.871794,4517.948717,4255.384615,4500.512820,4235.384615,4429.230769,4242.051282,4233.846153,4505.641025,4217.435897,4645.128205,3959.487180,4001.538461
156,4016.923076,4482.564102,4519.487179,4261.025641,4499.487179,4233.846153,4432.307692,4247.692307,4235.384615,4507.692307,4218.461538,4651.794871,3961.025642,4005.128205
157,4008.717948,4480.512820,4518.461538,4260.000000,4499.487179,4232.307692,4426.153846,4241.025641,4229.230769,4507.692307,4213.846153,4649.743589,3963.076924,4005.641025
158,4006.666666,4481.025641,4521.025641,4252.820512,4502.051282,4233.846153,4425.641025,4241.025641,4230.769230,4506.153846,4209.743589,4648.717948,3967.179488,4002.564102
159,4004.615384,4483.589743,4521.025641,4247.179487,4503.076923,4231.794871,4428.205128,4239.487179,4232.307692,4500.512820,4211.794871,4646.153846,3965.128206,4001.025641
160,3996.923077,4477.948717,4518.461538,4250.769230,4504.102564,4232.820512,4428.205128,4237.435897,4232.820512,4498.974358,4216.410256,4642.051282,3958.461539,4004.615384
161,4000.512820,4477.948717,4524.102564,4258.974358,4507.179487,4240.512820,4431.282051,4245.641025,4236.410256,4507.692307,4222.051282,4646.153846,3967.692308,4009.230769
162,4002.051282,4483.589743,4525.128205,4258.974358,4503.076923,4240.512820,4430.769230,4247.692307,4234.358974,4510.769230,4223.076923,4650.769230,3985.641026,4008.205128
163,3988.717949,4476.410256,4518.461538,4249.230769,4497.948717,4233.846153,4426.153846,4241.025641,4237.948717,4506.153846,4217.948717,4650.769230,3989.230770,4008.717948
164,3985.641026,4471.794871,4519.487179,4248.205128,4504.102564,4234.871794,4429.743589,4245.641025,4246.153846,4506.666666,4220.000000,4652.307692,3986.666667,4012.307692
165,3990.256411,4477.948717,4521.025641,4255.384615,4508.717948,4237.948717,4431.282051,4247.179487,4243.076923,4511.282051,4231.282051,4650.769230,3991.794872,4012.820512
166,3983.076924,4473.846153,4514.871794,4251.282051,4502.564102,4232.307692,4421.025641,4240.512820,4236.923076,4513.333333,4233.846153,4650.256410,4002.051282,4019.487179
167,3979.487180,4470.256410,4513.846153,4247.692307,4505.128205,4230.769230,4418.461538,4242.051282,4240.000000,4513.333333,4228.717948,4653.333333,4014.358974,4027.692307
168,3989.743590,4478.974358,4521.025641,4257.435897,4511.794871,4236.923076,4426.153846,4247.179487,4245.641025,4517.435897,4229.230769,4652.820512,4018.974358,4034.358974
169,3993.333334,4484.615384,4530.256410,4267.179487,4507.692307,4235.897435,4427.179487,4250.769230,4246.153846,4517.948717,4231.794871,4656.923076,4017.948717,4042.051282
170,3991.794872,4479.487179,4533.846153,4265.641025,4505.128205,4234.358974,4424.615384,4252.307692,4249.230769,4515.897435,4231.282051,4664.102564,4020.000000,4048.205128
171,3993.333334,4472.820512,4528.717948,4260.000000,4510.256410,4239.487179,4426.153846,4250.769230,4249.230769,4513.846153,4224.615384,4661.025641,4020.512820,4045.641025
172,3995.384616,4475.897435,4529.230769,4262.051282,4510.256410,4242.564102,4428.205128,4249.743589,4242.564102,4511.794871,4213.333333,4655.897435,4019.487179,4045.128205
173,4001.025641,4479.487179,4535.897435,4265.128205,4506.666666,4241.538461,4425.128205,4244.102564,4232.820512,4508.717948,4208.205128,4658.461538,4014.871794,4046.153846
174,4002.051282,4467.692307,4528.205128,4257.948717,4503.589743,4235.897435,4416.923076,4233.846153,4225.128205,4495.897435,4209.230769,4653.333333,4001.538461,4041.025641
175,3998.974359,4454.871794,4516.923076,4248.205128,4495.897435,4225.641025,4409.743589,4230.769230,4228.717948,4487.692307,4204.615384,4645.641025,3987.179488,4033.846153
176,4002.051282,4456.923076,4521.025641,4251.282051,4493.333333,4223.076923,4409.230769,4235.897435,4232.820512,4496.923076,4202.051282,4649.230769,3988.717949,4031.282051
177,4006.153846,4462.051282,4526.153846,4259.487179,4500.512820,4233.333333,4416.410256,4244.102564,4230.769230,4504.615384,4212.307692,4653.333333,3997.435898,4040.000000
178,4007.692307,4459.487179,4521.025641,4255.897435,4508.717948,4237.435897,4420.512820,4248.205128,4228.717948,4497.435897,4220.000000,4648.205128,3995.384616,4046.666666
179,4009.230769,4457.435897,4515.897435,4247.692307,4504.102564,4231.282051,4420.000000,4239.487179,4227.179487,4493.333333,4215.897435,4646.153846,3985.641026,4041.538461
180,4015.384615,4460.000000,4518.974358,4249.230769,4493.846153,4231.282051,4417.948717,4235.897435,4225.641025,4497.435897,4212.820512,4650.769230,3986.153847,4043.076923
181,4020.512820,4458.461538,4522.564102,4250.769230,4496.923076,4233.846153,4413.333333,4244.102564,4229.230769,4496.410256,4215.897435,4653.333333,3998.974359,4052.307692
182,4022.564102,4458.461538,4524.615384,4247.692307,4500.512820,4227.179487,4408.205128,4242.051282,4234.358974,4502.051282,4219.487179,4652.820512,4003.076923,4052.820512
183,4022.564102,4466.666666,4530.769230,4250.256410,4494.871794,4224.102564,4410.256410,4235.897435,4235.384615,4509.743589,4223.076923,4657.435897,4000.512820,4050.769230
184,4018.974358,4468.717948,4531.282051,4253.333333,4493.846153,4229.230769,4415.384615,4235.897435,4231.282051,4503.076923,4219.487179,4660.000000,3999.487180,4050.256410
185,4020.000000,4461.538461,4522.564102,4249.743589,4497.435897,4226.666666,4415.384615,4232.820512,4225.641025,4494.871794,4209.743589,4654.358974,3996.923077,4045.128205
186,4023.589743,4458.461538,4518.461538,4246.666666,4492.820512,4223.589743,4413.846153,4228.717948,4223.589743,4491.282051,4206.153846,4649.743589,3992.820513,4041.025641
187,4022.564102,4461.538461,4523.589743,4247.692307,4489.230769,4226.153846,4414.358974,4231.794871,4226.666666,4489.230769,4208.717948,4652.820512,3992.820513,4041.538461
188,4025.128205,4462.564102,4528.717948,4250.256410,4494.358974,4226.666666,4414.871794,4241.538461,4238.974358,4501.538461,4211.794871,4660.000000,4001.538461,4048.205128
189,4028.717948,4459.487179,4526.153846,4248.205128,4495.897435,4227.692307,4415.897435,4244.102564,4245.128205,4509.230769,4213.846153,4660.000000,4002.564102,4050.256410
190,4024.102564,4456.410256,4521.025641,4244.615384,4490.769230,4232.820512,4417.948717,4236.410256,4236.410256,4497.435897,4215.897435,4653.333333,3990.256411,4040.000000
191,4027.692307,4457.948717,4523.076923,4245.128205,4491.794871,4233.333333,4425.641025,4237.435897,4233.846153,4495.897435,4218.974358,4656.410256,3991.794872,4041.025641
192,4043.076923,4461.025641,4532.307692,4248.717948,4500.512820,4232.307692,4433.333333,4244.615384,4243.076923,4506.153846,4221.025641,4668.717948,4004.615384,4051.794871
193,4040.512820,4460.512820,4530.769230,4247.179487,4503.076923,4234.358974,4427.692307,4236.923076,4239.487179,4500.512820,4217.948717,4663.076923,3998.461539,4043.589743
194,4030.256410,4464.102564,4521.025641,4244.615384,4498.974358,4230.256410,4414.871794,4227.692307,4227.179487,4493.333333,4214.358974,4650.769230,3989.230770,4032.820512
195,4038.461538,4474.358974,4524.615384,4248.717948,4500.512820,4222.564102,4413.846153,4232.820512,4232.820512,4497.948717,4213.333333,4655.897435,4000.000000,4043.589743
196,4046.666666,4479.487179,4528.717948,4251.282051,4504.615384,4221.025641,4416.410256,4232.820512,4234.358974,4497.435897,4207.179487,4657.435897,4001.538461,4049.743589
197,4033.846153,4467.692307,4518.974358,4239.487179,4501.538461,4228.717948,4414.871794,4222.564102,4218.461538,4485.128205,4198.974358,4646.153846,3981.025642,4031.282051
198,4023.589743,4456.410256,4511.282051,4226.153846,4494.871794,4230.769230,4416.923076,4217.435897,4209.743589,4472.820512,4195.897435,4640.512820,3967.692308,4016.923076
199,4035.384615,4466.153846,4517.435897,4236.410256,4495.384615,4228.205128,4426.153846,4224.102564,4218.974358,4480.512820,4208.205128,4650.769230,3981.538462,4030.769230
200,4048.717948,4477.948717,4528.205128,4248.205128,4504.102564,4231.794871,4430.256410,4241.025641,4233.846153,4508.205128,4229.743589,4662.051282,4003.589743,4048.205128
201,4048.205128,4471.282051,4531.282051,4235.897435,4508.205128,4232.307692,4429.230769,4249.230769,4242.051282,4512.820512,4236.410256,4665.128205,4006.666666,4048.717948
202,4051.794871,4467.692307,4533.333333,4232.307692,4504.102564,4228.205128,4427.179487,4244.102564,4245.128205,4501.538461,4229.230769,4669.743589,4004.615384,4050.769230
203,4058.974358,4478.974358,4537.435897,4244.102564,4506.666666,4228.205128,4426.153846,4242.564102,4241.538461,4507.692307,4229.230769,4676.410256,4013.333333,4060.512820
204,4047.179487,4478.974358,4533.846153,4240.512820,4510.769230,4230.256410,4426.666666,4247.692307,4241.538461,4512.307692,4234.358974,4673.846153,4011.794871,4053.333333
205,4030.769230,4469.743589,4526.153846,4233.333333,4507.692307,4231.282051,4426.153846,4247.179487,4244.102564,4503.589743,4232.307692,4665.641025,3998.461539,4038.461538
206,4040.000000,4479.487179,4527.692307,4246.153846,4506.666666,4232.820512,4426.153846,4246.153846,4245.641025,4506.666666,4236.410256,4666.153846,4000.512820,4041.025641
207,4052.820512,4490.256410,4531.794871,4254.358974,4511.794871,4232.820512,4427.179487,4248.717948,4243.589743,4514.358974,4240.000000,4670.769230,4008.717948,4045.128205
208,4044.615384,4481.025641,4526.153846,4241.538461,4513.846153,4232.307692,4425.641025,4244.615384,4239.487179,4510.256410,4229.743589,4667.179487,4001.025641,4038.974358
209,4037.948717,4474.358974,4524.102564,4240.000000,4513.333333,4234.358974,4422.564102,4238.461538,4240.000000,4506.153846,4226.153846,4662.051282,3994.871795,4038.974358
210,4045.641025,4479.487179,4530.256410,4246.666666,4513.846153,4233.846153,4422.564102,4235.384615,4237.948717,4503.076923,4225.641025,4660.512820,3996.923077,4042.564102
211,4046.153846,4479.487179,4530.769230,4243.589743,4515.897435,4233.333333,4426.666666,4236.410256,4234.358974,4497.948717,4216.923076,4661.538461,3998.461539,4041.538461
212,4044.102564,4476.923076,4527.692307,4238.461538,4515.897435,4240.000000,4432.820512,4247.179487,4241.538461,4504.615384,4221.025641,4662.564102,4000.000000,4041.025641
213,4047.692307,4480.000000,4525.128205,4237.948717,4511.794871,4241.538461,4434.358974,4254.358974,4244.102564,4508.717948,4229.230769,4661.025641,3999.487180,4042.051282
214,4042.564102,4476.923076,4520.512820,4235.897435,4510.256410,4233.333333,4428.205128,4247.179487,4235.897435,4500.512820,4215.384615,4653.333333,3991.794872,4036.923076
215,4033.333333,4470.256410,4513.846153,4230.769230,4508.205128,4229.230769,4423.076923,4241.025641,4234.871794,4495.897435,4208.717948,4648.205128,3984.102565,4027.692307
216,4035.897435,4473.846153,4514.871794,4234.871794,4509.230769,4234.358974,4424.102564,4247.692307,4243.076923,4505.641025,4223.589743,4652.820512,3988.205129,4026.666666
217,4043.589743,4481.538461,4524.615384,4241.025641,4513.333333,4235.384615,4428.205128,4249.743589,4239.487179,4510.256410,4222.051282,4657.948717,3993.846154,4031.282051
218,4041.025641,4473.846153,4523.589743,4235.897435,4513.333333,4229.230769,4426.666666,4237.948717,4231.282051,4495.384615,4209.743589,4656.410256,3987.692308,4023.076923
219,4031.794871,4462.564102,4517.948717,4228.205128,4503.589743,4229.230769,4422.564102,4235.897435,4231.282051,4488.717948,4218.461538,4657.948717,3981.025642,4016.410256
220,4033.333333,4469.743589,4526.153846,4231.282051,4502.051282,4231.794871,4430.769230,4245.128205,4235.384615,4499.487179,4230.256410,4666.153846,3984.102565,4034.358974
221,4037.435897,4477.948717,4529.230769,4234.358974,4507.179487,4232.307692,4437.948717,4241.538461,4234.871794,4498.461538,4222.051282,4664.102564,3984.615385,4045.641025
222,4033.846153,4474.871794,4522.564102,4236.410256,4504.102564,4235.897435,4435.384615,4236.923076,4234.871794,4492.307692,4215.897435,4658.974358,3983.076924,4032.307692
223,4036.923076,4477.435897,4529.230769,4243.589743,4503.589743,4240.512820,4435.897435,4249.743589,4245.128205,4505.128205,4232.307692,4665.128205,3993.846154,4033.846153
224,4046.153846,4481.025641,4536.923076,4241.025641,4508.205128,4236.923076,4437.948717,4253.846153,4252.307692,4513.333333,4238.974358,4668.205128,3997.948718,4041.538461
225,4044.102564,4474.871794,4530.256410,4234.871794,4509.230769,4231.794871,4431.794871,4244.615384,4246.153846,4503.076923,4219.487179,4665.128205,3988.205129,4029.230769
226,4039.487179,4474.358974,4526.666666,4237.948717,4507.179487,4234.871794,4427.692307,4247.692307,4239.487179,4499.487179,4210.256410,4664.102564,3987.692308,4020.512820
227,4039.487179,4479.487179,4528.205128,4236.923076,4505.128205,4235.384615,4431.282051,4251.282051,4236.923076,4502.051282,4222.564102,4661.025641,3991.794872,4024.102564
228,4031.794871,4475.384615,4524.615384,4230.769230,4502.051282,4230.256410,4428.717948,4240.512820,4234.358974,4496.410256,4225.641025,4653.846153,3981.538462,4022.051282
229,4023.076923,4471.282051,4515.384615,4229.743589,4500.512820,4230.769230,4422.051282,4229.230769,4232.307692,4489.743589,4215.384615,4649.743589,3974.358975,4012.820512
230,4027.179487,4478.974358,4513.846153,4234.358974,4503.076923,4236.410256,4425.128205,4230.769230,4230.769230,4492.820512,4212.307692,4652.307692,3980.512821,4011.282051
231,4035.384615,4487.692307,4524.615384,4239.487179,4508.717948,4238.461538,4433.333333,4244.615384,4238.974358,4506.153846,4220.000000,4662.051282,3991.794872,4023.589743
232,4031.794871,4488.205128,4532.307692,4239.487179,4510.769230,4234.358974,4434.871794,4250.769230,4246.153846,4508.205128,4226.153846,4666.666666,3996.923077,4034.358974
233,4019.487179,4482.051282,4526.666666,4231.794871,4503.076923,4232.307692,4428.205128,4239.487179,4238.461538,4495.897435,4217.948717,4656.923076,3985.128206,4026.666666
234,4015.897435,4476.410256,4515.384615,4230.769230,4493.846153,4233.333333,4428.205128,4228.717948,4230.256410,4490.769230,4200.000000,4649.230769,3964.615385,4009.743589
235,4013.846153,4474.871794,4511.794871,4231.282051,4489.743589,4234.358974,4431.282051,4230.769230,4230.769230,4492.820512,4199.487179,4653.846153,3965.128206,4008.717948
236,4006.666666,4472.307692,4513.333333,4227.179487,4493.333333,4232.820512,4429.230769,4230.769230,4224.615384,4487.179487,4206.666666,4652.307692,3976.410257,4015.384615
237,4006.666666,4470.256410,4513.333333,4225.128205,4491.282051,4230.256410,4425.641025,4224.615384,4223.589743,4483.589743,4200.512820,4646.153846,3972.307693,4011.794871
238,4021.538461,4478.974358,4517.948717,4229.743589,4488.717948,4231.794871,4428.205128,4230.256410,4235.897435,4496.923076,4205.128205,4652.307692,3970.256411,4014.358974
239,4029.230769,4489.230769,4527.692307,4234.871794,4498.974358,4234.871794,4432.307692,4240.512820,4242.051282,4509.743589,4222.564102,4660.000000,3984.615385,4024.615384
240,4019.487179,4482.564102,4528.717948,4233.846153,4504.102564,4231.794871,4427.179487,4238.974358,4238.461538,4504.615384,4215.897435,4657.435897,3987.692308,4022.564102
241,4011.282051,4476.410256,4521.538461,4230.769230,4494.358974,4229.743589,4424.615384,4233.846153,4240.000000,4495.897435,4200.512820,4653.846153,3979.487180,4015.897435
242,4013.333333,4483.589743,4518.974358,4233.333333,4488.717948,4232.307692,4426.153846,4233.333333,4238.974358,4495.897435,4209.230769,4652.820512,3979.487180,4023.589743
243,4019.487179,4490.769230,4518.974358,4237.435897,4492.820512,4232.307692,4425.128205,4234.871794,4238.974358,4504.102564,4216.923076,4651.794871,3984.102565,4032.307692
244,4022.051282,4492.820512,4521.025641,4237.948717,4493.333333,4231.794871,4422.051282,4235.384615,4248.205128,4511.282051,4215.897435,4654.871794,3989.743590,4030.256410
245,4016.410256,4490.769230,4522.051282,4234.871794,4490.769230,4233.846153,4420.000000,4235.897435,4247.692307,4510.256410,4219.487179,4654.358974,3988.717949,4023.076923
246,4006.666666,4483.076923,4509.743589,4232.307692,4486.666666,4227.692307,4414.358974,4230.256410,4236.923076,4499.487179,4216.410256,4646.153846,3976.923077,4012.820512
247,4004.102564,4482.564102,4501.025641,4231.282051,4478.461538,4223.589743,4409.230769,4220.000000,4231.794871,4494.871794,4206.153846,4641.025641,3973.846154,4010.256410
248,4007.179487,4486.666666,4511.282051,4231.282051,4475.897435,4227.179487,4413.846153,4215.897435,4227.179487,4497.435897,4210.769230,4644.615384,3982.564103,4014.358974
249,4003.076923,4480.512820,4513.846153,4229.743589,4477.948717,4224.102564,4414.871794,4216.923076,4218.461538,4492.307692,4218.461538,4646.153846,3980.000000,4010.256410
250,3999.487180,4477.435897,4504.615384,4229.230769,4475.897435,4221.025641,4412.307692,4222.564102,4218.974358,4493.846153,4214.358974,4643.076923,3973.846154,4007.179487
251,4006.666666,4491.794871,4507.692307,4233.333333,4476.923076,4229.230769,4419.487179,4230.769230,4231.282051,4504.102564,4215.897435,4646.153846,3983.076924,4017.948717
252,4009.743589,4495.384615,4514.358974,4235.384615,4478.461538,4232.307692,4420.512820,4235.897435,4236.410256,4504.102564,4218.461538,4647.692307,3987.179488,4022.051282
253,4003.589743,4485.128205,4510.256410,4232.820512,4476.410256,4227.692307,4413.333333,4232.307692,4234.358974,4501.538461,4213.846153,4645.641025,3982.051283,4017.435897
254,4003.076923,4489.743589,4513.333333,4234.358974,4476.410256,4230.769230,4417.435897,4223.076923,4228.717948,4502.564102,4215.897435,4648.205128,3986.666667,4022.564102
255,4006.666666,4494.871794,4517.948717,4233.846153,4477.435897,4233.846153,4421.538461,4218.974358,4218.974358,4492.820512,4219.487179,4649.230769,3990.256411,4023.076923
256,4005.128205,4489.743589,4513.333333,4231.282051,4476.923076,4231.794871,4419.487179,4227.179487,4220.000000,4489.743589,4213.333333,4648.205128,3978.461539,4012.307692
257,4007.692307,4491.794871,4515.897435,4235.384615,4476.410256,4234.358974,4424.615384,4237.435897,4231.282051,4503.589743,4216.923076,4652.820512,3975.897436,4016.923076
258,4014.871794,4494.358974,4525.128205,4237.948717,4475.897435,4234.871794,4425.641025,4236.923076,4237.435897,4507.692307,4226.153846,4657.948717,3989.230770,4027.692307
259,4013.846153,4488.717948,4530.256410,4232.820512,4475.897435,4229.230769,4417.435897,4233.846153,4238.974358,4504.615384,4223.076923,4658.974358,3993.333334,4022.051282
