,AF3,F7,F3,FC5,T7,P7,O1,O2,P8,T8,FC6,F4,F8,AF4
0,4403.589743,4518.974358,4524.102564,4266.666666,4472.820512,4190.256410,4438.461538,4251.794871,4230.769230,4486.666666,4206.153846,4643.076923,3988.717949,4041.025641
1,4402.051282,4514.358974,4523.076923,4264.615384,4472.820512,4185.641025,4431.282051,4247.692307,4227.692307,4486.153846,4199.487179,4638.974358,3982.564103,4039.487179
2,4402.051282,4516.923076,4525.128205,4264.102564,4474.358974,4184.615384,4425.128205,4249.230769,4228.205128,4485.641025,4198.974358,4638.461538,3983.589744,4034.358974
3,4397.435897,4512.820512,4520.512820,4264.102564,4466.666666,4184.615384,4422.564102,4245.641025,4220.512820,4475.897435,4195.384615,4633.333333,3984.102565,4028.205128
4,4394.871794,4510.256410,4517.948717,4263.589743,4464.102564,4181.025641,4420.512820,4244.615384,4218.974358,4477.435897,4192.307692,4629.230769,3982.564103,4027.692307
5,4398.974358,4514.871794,4522.564102,4264.102564,4466.666666,4182.564102,4422.051282,4249.230769,4225.641025,4484.102564,4199.487179,4630.256410,3982.564103,4032.307692
6,4396.410256,4513.846153,4521.538461,4264.615384,4466.153846,4184.615384,4423.589743,4248.205128,4224.615384,4482.564102,4201.538461,4631.282051,3983.076924,4031.794871
7,4397.435897,4509.230769,4520.000000,4263.589743,4468.205128,4182.564102,4425.128205,4246.666666,4223.589743,4483.589743,4198.461538,4635.897435,3988.717949,4033.333333
8,4409.230769,4509.230769,4530.256410,4265.641025,4467.179487,4183.589743,4426.153846,4248.717948,4228.205128,4486.666666,4204.615384,4646.666666,3994.871795,4044.102564
9,4411.282051,4513.333333,4535.897435,4266.666666,4464.615384,4184.102564,4425.641025,4248.205128,4227.692307,4478.461538,4207.179487,4648.205128,3992.820513,4048.205128
10,4404.102564,4515.384615,4528.717948,4264.102564,4465.128205,4182.051282,4425.641025,4245.641025,4220.000000,4470.769230,4201.025641,4641.025641,3985.128206,4039.487179
11,4404.615384,4517.435897,4526.666666,4265.128205,4466.153846,4182.051282,4428.717948,4244.615384,4218.974358,4473.846153,4200.512820,4636.923076,3981.025642,4035.897435
12,4404.615384,4518.461538,4526.666666,4266.666666,4467.692307,4186.666666,4428.717948,4246.666666,4224.615384,4476.923076,4199.487179,4636.410256,3983.589744,4037.435897
13,4397.948717,4514.358974,4519.487179,4263.589743,4469.743589,4187.692307,4429.230769,4246.666666,4225.641025,4476.923076,4191.794871,4634.358974,3986.153847,4034.871794
14,4396.410256,4506.153846,4518.974358,4262.564102,4468.205128,4182.564102,4427.692307,4244.615384,4217.948717,4473.846153,4191.282051,4631.794871,3981.025642,4030.256410
15,4400.512820,4508.717948,4523.589743,4263.076923,4464.102564,4182.051282,4423.076923,4243.076923,4212.307692,4470.769230,4191.794871,4630.256410,3978.974359,4030.769230
16,4408.205128,4523.589743,4523.076923,4266.153846,4468.205128,4187.179487,4428.205128,4246.666666,4221.025641,4476.410256,4189.743589,4634.871794,3986.153847,4035.384615
17,4412.307692,4525.641025,4525.641025,4270.769230,4472.307692,4187.692307,4435.384615,4249.230769,4227.692307,4485.128205,4192.820512,4640.000000,3989.230770,4039.487179
18,4411.794871,4514.871794,4526.666666,4267.179487,4469.230769,4185.128205,4433.333333,4246.666666,4224.102564,4486.153846,4201.025641,4638.461538,3987.692308,4037.948717
19,4412.307692,4514.358974,4522.051282,4262.564102,4467.692307,4186.153846,4429.230769,4247.692307,4225.641025,4487.692307,4202.051282,4635.384615,3989.230770,4034.871794
20,4410.256410,4517.948717,4522.051282,4261.538461,4468.717948,4185.641025,4429.743589,4249.743589,4228.205128,4486.153846,4195.384615,4636.410256,3986.666667,4032.307692
21,4408.205128,4513.846153,4523.589743,4262.564102,4465.641025,4182.051282,4428.717948,4246.666666,4222.564102,4475.897435,4193.846153,4637.435897,3981.025642,4033.846153
22,4407.692307,4513.846153,4521.538461,4266.666666,4461.025641,4182.051282,4425.641025,4243.076923,4216.410256,4471.794871,4196.923076,4634.871794,3980.512821,4036.410256
23,4406.666666,4521.538461,4523.589743,4272.307692,4469.230769,4183.589743,4425.641025,4246.666666,4220.000000,4484.615384,4196.923076,4634.871794,3986.666667,4037.948717
24,4407.692307,4526.666666,4528.717948,4273.846153,4475.384615,4187.179487,4430.256410,4248.717948,4225.641025,4495.897435,4198.974358,4641.538461,3992.307693,4042.051282
25,4411.282051,4525.641025,4530.769230,4275.897435,4473.333333,4189.230769,4437.435897,4248.717948,4228.717948,4493.333333,4206.153846,4649.230769,3989.743590,4047.692307
26,4415.897435,4527.179487,4534.871794,4280.000000,4477.435897,4190.256410,4444.102564,4256.923076,4233.846153,4493.333333,4208.717948,4652.307692,3991.794872,4049.230769
27,4418.974358,4532.307692,4538.461538,4281.025641,4480.000000,4195.897435,4443.589743,4265.641025,4237.435897,4498.974358,4209.230769,4654.358974,4001.538461,4050.769230
28,4417.435897,4532.820512,4538.974358,4277.948717,4478.974358,4196.410256,4442.564102,4266.153846,4236.410256,4497.435897,4210.769230,4656.923076,4001.538461,4050.769230
29,4418.461538,4530.256410,4537.948717,4275.897435,4476.923076,4194.358974,4442.051282,4264.102564,4238.461538,4492.307692,4210.769230,4658.461538,3992.307693,4049.743589
30,4425.641025,4533.333333,4539.487179,4276.923076,4474.358974,4195.384615,4441.538461,4266.153846,4243.076923,4495.384615,4214.871794,4661.025641,3995.384616,4054.358974
31,4426.153846,4534.358974,4538.461538,4277.435897,4475.384615,4190.769230,4442.051282,4265.128205,4241.025641,4497.435897,4212.820512,4660.512820,4003.589743,4055.897435
32,4416.410256,4523.589743,4536.923076,4275.897435,4475.897435,4190.256410,4443.589743,4262.051282,4230.256410,4488.717948,4206.153846,4656.410256,4002.564102,4047.692307
33,4416.410256,4518.461538,4538.974358,4278.461538,4475.897435,4192.820512,4439.487179,4263.076923,4228.717948,4488.717948,4209.230769,4656.923076,3998.974359,4046.666666
34,4418.974358,4524.615384,4539.487179,4282.564102,4475.897435,4190.769230,4436.410256,4263.076923,4233.333333,4496.923076,4209.743589,4658.974358,3993.333334,4048.717948
35,4415.384615,4525.641025,4538.974358,4281.025641,4475.384615,4191.282051,4438.461538,4260.512820,4231.794871,4492.820512,4200.000000,4654.871794,3988.717949,4045.641025
36,4412.307692,4523.076923,4538.974358,4276.410256,4475.897435,4193.333333,4434.871794,4259.487179,4228.205128,4483.589743,4198.974358,4650.769230,3991.282052,4041.538461
37,4406.666666,4520.512820,4531.794871,4271.282051,4474.871794,4187.179487,4432.307692,4260.000000,4225.128205,4483.076923,4202.051282,4646.153846,3987.692308,4036.923076
38,4403.589743,4518.974358,4526.153846,4270.256410,4471.794871,4190.769230,4438.461538,4260.512820,4230.769230,4487.179487,4198.461538,4644.615384,3983.589744,4034.871794
39,4409.230769,4523.076923,4532.307692,4275.897435,4476.923076,4202.564102,4444.102564,4266.666666,4244.615384,4495.897435,4204.615384,4650.769230,3993.846154,4042.564102
40,4412.307692,4528.205128,4538.974358,4279.487179,4487.692307,4200.512820,4444.615384,4271.794871,4252.820512,4507.179487,4214.358974,4654.871794,4006.153846,4049.230769
41,4411.794871,4525.641025,4539.487179,4278.974358,4484.102564,4198.461538,4442.564102,4267.692307,4246.666666,4504.615384,4215.384615,4654.871794,4002.564102,4046.666666
42,4409.743589,4524.615384,4536.410256,4278.461538,4477.948717,4200.000000,4442.051282,4264.102564,4243.076923,4495.897435,4216.923076,4657.948717,3997.435898,4047.179487
43,4405.641025,4531.282051,4534.871794,4278.974358,4484.615384,4198.461538,4443.589743,4265.641025,4246.153846,4498.974358,4214.871794,4656.410256,3999.487180,4049.230769
44,4406.153846,4530.256410,4533.333333,4279.487179,4484.615384,4200.000000,4440.512820,4263.589743,4240.512820,4500.512820,4205.641025,4649.743589,4000.000000,4045.641025
45,4411.282051,4522.564102,4528.717948,4279.487179,4478.461538,4200.512820,4433.333333,4261.538461,4235.384615,4491.282051,4206.666666,4649.230769,3993.846154,4042.564102
46,4410.256410,4522.051282,4529.230769,4278.974358,4480.512820,4198.461538,4435.384615,4263.589743,4237.948717,4492.307692,4216.923076,4655.897435,3993.333334,4047.179487
47,4410.769230,4527.692307,4536.923076,4281.538461,4487.179487,4201.025641,4444.102564,4265.128205,4243.589743,4496.410256,4219.487179,4659.487179,4002.051282,4052.307692
48,4412.820512,4528.205128,4533.846153,4280.000000,4485.128205,4200.512820,4443.589743,4265.641025,4242.564102,4490.769230,4213.333333,4655.384615,4004.102564,4048.717948
49,4404.615384,4521.025641,4522.051282,4270.256410,4477.435897,4189.230769,4435.384615,4265.128205,4237.948717,4487.692307,4204.615384,4647.179487,3991.794872,4041.025641
50,4401.538461,4516.923076,4520.512820,4268.205128,4471.794871,4188.205128,4434.871794,4263.589743,4240.000000,4491.794871,4205.128205,4644.615384,3988.205129,4037.948717
51,4409.230769,4516.410256,4526.666666,4275.384615,4472.307692,4193.846153,4437.435897,4264.102564,4244.102564,4492.820512,4213.846153,4649.230769,3994.871795,4042.051282
52,4413.846153,4523.076923,4533.333333,4277.948717,4476.923076,4192.307692,4436.923076,4269.230769,4243.589743,4490.256410,4216.410256,4652.820512,3997.948718,4049.230769
53,4416.923076,4532.307692,4538.974358,4276.923076,4479.487179,4194.358974,4440.000000,4276.410256,4242.051282,4489.230769,4212.307692,4655.897435,4001.025641,4054.358974
54,4418.461538,4531.794871,4539.487179,4281.538461,4478.461538,4200.512820,4443.076923,4278.974358,4247.692307,4492.307692,4214.358974,4658.974358,4007.179487,4055.384615
55,4414.871794,4529.743589,4535.384615,4284.615384,4481.538461,4200.512820,4440.000000,4273.846153,4249.230769,4494.871794,4218.461538,4658.461538,4007.179487,4051.794871
56,4411.282051,4532.307692,4531.282051,4281.538461,4482.051282,4195.897435,4432.307692,4265.128205,4238.974358,4485.128205,4212.820512,4654.871794,3999.487180,4049.230769
57,4408.205128,4528.205128,4524.102564,4276.410256,4476.923076,4195.384615,4429.230769,4261.538461,4228.205128,4473.333333,4204.102564,4648.717948,3993.846154,4046.153846
58,4407.179487,4520.512820,4522.564102,4275.384615,4478.461538,4197.435897,4433.846153,4267.692307,4233.333333,4480.000000,4206.666666,4648.717948,3994.871795,4043.589743
59,4412.307692,4523.589743,4529.230769,4280.000000,4484.102564,4202.051282,4444.615384,4279.487179,4247.179487,4488.205128,4213.333333,4652.307692,3993.846154,4045.128205
60,4413.333333,4524.102564,4529.230769,4273.333333,4478.974358,4201.538461,4447.692307,4281.538461,4240.512820,4480.512820,4206.666666,4650.769230,3988.205129,4040.512820
61,4406.153846,4515.384615,4522.051282,4263.076923,4471.282051,4194.871794,4444.102564,4273.333333,4228.717948,4470.769230,4198.974358,4647.179487,3986.666667,4033.333333
62,4400.512820,4509.230769,4521.025641,4263.076923,4475.897435,4195.384615,4446.153846,4267.179487,4233.333333,4468.717948,4201.025641,4641.025641,3989.743590,4033.333333
63,4395.384615,4505.128205,4521.025641,4265.128205,4479.487179,4198.974358,4449.230769,4267.692307,4233.333333,4468.205128,4196.923076,4632.820512,3980.512821,4032.307692
64,4392.820512,4512.307692,4519.487179,4264.615384,4480.000000,4200.512820,4454.358974,4274.358974,4229.230769,4471.282051,4197.435897,4632.820512,3972.820513,4031.282051
65,4397.435897,4521.538461,4521.538461,4269.230769,4485.641025,4200.512820,4461.025641,4281.025641,4241.538461,4477.435897,4204.102564,4641.025641,3984.102565,4035.897435
66,4398.461538,4520.512820,4525.128205,4270.256410,4485.641025,4202.051282,4460.512820,4281.025641,4250.256410,4477.948717,4201.025641,4643.589743,3993.333334,4036.410256
67,4394.871794,4518.974358,4526.153846,4265.128205,4483.589743,4202.564102,4458.974358,4280.000000,4238.461538,4477.435897,4203.589743,4643.589743,3989.743590,4033.846153
68,4395.384615,4525.128205,4527.692307,4270.769230,4488.205128,4202.051282,4462.564102,4281.025641,4236.923076,4476.410256,4216.410256,4647.692307,3986.666667,4039.487179
69,4398.461538,4527.179487,4529.743589,4272.820512,4489.230769,4202.564102,4457.948717,4281.025641,4246.153846,4476.410256,4216.923076,4649.743589,3990.256411,4042.564102
70,4396.923076,4522.564102,4534.358974,4267.179487,4484.615384,4201.025641,4449.743589,4278.974358,4245.128205,4482.051282,4209.743589,4650.769230,3993.846154,4038.974358
71,4400.512820,4524.615384,4539.487179,4270.769230,4484.615384,4200.000000,4450.769230,4281.025641,4244.615384,4490.256410,4213.333333,4654.358974,3993.846154,4044.102564
72,4412.820512,4529.743589,4542.564102,4275.384615,4491.282051,4203.589743,4452.820512,4285.128205,4253.333333,4497.435897,4223.076923,4662.051282,3994.358975,4055.384615
73,4410.769230,4527.692307,4538.974358,4269.743589,4490.256410,4204.102564,4446.153846,4280.512820,4247.692307,4493.333333,4220.512820,4660.000000,3996.410257,4050.256410
74,4392.820512,4521.538461,4528.205128,4264.615384,4482.564102,4193.846153,4441.538461,4267.179487,4233.333333,4477.435897,4207.179487,4643.589743,3989.230770,4034.358974
75,4385.128205,4521.538461,4518.974358,4265.641025,4476.410256,4192.820512,4443.076923,4261.025641,4231.794871,4476.923076,4201.025641,4637.948717,3984.615385,4030.769230
76,4390.769230,4521.538461,4521.538461,4263.589743,4473.333333,4197.435897,4442.051282,4264.102564,4235.384615,4486.666666,4204.615384,4645.128205,3992.307693,4034.358974
77,4388.717948,4511.282051,4524.102564,4263.076923,4475.384615,4190.256410,4441.025641,4264.615384,4229.743589,4479.487179,4202.051282,4646.153846,3985.641026,4030.256410
78,4382.564102,4509.230769,4522.051282,4264.102564,4474.871794,4188.205128,4442.051282,4262.051282,4224.102564,4474.358974,4194.358974,4641.025641,3974.871795,4027.692307
79,4386.153846,4519.487179,4524.615384,4263.076923,4474.358974,4194.358974,4441.025641,4263.589743,4227.179487,4481.025641,4198.461538,4643.076923,3988.205129,4033.846153
80,4392.307692,4519.487179,4529.743589,4266.666666,4476.923076,4193.846153,4444.102564,4264.102564,4231.794871,4484.102564,4206.153846,4646.153846,3998.974359,4037.948717
81,4389.230769,4507.179487,4528.205128,4263.589743,4478.461538,4194.871794,4448.205128,4264.102564,4231.794871,4481.538461,4202.051282,4644.102564,3994.871795,4036.410256
82,4388.717948,4502.564102,4523.076923,4252.307692,4477.435897,4196.923076,4446.153846,4271.282051,4233.846153,4481.025641,4200.512820,4643.076923,4001.025641,4038.974358
83,4394.871794,4507.179487,4523.589743,4251.282051,4476.410256,4189.230769,4444.615384,4281.538461,4236.410256,4483.589743,4212.820512,4648.717948,4011.282051,4044.102564
84,4397.948717,4507.179487,4525.641025,4255.384615,4472.307692,4184.102564,4444.615384,4278.974358,4235.384615,4484.615384,4214.358974,4653.846153,4004.615384,4044.615384
85,4394.871794,4505.641025,4523.076923,4250.769230,4463.076923,4184.615384,4435.384615,4266.153846,4231.282051,4477.948717,4200.000000,4647.179487,3993.846154,4038.461538
86,4394.358974,4510.256410,4521.025641,4254.358974,4465.128205,4184.615384,4429.743589,4266.153846,4231.282051,4474.871794,4198.461538,4640.000000,3997.435898,4037.948717
87,4402.564102,4521.538461,4525.641025,4267.692307,4477.435897,4193.846153,4440.512820,4278.974358,4238.461538,4485.128205,4204.102564,4645.641025,4009.230769,4045.128205
88,4410.256410,4526.666666,4529.230769,4267.179487,4479.487179,4205.128205,4449.230769,4283.076923,4250.256410,4500.512820,4205.641025,4650.769230,4014.358974,4048.205128
89,4407.692307,4522.564102,4527.179487,4261.538461,4475.384615,4199.487179,4444.615384,4278.461538,4250.769230,4502.564102,4209.743589,4647.692307,4007.692307,4042.051282
90,4404.102564,4520.512820,4523.589743,4264.615384,4476.923076,4188.717948,4441.025641,4278.461538,4240.000000,4494.358974,4212.820512,4645.641025,4003.076923,4038.974358
91,4406.666666,4523.589743,4522.564102,4266.153846,4478.461538,4193.333333,4444.102564,4281.538461,4240.512820,4495.897435,4210.256410,4647.179487,4010.769230,4044.615384
92,4404.102564,4518.974358,4528.717948,4265.128205,4476.923076,4199.487179,4444.102564,4283.589743,4251.282051,4504.615384,4207.692307,4648.205128,4017.948717,4048.205128
93,4391.794871,4510.769230,4533.333333,4265.128205,4475.897435,4191.282051,4444.102564,4283.076923,4246.153846,4498.461538,4203.589743,4647.179487,4012.307692,4044.615384
94,4387.692307,4509.743589,4529.230769,4263.589743,4476.410256,4184.102564,4443.589743,4276.923076,4230.769230,4484.102564,4200.512820,4648.205128,4003.076923,4042.051282
95,4390.256410,4511.794871,4524.102564,4261.025641,4472.307692,4187.692307,4441.538461,4272.820512,4228.205128,4480.000000,4200.512820,4646.153846,3998.461539,4041.538461
96,4385.641025,4508.717948,4525.128205,4259.487179,4469.230769,4187.692307,4440.512820,4276.410256,4232.307692,4482.051282,4199.487179,4638.974358,3998.974359,4037.435897
97,4378.461538,4504.615384,4523.589743,4261.025641,4471.794871,4185.641025,4439.487179,4278.461538,4234.358974,4482.051282,4196.410256,4635.897435,3997.948718,4033.333333
98,4380.512820,4509.743589,4520.000000,4264.102564,4476.923076,4187.692307,4440.512820,4277.948717,4234.358974,4480.512820,4196.923076,4639.487179,3993.846154,4034.871794
99,4381.538461,4516.923076,4522.051282,4264.102564,4472.820512,4184.615384,4441.025641,4280.000000,4230.256410,4477.948717,4195.897435,4640.512820,3990.769231,4032.820512
100,4375.384615,4513.333333,4523.076923,4257.435897,4464.102564,4183.076923,4435.897435,4280.000000,4228.717948,4479.487179,4193.846153,4640.000000,3992.307693,4030.769230
101,4372.820512,4505.641025,4520.512820,4252.820512,4469.230769,4185.128205,4435.384615,4276.410256,4233.846153,4486.153846,4198.461538,4644.102564,3997.435898,4036.410256
102,4373.846153,4503.076923,4518.461538,4251.794871,4472.307692,4184.615384,4440.512820,4276.410256,4231.794871,4486.666666,4205.128205,4646.153846,3997.948718,4039.487179
103,4374.358974,4505.128205,4519.487179,4249.743589,4463.076923,4183.076923,4438.461538,4276.923076,4225.641025,4482.564102,4208.205128,4644.615384,3995.897436,4035.384615
104,4372.820512,4504.615384,4521.025641,4248.717948,4464.615384,4183.589743,4437.435897,4276.410256,4228.717948,4482.051282,4207.692307,4642.051282,3996.410257,4035.384615
105,4367.179487,4504.615384,4521.025641,4249.230769,4473.333333,4184.102564,4442.051282,4278.974358,4229.230769,4479.487179,4201.025641,4636.410256,3996.923077,4036.923076
106,4366.666666,4508.717948,4518.974358,4250.256410,4472.307692,4184.615384,4440.512820,4276.923076,4224.102564,4476.410256,4194.358974,4634.358974,3992.307693,4034.871794
107,4373.846153,4511.794871,4522.051282,4254.871794,4469.230769,4186.153846,4438.974358,4277.948717,4226.666666,4480.512820,4195.897435,4638.461538,3994.871795,4037.435897
108,4375.897435,4513.846153,4527.179487,4263.589743,4470.769230,4186.153846,4443.076923,4287.179487,4234.358974,4485.128205,4201.025641,4644.102564,4007.179487,4042.564102
109,4372.820512,4517.435897,4525.128205,4265.641025,4471.282051,4186.153846,4443.076923,4286.153846,4237.948717,4484.102564,4205.128205,4646.153846,4009.743589,4043.076923
110,4371.794871,4514.871794,4527.179487,4260.000000,4472.820512,4187.179487,4442.564102,4282.051282,4236.923076,4486.666666,4210.769230,4648.717948,4003.589743,4043.076923
111,4370.256410,4508.205128,4530.769230,4255.384615,4471.794871,4187.692307,4445.128205,4288.205128,4236.410256,4486.153846,4211.282051,4654.871794,4001.025641,4046.153846
112,4371.282051,4515.384615,4526.666666,4258.461538,4470.769230,4185.128205,4444.615384,4287.179487,4234.871794,4483.076923,4208.717948,4655.384615,4005.128205,4049.230769
113,4374.871794,4525.641025,4526.666666,4263.589743,4474.871794,4184.615384,4443.076923,4285.641025,4236.923076,4490.256410,4215.384615,4653.333333,4010.256410,4049.230769
114,4369.230769,4519.487179,4530.769230,4262.564102,4475.384615,4189.743589,4443.589743,4294.358974,4242.564102,4493.333333,4216.923076,4653.846153,4005.641025,4045.128205
115,4362.564102,4515.384615,4527.179487,4261.538461,4473.333333,4189.743589,4446.153846,4292.307692,4240.000000,4483.589743,4204.615384,4651.794871,3999.487180,4040.512820
116,4363.589743,4526.153846,4520.512820,4264.102564,4470.256410,4185.128205,4443.589743,4279.487179,4234.871794,4478.974358,4196.410256,4645.641025,3994.871795,4041.538461
117,4365.641025,4534.871794,4522.564102,4266.153846,4468.717948,4183.589743,4432.820512,4275.897435,4230.256410,4478.461538,4198.974358,4645.128205,3990.256411,4042.051282
118,4365.641025,4538.461538,4523.589743,4266.666666,4471.794871,4185.128205,4425.128205,4275.897435,4224.615384,4468.717948,4202.051282,4648.205128,3986.666667,4040.000000
119,4367.692307,4539.487179,4520.512820,4267.692307,4473.333333,4187.179487,4428.717948,4274.358974,4223.589743,4462.051282,4198.974358,4647.179487,3986.666667,4042.564102
120,4371.794871,4537.948717,4523.589743,4270.769230,4473.333333,4187.692307,4431.794871,4275.897435,4228.717948,4471.282051,4197.435897,4647.692307,3991.794872,4049.230769
121,4379.487179,4541.538461,4530.769230,4274.358974,4475.897435,4188.717948,4433.333333,4284.102564,4237.948717,4481.538461,4205.128205,4654.358974,3999.487180,4057.948717
122,4385.128205,4548.205128,4530.769230,4274.871794,4475.897435,4190.769230,4438.461538,4295.384615,4246.666666,4485.641025,4214.871794,4655.897435,3999.487180,4061.025641
123,4376.410256,4543.589743,4524.615384,4268.717948,4474.358974,4190.256410,4435.384615,4292.307692,4244.615384,4486.666666,4206.153846,4642.564102,3990.256411,4048.717948
124,4365.641025,4536.410256,4515.384615,4263.076923,4475.897435,4186.153846,4428.205128,4280.512820,4233.846153,4480.512820,4191.794871,4631.282051,3987.179488,4035.384615
125,4363.076923,4535.384615,4511.282051,4262.051282,4471.282051,4184.615384,4428.205128,4277.948717,4228.205128,4472.307692,4190.769230,4631.282051,3988.205129,4037.435897
126,4361.025641,4531.282051,4516.923076,4264.615384,4463.589743,4184.102564,4428.717948,4282.051282,4227.179487,4472.307692,4197.948717,4635.897435,3983.589744,4041.025641
127,4354.358974,4522.564102,4516.410256,4263.076923,4461.025641,4175.384615,4424.102564,4277.948717,4221.538461,4473.333333,4200.000000,4637.435897,3976.410257,4034.358974
128,4352.307692,4520.000000,4510.769230,4254.358974,4457.435897,4167.692307,4423.076923,4270.256410,4214.871794,4467.179487,4192.307692,4635.897435,3971.794872,4032.820512
129,4357.948717,4522.051282,4516.923076,4252.820512,4460.000000,4172.820512,4428.205128,4270.256410,4218.974358,4460.000000,4188.205128,4638.974358,3978.461539,4038.974358
130,4364.102564,4522.051282,4528.205128,4261.025641,4465.128205,4182.051282,4431.282051,4279.487179,4229.230769,4462.564102,4198.461538,4645.641025,3987.692308,4043.076923
131,4370.256410,4525.641025,4531.282051,4265.128205,4464.102564,4184.102564,4431.794871,4288.717948,4234.358974,4476.923076,4208.205128,4650.256410,3990.256411,4045.641025
132,4373.333333,4535.384615,4533.333333,4264.102564,4467.179487,4182.051282,4435.384615,4288.205128,4235.897435,4489.230769,4207.692307,4652.307692,3991.282052,4049.743589
133,4371.282051,4536.410256,4536.410256,4266.153846,4471.282051,4185.128205,4435.384615,4284.102564,4238.974358,4488.717948,4207.692307,4654.871794,3995.384616,4052.820512
134,4367.179487,4533.333333,4534.871794,4267.179487,4470.769230,4187.692307,4429.743589,4280.512820,4230.256410,4482.051282,4207.179487,4655.384615,3995.384616,4052.307692
135,4365.128205,4532.307692,4529.743589,4264.615384,4468.717948,4183.589743,4427.179487,4271.282051,4213.333333,4473.333333,4201.025641,4651.282051,3986.666667,4045.641025
136,4364.102564,4528.205128,4522.051282,4264.615384,4469.743589,4182.051282,4428.717948,4268.717948,4213.846153,4469.743589,4203.076923,4644.615384,3980.512821,4040.512820
137,4362.564102,4527.179487,4520.512820,4264.102564,4471.794871,4188.717948,4431.794871,4274.871794,4227.179487,4476.923076,4203.589743,4642.051282,3987.692308,4041.538461
138,4368.205128,4537.435897,4526.153846,4263.076923,4476.410256,4190.256410,4432.820512,4279.487179,4231.282051,4482.051282,4201.025641,4645.641025,3997.948718,4045.128205
139,4377.948717,4542.564102,4532.820512,4273.333333,4478.461538,4190.256410,4433.846153,4281.025641,4230.769230,4481.025641,4207.692307,4650.769230,4003.589743,4050.769230
140,4384.102564,4537.435897,4538.974358,4282.564102,4475.897435,4194.871794,4437.435897,4287.692307,4237.948717,4484.102564,4218.461538,4655.384615,4009.743589,4058.974358
141,4380.000000,4536.410256,4539.487179,4272.307692,4475.384615,4192.307692,4436.410256,4287.179487,4241.025641,4488.205128,4219.487179,4653.333333,4009.230769,4060.512820
142,4372.820512,4538.461538,4532.820512,4265.128205,4472.307692,4183.589743,4431.794871,4278.974358,4230.769230,4486.153846,4214.358974,4648.717948,4001.538461,4051.794871
143,4371.282051,4535.897435,4531.794871,4275.384615,4473.333333,4185.641025,4432.307692,4280.512820,4227.692307,4484.102564,4213.333333,4653.846153,3996.410257,4046.666666
144,4374.358974,4531.794871,4533.333333,4278.461538,4475.897435,4189.230769,4433.333333,4287.692307,4234.358974,4484.615384,4216.410256,4658.461538,3995.897436,4049.743589
145,4373.333333,4531.794871,4530.769230,4269.743589,4472.820512,4185.128205,4430.769230,4289.230769,4234.358974,4483.589743,4222.564102,4654.871794,3995.384616,4051.282051
146,4371.282051,4536.923076,4530.769230,4266.666666,4472.307692,4186.153846,4432.307692,4291.282051,4230.769230,4485.128205,4222.051282,4653.846153,3995.897436,4050.256410
147,4375.384615,4539.487179,4537.435897,4269.743589,4474.871794,4186.666666,4436.923076,4295.897435,4237.435897,4491.282051,4221.025641,4662.051282,4000.512820,4051.794871
148,4381.025641,4536.923076,4541.025641,4269.230769,4471.282051,4183.589743,4439.487179,4298.974358,4245.641025,4494.871794,4228.205128,4669.743589,4008.717948,4057.435897
149,4383.076923,4531.282051,4538.461538,4268.205128,4467.692307,4184.615384,4437.435897,4297.435897,4239.487179,4486.153846,4228.717948,4669.743589,4012.307692,4058.461538
150,4379.487179,4522.564102,4537.948717,4267.179487,4469.743589,4186.153846,4434.358974,4293.333333,4229.230769,4478.461538,4224.102564,4663.076923,4005.128205,4051.282051
151,4375.384615,4520.512820,4537.948717,4266.153846,4474.358974,4184.102564,4440.512820,4288.717948,4230.256410,4488.205128,4225.128205,4660.512820,3999.487180,4048.205128
152,4376.923076,4528.717948,4537.948717,4269.230769,4476.410256,4189.230769,4445.641025,4291.282051,4238.974358,4494.358974,4230.769230,4663.589743,4003.589743,4054.358974
153,4380.512820,4534.871794,4538.461538,4273.846153,4475.897435,4195.384615,4440.512820,4294.358974,4242.051282,4488.717948,4229.230769,4662.564102,4005.641025,4057.435897
154,4381.025641,4537.435897,4538.461538,4274.871794,4476.410256,4195.897435,4442.564102,4286.666666,4238.461538,4491.282051,4224.102564,4654.871794,3999.487180,4054.871794
155,4380.512820,4540.512820,4536.410256,4273.846153,4480.512820,4197.948717,4445.128205,4278.461538,4231.794871,4492.307692,4221.538461,4649.230769,3989.743590,4049.743589
156,4378.974358,4534.358974,4532.820512,4272.307692,4478.974358,4195.384615,4436.410256,4279.487179,4223.589743,4480.000000,4220.512820,4652.820512,3981.538462,4044.615384
157,4378.461538,4527.692307,4535.384615,4267.692307,4476.923076,4191.282051,4434.358974,4280.512820,4222.051282,4473.333333,4215.897435,4656.923076,3982.564103,4042.051282
158,4381.025641,4529.743589,4540.000000,4265.641025,4479.487179,4195.897435,4441.025641,4279.487179,4227.692307,4482.051282,4212.307692,4654.358974,3985.128206,4042.564102
159,4383.076923,4530.256410,4538.974358,4268.205128,4480.512820,4201.538461,4444.102564,4283.589743,4234.358974,4492.820512,4218.974358,4651.794871,3979.487180,4045.128205
160,4384.615384,4528.717948,4538.461538,4267.692307,4485.128205,4200.512820,4442.564102,4292.307692,4235.384615,4490.769230,4221.538461,4654.871794,3981.025642,4046.666666
161,4387.692307,4531.794871,4540.000000,4263.589743,4485.641025,4196.410256,4442.564102,4295.384615,4233.846153,4483.589743,4213.846153,4657.435897,3991.794872,4045.641025
162,4389.743589,4536.923076,4539.487179,4263.589743,4480.512820,4196.923076,4443.076923,4294.871794,4242.051282,4492.307692,4220.512820,4657.948717,3992.820513,4045.128205
163,4386.153846,4535.897435,4540.512820,4265.641025,4482.564102,4200.512820,4444.102564,4294.871794,4247.179487,4504.102564,4231.794871,4656.410256,3986.666667,4049.230769
164,4378.461538,4529.230769,4537.948717,4260.512820,4483.076923,4195.897435,4437.948717,4287.179487,4230.256410,4489.230769,4219.487179,4649.230769,3977.948718,4042.051282
165,4369.230769,4520.000000,4524.102564,4249.230769,4477.948717,4187.692307,4430.769230,4274.871794,4215.384615,4470.256410,4201.025641,4638.974358,3962.051283,4023.589743
166,4370.769230,4516.410256,4518.974358,4248.205128,4477.948717,4194.358974,4430.256410,4275.384615,4223.589743,4479.487179,4207.692307,4640.000000,3965.641026,4022.051282
167,4385.641025,4525.128205,4531.282051,4260.512820,4484.102564,4203.076923,4432.820512,4286.666666,4236.923076,4499.487179,4227.692307,4653.333333,3995.897436,4042.051282
168,4397.435897,4536.410256,4536.923076,4266.666666,4487.179487,4200.000000,4437.435897,4293.846153,4243.076923,4506.153846,4238.974358,4661.025641,4011.794871,4054.358974
169,4397.948717,4534.871794,4533.846153,4260.000000,4488.717948,4199.487179,4442.051282,4296.410256,4247.179487,4506.153846,4238.461538,4659.487179,4006.666666,4049.230769
170,4394.871794,4523.589743,4532.307692,4255.897435,4488.205128,4202.564102,4442.051282,4292.307692,4247.179487,4506.153846,4232.820512,4658.461538,4006.153846,4047.179487
171,4395.384615,4524.102564,4533.333333,4259.487179,4484.102564,4198.461538,4437.948717,4285.641025,4241.538461,4503.076923,4232.820512,4659.487179,4004.102564,4050.256410
172,4398.461538,4528.205128,4537.435897,4265.128205,4481.538461,4193.333333,4434.358974,4281.025641,4234.358974,4495.897435,4237.435897,4661.538461,3998.461539,4049.743589
173,4395.384615,4521.538461,4536.923076,4262.564102,4480.000000,4192.307692,4430.256410,4272.307692,4231.282051,4487.692307,4235.384615,4661.538461,4001.538461,4046.666666
174,4389.743589,4518.974358,4528.205128,4253.333333,4478.461538,4190.769230,4426.666666,4264.615384,4229.743589,4489.743589,4229.230769,4656.410256,4001.025641,4044.102564
175,4391.794871,4523.589743,4523.076923,4251.794871,4476.923076,4187.692307,4429.230769,4265.641025,4227.692307,4493.333333,4226.666666,4650.769230,3991.794872,4042.564102
176,4394.871794,4523.076923,4524.102564,4257.948717,4473.846153,4184.615384,4425.641025,4266.153846,4225.641025,4485.128205,4228.205128,4648.717948,3990.256411,4041.538461
177,4389.743589,4520.000000,4526.666666,4261.025641,4468.717948,4183.076923,4415.384615,4263.076923,4221.025641,4477.435897,4229.743589,4648.205128,3993.846154,4041.538461
178,4394.358974,4525.641025,4534.358974,4260.000000,4467.179487,4184.102564,4416.410256,4268.717948,4222.564102,4484.615384,4228.717948,4653.333333,3996.923077,4044.615384
179,4407.692307,4530.256410,4541.025641,4264.615384,4474.871794,4186.153846,4428.717948,4275.897435,4229.743589,4494.871794,4231.282051,4660.512820,4001.538461,4051.282051
180,4408.717948,4529.743589,4538.461538,4268.717948,4478.461538,4189.230769,4431.794871,4269.230769,4230.769230,4492.820512,4235.384615,4658.974358,4002.051282,4053.333333
181,4405.641025,4530.256410,4536.410256,4265.128205,4475.897435,4191.794871,4425.641025,4262.051282,4225.128205,4487.179487,4231.794871,4654.871794,3998.974359,4049.230769
182,4405.641025,4529.230769,4538.974358,4263.589743,4476.923076,4191.282051,4429.230769,4265.641025,4226.153846,4488.205128,4230.256410,4657.435897,3998.461539,4045.128205
183,4404.102564,4524.102564,4535.897435,4265.641025,4478.974358,4194.871794,4436.923076,4270.769230,4229.230769,4492.820512,4233.846153,4658.461538,3996.923077,4045.128205
184,4404.102564,4522.564102,4533.333333,4265.641025,4477.948717,4197.948717,4436.923076,4271.794871,4229.743589,4490.256410,4227.692307,4651.794871,3991.794872,4044.615384
185,4401.538461,4524.615384,4531.794871,4260.000000,4475.897435,4191.282051,4432.307692,4276.410256,4230.769230,4484.102564,4220.512820,4646.666666,3991.794872,4040.512820
186,4395.384615,4520.512820,4526.153846,4256.410256,4472.820512,4185.128205,4428.205128,4279.487179,4228.717948,4485.128205,4227.692307,4646.153846,3992.307693,4037.948717
187,4400.000000,4517.948717,4524.615384,4260.000000,4473.333333,4191.794871,4428.205128,4278.461538,4227.692307,4489.743589,4234.871794,4647.692307,3991.282052,4043.076923
188,4411.282051,4526.666666,4534.871794,4263.589743,4482.564102,4200.000000,4435.897435,4284.102564,4233.846153,4495.897435,4238.461538,4655.897435,4000.512820,4051.794871
189,4412.820512,4531.282051,4541.025641,4263.076923,4487.179487,4200.512820,4444.615384,4292.820512,4237.435897,4502.564102,4244.615384,4662.564102,4014.358974,4055.897435
190,4417.948717,4528.717948,4539.487179,4265.128205,4483.076923,4201.025641,4445.128205,4294.358974,4237.435897,4502.564102,4248.205128,4663.589743,4014.358974,4058.461538
191,4427.692307,4529.743589,4542.051282,4270.256410,4482.564102,4202.051282,4443.589743,4294.358974,4241.025641,4501.538461,4254.871794,4666.153846,4007.179487,4062.564102
192,4422.564102,4526.666666,4542.564102,4269.230769,4481.538461,4196.410256,4443.589743,4295.384615,4242.564102,4503.076923,4255.384615,4667.179487,4006.666666,4058.974358
193,4415.384615,4524.102564,4538.461538,4263.589743,4475.897435,4191.794871,4442.051282,4290.256410,4232.307692,4497.948717,4241.025641,4659.487179,4005.641025,4052.820512
194,4421.538461,4528.205128,4538.461538,4262.051282,4475.384615,4192.820512,4441.025641,4282.051282,4226.666666,4487.179487,4236.410256,4653.846153,4002.564102,4055.897435
195,4428.205128,4530.769230,4538.974358,4267.692307,4478.974358,4193.333333,4438.461538,4283.076923,4231.282051,4488.717948,4247.692307,4658.461538,4005.641025,4060.000000
196,4426.153846,4532.307692,4540.000000,4277.948717,4475.384615,4194.358974,4434.358974,4289.743589,4234.358974,4497.948717,4252.820512,4663.076923,4007.692307,4058.461538
197,4427.179487,4534.358974,4540.000000,4278.461538,4474.871794,4193.846153,4431.794871,4290.769230,4232.307692,4497.435897,4245.128205,4661.538461,4008.205128,4056.410256
198,4429.230769,4534.871794,4537.948717,4271.282051,4477.435897,4189.743589,4434.358974,4288.205128,4231.282051,4492.307692,4237.948717,4654.358974,4008.205128,4054.358974
199,4428.205128,4534.358974,4536.923076,4268.205128,4474.871794,4187.179487,4437.435897,4285.641025,4229.743589,4489.230769,4240.512820,4648.205128,4002.051282,4049.230769
200,4428.205128,4532.307692,4537.948717,4269.230769,4474.358974,4189.230769,4434.358974,4283.076923,4224.615384,4483.589743,4242.051282,4650.769230,3991.794872,4043.589743
201,4427.179487,4530.769230,4538.974358,4270.256410,4476.410256,4193.846153,4430.769230,4280.512820,4222.051282,4480.000000,4234.871794,4654.871794,3992.820513,4047.179487
202,4431.794871,4535.384615,4541.538461,4269.743589,4476.410256,4193.333333,4433.846153,4281.025641,4224.102564,4487.692307,4230.256410,4655.384615,3998.461539,4051.794871
203,4440.512820,4540.512820,4540.512820,4270.769230,4475.897435,4188.205128,4430.769230,4283.589743,4223.076923,4493.333333,4238.461538,4657.948717,3997.948718,4052.307692
204,4444.615384,4542.051282,4540.512820,4276.410256,4475.897435,4187.692307,4424.102564,4287.692307,4224.615384,4489.230769,4248.205128,4664.102564,4000.000000,4056.410256
205,4447.179487,4546.153846,4545.128205,4281.538461,4476.410256,4196.923076,4434.358974,4292.307692,4230.769230,4491.282051,4248.205128,4665.641025,4005.128205,4060.512820
206,4448.205128,4542.564102,4542.051282,4278.974358,4482.564102,4201.538461,4446.666666,4294.871794,4232.820512,4494.358974,4237.948717,4656.923076,4003.589743,4055.384615
207,4444.102564,4529.743589,4533.333333,4269.743589,4481.538461,4195.897435,4443.589743,4293.846153,4226.666666,4490.256410,4228.717948,4648.205128,3997.435898,4046.153846
208,4444.102564,4526.666666,4534.358974,4267.179487,4477.435897,4193.846153,4443.076923,4291.282051,4225.641025,4489.230769,4230.256410,4646.666666,3994.358975,4042.564102
209,4448.717948,4531.794871,4540.000000,4267.692307,4483.076923,4197.435897,4447.179487,4292.820512,4227.692307,4490.256410,4233.846153,4648.205128,3989.743590,4044.102564
210,4446.666666,4529.230769,4536.410256,4266.153846,4483.589743,4198.974358,4444.102564,4295.897435,4228.717948,4491.794871,4232.820512,4646.666666,3985.128206,4044.102564
211,4448.717948,4525.641025,4535.384615,4267.692307,4481.025641,4195.897435,4444.102564,4302.051282,4235.384615,4496.923076,4237.948717,4651.282051,3992.820513,4047.179487
212,4467.692307,4535.897435,4546.153846,4277.948717,4486.153846,4197.435897,4449.230769,4309.743589,4246.666666,4504.102564,4254.871794,4666.153846,4011.282051,4062.564102
213,4482.564102,4547.179487,4556.410256,4284.102564,4490.769230,4203.589743,4450.769230,4315.897435,4254.358974,4510.256410,4269.230769,4676.923076,4023.589743,4077.435897
214,4473.333333,4542.564102,4555.897435,4281.025641,4486.666666,4201.025641,4450.769230,4313.333333,4249.743589,4509.230769,4265.641025,4672.820512,4015.384615,4070.256410
215,4458.974358,4535.384615,4552.307692,4276.923076,4483.076923,4195.384615,4448.205128,4304.102564,4237.948717,4498.974358,4248.205128,4662.564102,4002.051282,4055.897435
216,4458.461538,4532.820512,4545.641025,4269.743589,4478.461538,4194.358974,4445.128205,4297.435897,4232.307692,4491.794871,4241.538461,4656.923076,3994.871795,4050.769230
217,4455.897435,4527.179487,4533.846153,4261.538461,4474.358974,4192.820512,4443.076923,4292.307692,4228.717948,4490.769230,4243.589743,4651.794871,3986.666667,4045.128205
218,4448.205128,4520.512820,4530.256410,4260.000000,4474.358974,4187.179487,4435.384615,4289.230769,4223.589743,4489.230769,4235.384615,4647.179487,3984.615385,4038.974358
219,4452.307692,4518.461538,4534.871794,4262.564102,4473.333333,4187.692307,4433.333333,4291.282051,4223.589743,4494.358974,4231.282051,4648.205128,3994.358975,4042.051282
220,4462.051282,4523.589743,4537.435897,4267.692307,4475.384615,4191.282051,4437.435897,4294.871794,4231.794871,4499.487179,4246.153846,4650.769230,3997.948718,4049.230769
221,4462.051282,4528.717948,4536.410256,4269.230769,4476.410256,4189.230769,4435.897435,4293.333333,4233.846153,4497.435897,4254.358974,4651.282051,3995.384616,4052.307692
222,4458.974358,4527.179487,4530.256410,4266.666666,4474.871794,4189.230769,4434.871794,4293.333333,4229.743589,4494.871794,4246.153846,4648.717948,3999.487180,4050.256410
223,4458.974358,4523.589743,4523.589743,4264.102564,4474.871794,4191.794871,4442.051282,4294.871794,4231.282051,4493.846153,4245.128205,4642.564102,4001.538461,4044.615384
224,4456.923076,4520.512820,4523.589743,4262.051282,4474.871794,4187.692307,4443.076923,4293.846153,4232.820512,4491.794871,4251.794871,4637.948717,3991.794872,4039.487179
225,4456.923076,4517.948717,4525.128205,4262.564102,4475.384615,4184.615384,4441.025641,4294.358974,4229.230769,4490.769230,4246.666666,4641.025641,3984.615385,4041.025641
226,4458.974358,4523.589743,4524.102564,4265.641025,4475.897435,4189.743589,4445.128205,4295.897435,4227.179487,4492.307692,4238.974358,4642.564102,3988.717949,4043.076923
227,4460.000000,4531.794871,4524.102564,4266.153846,4474.358974,4191.282051,4441.538461,4293.846153,4228.205128,4494.358974,4241.538461,4638.461538,3992.820513,4042.564102
228,4461.538461,4530.256410,4524.102564,4266.153846,4475.897435,4190.769230,4436.410256,4293.333333,4231.282051,4496.410256,4248.717948,4642.051282,3992.820513,4047.179487
229,4463.589743,4526.666666,4523.589743,4267.692307,4481.538461,4196.410256,4437.948717,4293.846153,4231.794871,4495.897435,4248.205128,4647.692307,3993.846154,4049.743589
230,4461.025641,4521.538461,4523.589743,4265.128205,4477.435897,4196.923076,4433.846153,4288.717948,4221.538461,4487.692307,4236.410256,4643.589743,3991.282052,4040.512820
231,4456.923076,4513.846153,4522.564102,4262.051282,4473.333333,4189.230769,4426.666666,4285.641025,4214.358974,4479.487179,4229.230769,4638.974358,3983.076924,4032.820512
232,4464.615384,4515.384615,4528.205128,4266.666666,4482.051282,4189.743589,4432.820512,4291.794871,4224.615384,4488.205128,4239.487179,4644.615384,3986.153847,4043.076923
233,4476.410256,4523.589743,4542.051282,4272.820512,4485.128205,4200.000000,4443.589743,4299.487179,4234.871794,4507.692307,4251.282051,4655.897435,4002.051282,4059.487179
234,4476.923076,4526.153846,4546.153846,4278.461538,4477.435897,4200.512820,4444.102564,4303.076923,4237.435897,4508.717948,4256.923076,4662.564102,4013.333333,4063.076923
235,4473.333333,4520.000000,4546.666666,4276.923076,4478.461538,4195.384615,4443.076923,4309.743589,4244.615384,4501.025641,4262.051282,4665.128205,4010.769230,4060.000000
236,4473.846153,4511.794871,4550.769230,4268.717948,4483.076923,4199.487179,4447.179487,4316.923076,4246.666666,4508.205128,4260.512820,4666.666666,3998.974359,4060.000000
237,4475.897435,4514.871794,4547.179487,4270.769230,4478.461538,4201.538461,4447.179487,4311.282051,4235.384615,4507.692307,4253.333333,4664.615384,3991.282052,4059.487179
238,4470.769230,4520.000000,4540.000000,4275.897435,4474.358974,4192.820512,4438.974358,4299.487179,4224.615384,4488.205128,4248.205128,4654.358974,3990.769231,4052.307692
239,4460.512820,4513.333333,4532.307692,4266.153846,4476.410256,4188.205128,4433.333333,4291.282051,4220.512820,4478.974358,4241.025641,4644.102564,3986.153847,4041.025641
240,4455.384615,4511.282051,4527.692307,4260.512820,4476.410256,4193.846153,4436.410256,4289.743589,4217.948717,4488.205128,4241.025641,4645.641025,3982.051283,4038.461538
241,4458.974358,4522.564102,4529.743589,4269.230769,4477.435897,4198.461538,4442.051282,4292.820512,4221.025641,4492.820512,4247.692307,4649.743589,3986.153847,4047.179487
242,4460.512820,4525.128205,4531.794871,4268.205128,4477.435897,4197.435897,4442.051282,4294.358974,4226.666666,4487.692307,4243.589743,4646.153846,3986.666667,4050.256410
243,4460.512820,4515.384615,4526.153846,4262.564102,4475.897435,4193.846153,4435.384615,4290.769230,4223.076923,4489.230769,4232.307692,4641.538461,3982.051283,4041.538461
244,4462.564102,4512.307692,4522.564102,4267.179487,4476.923076,4189.743589,4428.205128,4288.717948,4216.410256,4492.307692,4235.897435,4641.025641,3988.205129,4040.512820
245,4461.538461,4514.871794,4523.589743,4265.641025,4474.871794,4187.179487,4425.641025,4291.794871,4222.051282,4488.205128,4243.076923,4638.461538,3993.333334,4047.179487
246,4460.000000,4513.846153,4524.102564,4261.538461,4474.871794,4190.256410,4429.743589,4297.435897,4229.230769,4490.769230,4239.487179,4636.410256,3986.666667,4047.179487
247,4460.000000,4505.641025,4518.461538,4262.564102,4477.435897,4190.256410,4430.769230,4296.923076,4222.564102,4495.897435,4231.794871,4634.358974,3976.410257,4036.923076
248,4456.410256,4502.564102,4510.256410,4255.384615,4473.333333,4187.179487,4427.692307,4288.717948,4211.282051,4484.102564,4223.076923,4624.102564,3969.743590,4024.102564
249,4454.871794,4507.692307,4510.256410,4249.743589,4470.769230,4184.615384,4427.179487,4285.641025,4211.794871,4474.358974,4221.538461,4616.923076,3970.256411,4024.102564
250,4458.461538,4508.717948,4516.923076,4257.435897,4473.333333,4183.589743,4427.179487,4290.256410,4216.410256,4482.564102,4226.153846,4625.128205,3973.333334,4034.358974
251,4456.410256,4508.717948,4520.000000,4260.000000,4468.717948,4184.615384,4426.153846,4291.282051,4214.358974,4482.564102,4225.641025,4629.743589,3969.743590,4031.794871
252,4453.846153,4508.205128,4517.435897,4252.307692,4466.153846,4183.076923,4423.589743,4289.230769,4209.230769,4471.794871,4217.435897,4622.564102,3960.512821,4018.974358
253,4452.307692,4505.128205,4515.897435,4251.794871,4469.743589,4182.051282,4423.589743,4288.717948,4207.692307,4470.769230,4213.333333,4621.025641,3954.871795,4017.435897
254,4450.256410,4504.102564,4518.974358,4253.333333,4465.641025,4184.102564,4427.179487,4290.256410,4211.794871,4477.435897,4222.564102,4628.717948,3958.974359,4025.128205
255,4452.307692,4504.102564,4521.025641,4246.153846,4464.102564,4184.615384,4428.717948,4292.307692,4213.333333,4481.025641,4232.307692,4631.794871,3965.128206,4025.641025
256,4459.487179,4505.128205,4526.153846,4245.128205,4475.897435,4185.128205,4428.205128,4296.923076,4218.461538,4487.692307,4237.435897,4634.871794,3970.769231,4029.230769
257,4462.564102,4513.846153,4533.846153,4257.948717,4482.051282,4191.794871,4435.384615,4305.641025,4231.794871,4503.589743,4245.128205,4643.589743,3978.461539,4040.512820
258,4461.538461,4521.538461,4532.307692,4263.589743,4475.384615,4196.923076,4439.487179,4312.820512,4237.435897,4508.205128,4251.282051,4646.153846,3981.025642,4042.564102
259,4461.025641,4513.846153,4524.615384,4254.358974,4474.358974,4190.256410,4431.794871,4310.256410,4226.666666,4495.384615,4242.564102,4639.487179,3977.948718,4032.820512
