,AF3,F7,F3,FC5,T7,P7,O1,O2,P8,T8,FC6,F4,F8,AF4
0,4393.846153,4544.615384,4628.717948,4268.205128,4495.384615,4185.641025,4428.717948,4187.692307,4224.102564,4523.076923,4211.282051,4639.487179,3982.564103,4055.384615
1,4390.769230,4537.948717,4627.179487,4266.153846,4506.153846,4182.564102,4427.179487,4187.179487,4220.000000,4521.538461,4208.205128,4641.538461,3988.717949,4054.358974
2,4392.820512,4548.717948,4626.153846,4263.589743,4512.307692,4184.102564,4425.641025,4189.743589,4222.564102,4523.076923,4202.051282,4641.538461,3989.743590,4049.743589
3,4395.384615,4561.538461,4625.641025,4262.051282,4508.205128,4187.179487,4426.666666,4190.769230,4227.179487,4524.102564,4200.512820,4640.512820,3982.564103,4049.230769
4,4388.205128,4553.333333,4619.487179,4256.410256,4500.512820,4182.564102,4421.025641,4186.153846,4219.487179,4512.820512,4197.948717,4636.410256,3976.410257,4047.179487
5,4380.000000,4538.461538,4616.410256,4253.333333,4491.282051,4178.974358,4412.820512,4184.102564,4211.282051,4510.256410,4198.461538,4629.230769,3980.512821,4041.538461
6,4378.974358,4534.871794,4617.435897,4251.282051,4488.205128,4179.487179,4410.769230,4181.538461,4211.282051,4521.025641,4200.000000,4623.589743,3980.512821,4041.025641
7,4381.025641,4538.461538,4615.897435,4248.205128,4496.410256,4173.846153,4411.794871,4177.948717,4211.794871,4520.000000,4194.358974,4625.128205,3970.769231,4042.564102
8,4384.102564,4544.615384,4618.461538,4256.923076,4505.641025,4169.230769,4414.871794,4180.512820,4212.820512,4513.333333,4194.871794,4632.307692,3976.923077,4043.589743
9,4386.153846,4545.128205,4626.153846,4263.589743,4504.615384,4170.769230,4416.410256,4186.153846,4217.948717,4522.051282,4201.025641,4634.358974,3988.717949,4047.692307
10,4386.153846,4547.179487,4625.641025,4254.358974,4497.435897,4171.794871,4415.897435,4185.641025,4215.897435,4526.153846,4202.051282,4630.769230,3979.487180,4050.769230
11,4387.179487,4552.307692,4622.051282,4251.794871,4501.025641,4170.769230,4416.410256,4183.589743,4213.846153,4510.769230,4203.076923,4631.794871,3976.410257,4052.307692
12,4388.205128,4549.230769,4623.589743,4264.102564,4508.717948,4171.282051,4415.897435,4186.666666,4217.948717,4506.666666,4203.076923,4633.333333,3990.769231,4050.256410
13,4385.128205,4535.897435,4622.564102,4262.051282,4503.589743,4169.743589,4412.307692,4186.666666,4217.435897,4514.358974,4198.974358,4631.794871,3990.769231,4042.564102
14,4383.589743,4533.846153,4619.487179,4248.717948,4502.564102,4169.743589,4415.384615,4186.153846,4216.923076,4512.820512,4199.487179,4631.794871,3976.410257,4042.564102
15,4387.692307,4550.256410,4623.589743,4247.692307,4509.230769,4172.307692,4421.025641,4189.743589,4220.512820,4515.897435,4202.051282,4634.358974,3971.282052,4050.256410
16,4385.128205,4548.717948,4623.076923,4252.307692,4499.487179,4170.769230,4412.307692,4183.076923,4212.820512,4523.076923,4195.897435,4629.230769,3974.358975,4047.179487
17,4373.846153,4528.205128,4612.307692,4249.230769,4486.153846,4166.153846,4404.102564,4169.230769,4200.512820,4513.333333,4187.179487,4618.974358,3973.846154,4036.410256
18,4372.307692,4526.153846,4612.820512,4245.641025,4489.230769,4167.179487,4410.256410,4166.666666,4199.487179,4501.025641,4187.692307,4620.000000,3968.717949,4035.897435
19,4378.974358,4542.051282,4616.923076,4243.589743,4494.358974,4171.282051,4412.820512,4172.820512,4204.615384,4504.102564,4185.128205,4623.076923,3966.666667,4042.564102
20,4377.435897,4542.051282,4612.307692,4243.589743,4493.846153,4173.333333,4408.205128,4179.487179,4208.717948,4514.358974,4183.589743,4618.974358,3972.307693,4044.615384
21,4373.846153,4533.846153,4613.846153,4250.256410,4501.538461,4171.794871,4411.282051,4185.128205,4213.333333,4520.000000,4197.435897,4617.948717,3974.871795,4040.000000
22,4380.000000,4537.435897,4622.564102,4254.871794,4507.179487,4171.282051,4414.871794,4188.717948,4219.487179,4515.897435,4199.487179,4625.641025,3971.282052,4041.025641
23,4385.641025,4538.974358,4623.589743,4252.307692,4498.461538,4170.769230,4412.820512,4189.230769,4218.974358,4510.256410,4184.615384,4630.256410,3973.333334,4045.641025
24,4381.538461,4542.051282,4616.923076,4247.179487,4488.717948,4167.692307,4411.282051,4183.589743,4208.205128,4508.717948,4187.692307,4623.076923,3976.923077,4044.102564
25,4376.923076,4541.025641,4616.410256,4245.641025,4491.794871,4168.717948,4407.692307,4173.846153,4198.974358,4508.717948,4201.025641,4616.410256,3966.153847,4037.948717
26,4375.384615,4522.051282,4618.974358,4250.769230,4499.487179,4168.205128,4398.974358,4163.589743,4194.358974,4501.025641,4190.769230,4615.384615,3954.358975,4033.333333
27,4375.384615,4519.487179,4614.871794,4251.794871,4495.897435,4160.512820,4393.333333,4159.487179,4191.282051,4493.333333,4175.897435,4617.948717,3963.589744,4034.871794
28,4381.538461,4547.179487,4614.358974,4246.666666,4488.717948,4162.051282,4396.923076,4164.615384,4196.410256,4505.128205,4186.153846,4619.487179,3980.512821,4044.102564
29,4384.102564,4557.435897,4617.948717,4244.102564,4492.820512,4165.641025,4400.000000,4169.230769,4205.128205,4519.487179,4198.461538,4619.487179,3971.794872,4045.641025
30,4375.897435,4537.435897,4615.384615,4244.615384,4490.256410,4156.410256,4394.871794,4169.230769,4202.051282,4509.743589,4188.717948,4617.435897,3952.307693,4031.794871
31,4373.846153,4528.717948,4613.846153,4245.641025,4484.102564,4157.948717,4397.435897,4172.820512,4198.974358,4497.948717,4177.948717,4615.384615,3961.025642,4030.769230
32,4380.512820,4537.435897,4619.487179,4250.769230,4496.410256,4170.256410,4409.743589,4176.923076,4203.589743,4507.692307,4183.589743,4619.487179,3979.487180,4044.615384
33,4378.461538,4542.051282,4615.897435,4250.769230,4503.589743,4165.128205,4408.205128,4171.794871,4201.538461,4512.307692,4186.153846,4616.923076,3969.230770,4043.589743
34,4370.769230,4534.871794,4606.666666,4243.076923,4489.743589,4152.820512,4395.384615,4167.179487,4192.820512,4501.025641,4182.564102,4608.205128,3950.256411,4032.820512
35,4375.897435,4530.769230,4612.307692,4244.102564,4486.153846,4155.897435,4393.846153,4169.230769,4193.846153,4498.461538,4184.615384,4609.743589,3960.000000,4033.846153
36,4381.538461,4538.974358,4621.025641,4247.692307,4496.923076,4160.000000,4398.974358,4167.692307,4196.923076,4504.615384,4185.128205,4620.000000,3972.820513,4038.974358
37,4378.974358,4540.512820,4619.487179,4244.102564,4500.512820,4156.923076,4396.923076,4167.692307,4190.256410,4507.179487,4186.153846,4621.538461,3962.051283,4039.487179
38,4375.384615,4524.102564,4614.871794,4242.564102,4490.769230,4153.846153,4393.333333,4170.769230,4190.769230,4504.615384,4188.717948,4618.974358,3958.461539,4040.000000
39,4369.743589,4514.871794,4611.282051,4239.487179,4478.974358,4151.794871,4394.358974,4170.256410,4195.897435,4504.615384,4182.051282,4617.435897,3964.615385,4033.846153
40,4366.153846,4522.564102,4611.794871,4230.256410,4473.846153,4152.820512,4395.384615,4169.743589,4192.307692,4507.692307,4176.923076,4614.871794,3954.358975,4025.128205
41,4368.205128,4524.102564,4615.897435,4226.666666,4473.846153,4152.820512,4393.846153,4171.794871,4188.205128,4502.564102,4181.538461,4614.358974,3946.153847,4029.230769
42,4372.307692,4525.128205,4618.461538,4232.307692,4479.487179,4152.820512,4394.871794,4171.282051,4190.256410,4492.307692,4187.692307,4616.923076,3961.538462,4037.948717
43,4371.282051,4524.102564,4617.435897,4235.897435,4490.769230,4154.358974,4396.923076,4171.794871,4190.256410,4487.692307,4185.641025,4615.897435,3965.128206,4036.923076
44,4365.128205,4509.743589,4617.948717,4232.820512,4488.205128,4155.384615,4393.846153,4169.743589,4184.615384,4489.230769,4174.358974,4607.179487,3945.128206,4028.717948
45,4360.000000,4504.102564,4618.461538,4228.205128,4476.923076,4152.307692,4388.717948,4160.000000,4178.974358,4491.282051,4165.128205,4600.512820,3938.974359,4022.051282
46,4360.512820,4516.410256,4617.948717,4226.153846,4481.025641,4148.717948,4386.666666,4155.897435,4176.923076,4490.769230,4166.666666,4605.641025,3949.743590,4024.102564
47,4367.692307,4523.076923,4621.538461,4231.282051,4491.282051,4150.256410,4389.230769,4164.615384,4182.564102,4489.743589,4169.743589,4613.846153,3954.358975,4033.333333
48,4370.769230,4521.538461,4623.589743,4235.384615,4490.769230,4152.307692,4392.820512,4169.230769,4186.153846,4489.230769,4161.025641,4610.256410,3947.692308,4038.974358
49,4365.128205,4524.102564,4620.512820,4233.333333,4488.205128,4150.769230,4394.358974,4165.128205,4180.000000,4488.717948,4150.769230,4602.564102,3941.025642,4032.820512
50,4355.384615,4517.948717,4614.871794,4228.205128,4478.461538,4148.205128,4391.282051,4155.384615,4168.717948,4476.923076,4151.282051,4599.487179,3935.897436,4018.461538
51,4356.410256,4511.282051,4613.846153,4227.179487,4474.871794,4150.769230,4393.333333,4155.897435,4166.666666,4470.769230,4155.384615,4601.538461,3937.948718,4016.923076
52,4366.666666,4521.025641,4618.974358,4233.333333,4490.769230,4156.410256,4404.615384,4175.384615,4187.692307,4491.794871,4155.897435,4609.743589,3950.256411,4035.897435
53,4368.717948,4524.615384,4620.512820,4236.410256,4495.384615,4155.897435,4407.179487,4187.692307,4202.051282,4511.794871,4163.076923,4614.358974,3958.461539,4047.179487
54,4369.230769,4520.000000,4619.487179,4233.333333,4486.666666,4154.358974,4402.051282,4184.615384,4199.487179,4512.820512,4182.564102,4616.923076,3958.974359,4042.564102
55,4376.923076,4524.102564,4620.000000,4233.333333,4489.230769,4155.897435,4400.000000,4185.128205,4199.487179,4506.666666,4185.128205,4617.435897,3957.435898,4039.487179
56,4375.897435,4527.179487,4618.461538,4233.846153,4484.102564,4152.820512,4396.923076,4186.153846,4200.000000,4500.512820,4170.256410,4613.846153,3956.923077,4035.384615
57,4370.769230,4522.051282,4617.948717,4231.282051,4475.384615,4152.307692,4395.384615,4183.589743,4198.461538,4501.025641,4165.641025,4612.820512,3955.897436,4030.769230
58,4373.846153,4520.512820,4620.512820,4230.256410,4487.179487,4155.897435,4400.000000,4184.102564,4200.512820,4511.282051,4170.769230,4615.384615,3958.461539,4037.435897
59,4378.461538,4529.743589,4620.512820,4230.769230,4495.897435,4154.358974,4400.512820,4186.666666,4203.076923,4513.846153,4174.358974,4612.307692,3963.076924,4044.102564
60,4378.974358,4534.358974,4620.512820,4232.307692,4489.743589,4154.358974,4396.410256,4183.076923,4199.487179,4500.512820,4177.948717,4613.333333,3965.641026,4042.564102
61,4373.846153,4525.641025,4624.102564,4234.871794,4490.769230,4155.897435,4395.384615,4175.897435,4194.358974,4493.333333,4177.435897,4619.487179,3960.000000,4038.461538
62,4365.128205,4517.948717,4622.564102,4228.717948,4486.666666,4145.641025,4386.153846,4168.717948,4185.128205,4494.871794,4164.615384,4611.282051,3947.179488,4029.230769
63,4363.076923,4521.538461,4615.384615,4222.564102,4468.717948,4134.871794,4375.384615,4161.025641,4173.333333,4487.179487,4154.871794,4597.948717,3939.487180,4022.564102
64,4366.153846,4524.615384,4615.384615,4229.743589,4473.846153,4136.410256,4378.974358,4153.846153,4168.717948,4479.487179,4150.256410,4597.435897,3938.461539,4024.615384
65,4364.615384,4522.051282,4617.435897,4235.384615,4488.717948,4139.487179,4382.051282,4152.820512,4167.692307,4483.076923,4141.538461,4600.000000,3943.076924,4027.692307
66,4358.974358,4520.512820,4613.846153,4231.794871,4476.410256,4136.410256,4373.846153,4154.358974,4166.153846,4481.538461,4140.512820,4598.461538,3943.076924,4021.538461
67,4360.512820,4519.487179,4614.871794,4225.641025,4462.564102,4134.358974,4371.794871,4153.333333,4167.692307,4471.282051,4149.743589,4598.461538,3931.282052,4015.384615
68,4365.128205,4521.025641,4618.974358,4220.512820,4472.820512,4136.923076,4381.025641,4157.435897,4172.307692,4477.435897,4156.410256,4596.923076,3927.692308,4021.025641
69,4364.102564,4523.076923,4612.307692,4216.410256,4477.435897,4140.000000,4383.076923,4165.641025,4174.358974,4490.769230,4153.333333,4591.794871,3933.846154,4023.076923
70,4361.538461,4519.487179,4606.666666,4214.358974,4468.717948,4145.128205,4382.051282,4169.230769,4178.974358,4491.794871,4149.743589,4589.743589,3940.512821,4017.435897
71,4364.102564,4518.461538,4616.923076,4221.538461,4475.897435,4152.820512,4390.769230,4171.794871,4186.153846,4494.358974,4156.923076,4602.564102,3953.846154,4022.564102
72,4370.256410,4524.102564,4625.641025,4229.743589,4488.717948,4149.743589,4390.256410,4172.307692,4184.615384,4490.769230,4166.666666,4614.358974,3960.000000,4031.794871
73,4372.307692,4531.282051,4624.102564,4223.589743,4489.743589,4142.564102,4377.435897,4169.743589,4181.025641,4477.435897,4165.641025,4609.743589,3947.179488,4030.256410
74,4371.794871,4538.461538,4623.076923,4216.923076,4488.717948,4147.692307,4380.512820,4167.692307,4182.564102,4483.076923,4163.589743,4607.179487,3943.076924,4032.820512
75,4374.871794,4538.974358,4625.641025,4223.076923,4491.282051,4159.487179,4396.410256,4169.743589,4185.128205,4502.564102,4165.128205,4615.384615,3962.564103,4043.076923
76,4381.538461,4536.923076,4627.692307,4228.205128,4494.358974,4163.589743,4401.025641,4174.871794,4191.282051,4504.615384,4161.538461,4617.948717,3974.871795,4042.051282
77,4383.076923,4538.461538,4630.769230,4227.179487,4489.743589,4164.615384,4394.871794,4180.512820,4198.461538,4498.461538,4165.641025,4616.410256,3973.333334,4037.435897
78,4382.564102,4543.589743,4636.410256,4230.256410,4489.230769,4167.692307,4400.512820,4184.102564,4200.512820,4502.564102,4182.564102,4626.153846,3973.846154,4047.692307
79,4388.717948,4546.153846,4637.948717,4232.307692,4502.051282,4173.333333,4410.769230,4186.153846,4203.076923,4507.692307,4188.717948,4634.358974,3973.846154,4057.948717
80,4395.384615,4546.666666,4636.410256,4232.820512,4510.256410,4174.358974,4408.717948,4186.666666,4204.615384,4506.153846,4185.641025,4631.794871,3971.282052,4057.948717
81,4397.948717,4553.333333,4635.897435,4233.846153,4507.179487,4170.256410,4405.641025,4184.102564,4201.025641,4505.641025,4185.128205,4633.333333,3978.461539,4058.461538
82,4401.538461,4559.487179,4638.974358,4233.846153,4507.692307,4174.358974,4411.794871,4181.538461,4205.128205,4504.615384,4186.153846,4643.076923,3990.769231,4060.512820
83,4403.076923,4556.410256,4639.487179,4233.846153,4506.153846,4185.128205,4415.384615,4185.128205,4214.871794,4502.564102,4194.358974,4649.230769,3992.820513,4061.538461
84,4403.589743,4559.487179,4635.897435,4234.358974,4502.564102,4185.641025,4410.256410,4193.333333,4221.025641,4513.333333,4206.153846,4647.692307,3994.358975,4064.615384
85,4405.641025,4568.717948,4636.410256,4242.051282,4515.897435,4185.128205,4413.333333,4199.487179,4227.692307,4526.666666,4204.615384,4649.230769,4003.076923,4070.256410
86,4406.666666,4562.564102,4638.461538,4253.846153,4526.153846,4188.205128,4420.000000,4202.051282,4228.205128,4517.435897,4190.769230,4652.307692,4002.564102,4071.794871
87,4402.564102,4554.871794,4635.897435,4248.717948,4514.358974,4185.128205,4415.897435,4196.923076,4217.948717,4502.564102,4187.179487,4649.743589,3993.846154,4064.102564
88,4397.948717,4565.641025,4630.769230,4232.307692,4502.564102,4181.025641,4408.717948,4184.615384,4211.794871,4508.205128,4197.948717,4646.153846,3987.692308,4055.897435
89,4398.461538,4570.769230,4630.769230,4232.307692,4502.564102,4183.076923,4409.743589,4182.564102,4211.794871,4511.282051,4203.076923,4646.666666,3988.717949,4060.000000
90,4403.589743,4565.128205,4634.871794,4246.153846,4510.256410,4184.615384,4419.487179,4195.384615,4216.923076,4508.717948,4200.000000,4646.666666,3996.923077,4071.794871
91,4407.179487,4569.230769,4636.923076,4252.307692,4520.512820,4190.256410,4426.666666,4204.102564,4227.692307,4517.948717,4197.435897,4648.205128,3998.974359,4069.230769
92,4408.717948,4575.897435,4635.897435,4250.769230,4526.666666,4202.051282,4427.692307,4206.153846,4235.384615,4527.692307,4204.102564,4653.333333,4001.025641,4064.102564
93,4411.794871,4573.333333,4634.871794,4250.256410,4522.564102,4205.128205,4429.743589,4215.897435,4237.948717,4530.769230,4215.897435,4654.358974,4013.333333,4069.743589
94,4408.717948,4570.769230,4632.307692,4250.256410,4513.846153,4193.846153,4428.717948,4218.974358,4242.564102,4530.256410,4212.820512,4651.282051,4011.794871,4069.230769
95,4397.948717,4567.692307,4628.717948,4248.205128,4505.641025,4184.102564,4415.897435,4206.666666,4234.358974,4524.102564,4191.794871,4646.666666,3996.923077,4059.487179
96,4396.410256,4566.153846,4630.256410,4246.153846,4504.615384,4183.076923,4410.769230,4197.948717,4218.461538,4517.435897,4192.307692,4645.641025,3998.461539,4057.435897
97,4406.666666,4570.769230,4635.897435,4249.230769,4514.358974,4188.717948,4423.076923,4203.076923,4222.051282,4522.564102,4212.820512,4653.846153,4006.666666,4063.589743
98,4409.230769,4573.333333,4637.435897,4253.846153,4516.410256,4188.717948,4422.564102,4204.615384,4230.256410,4522.051282,4210.769230,4657.948717,4004.615384,4065.128205
99,4405.128205,4566.666666,4634.871794,4255.897435,4505.641025,4181.538461,4410.256410,4199.487179,4224.615384,4509.230769,4201.025641,4654.871794,4002.564102,4065.641025
100,4408.205128,4565.641025,4637.948717,4259.487179,4499.487179,4182.051282,4415.384615,4205.641025,4226.153846,4511.794871,4212.820512,4660.512820,4009.230769,4075.897435
101,4415.897435,4572.820512,4644.102564,4266.666666,4511.282051,4191.282051,4430.256410,4216.410256,4236.410256,4527.692307,4224.102564,4669.743589,4018.461538,4084.102564
102,4416.410256,4574.358974,4643.589743,4269.230769,4526.666666,4196.923076,4428.717948,4216.923076,4235.897435,4527.692307,4213.846153,4666.153846,4021.538461,4075.897435
103,4411.282051,4570.769230,4637.435897,4261.538461,4523.589743,4193.333333,4421.538461,4211.794871,4231.794871,4520.512820,4200.512820,4656.923076,4008.205128,4063.076923
104,4403.589743,4563.589743,4631.794871,4256.410256,4510.256410,4187.179487,4422.564102,4205.641025,4231.794871,4523.076923,4199.487179,4652.307692,3989.230770,4061.025641
105,4395.384615,4554.871794,4625.641025,4258.461538,4502.564102,4184.102564,4420.000000,4200.000000,4221.538461,4515.897435,4198.974358,4647.179487,3990.256411,4061.538461
106,4395.384615,4553.846153,4626.153846,4254.871794,4505.641025,4186.666666,4415.384615,4200.000000,4212.820512,4504.615384,4197.948717,4646.153846,3996.923077,4057.948717
107,4400.000000,4565.641025,4631.282051,4250.256410,4507.179487,4189.230769,4418.974358,4203.589743,4220.512820,4513.846153,4198.461538,4654.358974,3992.307693,4056.410256
108,4401.025641,4570.769230,4632.820512,4257.948717,4505.641025,4187.179487,4420.000000,4203.589743,4231.794871,4523.589743,4200.512820,4660.000000,3994.358975,4061.538461
109,4400.512820,4558.974358,4633.846153,4261.538461,4510.256410,4187.179487,4416.410256,4204.615384,4229.743589,4515.384615,4200.512820,4656.923076,4004.615384,4065.641025
110,4396.410256,4550.769230,4631.794871,4250.256410,4504.102564,4180.000000,4412.307692,4203.589743,4216.410256,4502.051282,4193.846153,4647.692307,3990.769231,4056.410256
111,4389.230769,4554.358974,4626.153846,4244.615384,4486.153846,4168.717948,4406.666666,4191.282051,4211.794871,4501.538461,4184.615384,4640.000000,3966.666667,4047.179487
112,4390.256410,4555.897435,4625.128205,4248.717948,4492.307692,4168.717948,4405.128205,4184.615384,4215.384615,4507.692307,4182.051282,4640.000000,3976.410257,4050.256410
113,4395.384615,4552.820512,4627.179487,4251.282051,4510.769230,4181.025641,4412.307692,4190.256410,4216.410256,4507.179487,4193.846153,4644.615384,3995.897436,4055.384615
114,4391.794871,4553.846153,4625.128205,4249.743589,4508.717948,4186.153846,4413.846153,4192.820512,4215.897435,4502.564102,4199.487179,4643.589743,3995.897436,4057.435897
115,4384.102564,4547.179487,4622.051282,4248.717948,4503.076923,4177.435897,4406.153846,4186.666666,4217.435897,4503.589743,4190.769230,4634.871794,3986.153847,4054.358974
116,4380.000000,4535.384615,4624.615384,4247.179487,4502.564102,4169.230769,4402.051282,4184.102564,4214.358974,4507.179487,4181.025641,4629.743589,3976.923077,4044.615384
117,4381.538461,4542.564102,4628.717948,4243.589743,4494.358974,4168.717948,4404.102564,4185.641025,4207.692307,4507.692307,4184.615384,4633.333333,3980.000000,4042.564102
118,4386.666666,4556.410256,4628.717948,4244.102564,4489.743589,4169.230769,4405.641025,4186.666666,4204.615384,4505.128205,4194.871794,4640.000000,3991.282052,4051.794871
119,4387.179487,4550.256410,4626.666666,4244.615384,4492.307692,4167.179487,4403.076923,4186.666666,4204.615384,4501.538461,4192.307692,4640.000000,3991.282052,4054.358974
120,4386.666666,4546.153846,4628.717948,4242.051282,4489.230769,4167.179487,4402.564102,4187.692307,4203.589743,4505.128205,4182.051282,4635.384615,3985.641026,4052.820512
121,4387.179487,4551.794871,4629.230769,4241.538461,4488.717948,4166.153846,4402.564102,4187.179487,4202.564102,4507.179487,4182.564102,4633.846153,3987.179488,4052.820512
122,4379.487179,4541.025641,4624.102564,4243.589743,4490.256410,4161.538461,4395.897435,4183.076923,4201.538461,4489.230769,4186.666666,4630.769230,3977.435898,4043.589743
123,4376.923076,4538.974358,4625.128205,4246.666666,4486.153846,4163.589743,4397.435897,4182.564102,4201.025641,4477.948717,4184.102564,4628.717948,3971.282052,4037.948717
124,4387.692307,4560.000000,4631.282051,4250.769230,4488.205128,4170.256410,4408.205128,4188.717948,4202.564102,4487.179487,4184.102564,4633.333333,3982.051283,4046.666666
125,4388.717948,4564.102564,4630.256410,4250.769230,4495.897435,4170.769230,4409.743589,4190.769230,4208.717948,4499.487179,4188.205128,4633.333333,3981.025642,4049.743589
126,4380.512820,4549.230769,4622.051282,4246.666666,4496.923076,4167.179487,4404.102564,4188.205128,4211.282051,4501.538461,4185.128205,4623.076923,3974.871795,4040.000000
127,4380.512820,4550.769230,4619.487179,4247.179487,4491.794871,4168.717948,4406.666666,4188.717948,4207.179487,4497.435897,4174.358974,4616.410256,3973.333334,4036.923076
128,4380.000000,4551.282051,4622.051282,4247.692307,4490.769230,4167.692307,4406.153846,4188.717948,4202.051282,4491.794871,4170.769230,4617.435897,3962.564103,4037.948717
129,4374.871794,4540.000000,4621.025641,4245.641025,4490.769230,4163.589743,4400.000000,4185.128205,4202.051282,4491.282051,4179.487179,4617.948717,3960.000000,4033.333333
130,4378.461538,4537.948717,4620.000000,4248.717948,4491.794871,4167.692307,4403.076923,4186.666666,4204.102564,4495.897435,4188.205128,4618.461538,3977.435898,4038.461538
131,4381.025641,4541.025641,4622.051282,4250.769230,4497.435897,4166.666666,4403.589743,4188.717948,4203.589743,4491.282051,4183.076923,4618.974358,3981.025642,4046.666666
132,4373.333333,4536.923076,4618.974358,4243.589743,4485.641025,4154.871794,4390.769230,4180.000000,4198.461538,4484.102564,4168.717948,4616.923076,3966.666667,4039.487179
133,4371.794871,4535.897435,4617.435897,4240.512820,4468.717948,4148.717948,4383.589743,4175.384615,4197.948717,4487.179487,4168.717948,4616.923076,3968.205129,4032.820512
134,4380.512820,4543.076923,4623.076923,4249.230769,4478.974358,4152.820512,4391.282051,4182.564102,4202.051282,4488.717948,4184.615384,4620.000000,3972.307693,4042.051282
135,4376.410256,4538.461538,4623.589743,4251.794871,4497.435897,4161.025641,4395.897435,4181.025641,4195.897435,4484.615384,4188.205128,4617.948717,3961.538462,4044.615384
136,4362.051282,4521.538461,4620.000000,4246.666666,4493.846153,4165.128205,4392.820512,4170.769230,4184.615384,4482.564102,4170.769230,4609.230769,3955.897436,4033.846153
137,4363.589743,4521.025641,4620.512820,4246.153846,4488.205128,4161.025641,4393.846153,4169.743589,4185.641025,4481.538461,4165.128205,4605.641025,3963.589744,4028.717948
138,4372.307692,4530.769230,4619.487179,4248.205128,4494.871794,4154.358974,4393.846153,4172.307692,4187.692307,4472.820512,4172.307692,4608.205128,3965.641026,4030.769230
139,4369.743589,4528.205128,4617.435897,4247.692307,4491.282051,4152.820512,4391.282051,4170.769230,4183.076923,4471.282051,4167.692307,4610.256410,3953.846154,4031.794871
140,4371.794871,4528.205128,4623.076923,4247.692307,4480.512820,4154.871794,4391.794871,4171.794871,4186.153846,4484.615384,4166.153846,4608.717948,3949.743590,4037.435897
141,4375.384615,4531.282051,4625.641025,4247.692307,4475.384615,4150.769230,4388.205128,4170.769230,4188.717948,4478.461538,4171.282051,4605.128205,3953.846154,4037.435897
142,4368.205128,4527.179487,4619.487179,4242.564102,4475.384615,4141.025641,4378.974358,4166.666666,4177.435897,4461.025641,4164.102564,4601.538461,3954.871795,4029.230769
143,4366.666666,4525.641025,4618.461538,4237.435897,4476.410256,4140.512820,4380.000000,4167.179487,4170.769230,4464.615384,4154.358974,4597.948717,3954.871795,4028.205128
144,4373.846153,4523.589743,4622.564102,4240.512820,4476.923076,4150.769230,4387.179487,4167.692307,4178.974358,4475.897435,4160.512820,4598.461538,3957.948718,4033.333333
145,4374.871794,4520.512820,4623.589743,4247.179487,4476.410256,4153.846153,4384.615384,4172.820512,4185.641025,4477.435897,4168.717948,4602.564102,3958.974359,4035.897435
146,4370.256410,4531.794871,4623.076923,4248.205128,4474.871794,4149.743589,4380.512820,4183.589743,4183.589743,4473.846153,4168.717948,4603.589743,3954.871795,4037.435897
147,4372.307692,4537.435897,4626.153846,4248.717948,4478.461538,4151.282051,4384.615384,4194.358974,4182.051282,4469.743589,4170.256410,4600.512820,3956.410257,4035.897435
148,4374.871794,4525.641025,4625.128205,4251.282051,4488.717948,4154.358974,4387.179487,4200.000000,4184.615384,4470.256410,4172.820512,4601.538461,3962.051283,4032.820512
149,4373.846153,4530.256410,4623.076923,4250.769230,4494.358974,4157.435897,4389.743589,4205.128205,4187.692307,4479.487179,4168.205128,4602.564102,3961.538462,4037.948717
150,4371.282051,4537.948717,4625.128205,4246.666666,4487.179487,4156.923076,4389.743589,4199.487179,4183.076923,4476.923076,4163.589743,4594.358974,3954.358975,4036.410256
151,4366.153846,4524.615384,4624.102564,4244.102564,4476.410256,4147.179487,4380.512820,4187.692307,4169.743589,4462.051282,4166.666666,4589.230769,3943.076924,4024.102564
152,4365.128205,4513.333333,4620.512820,4246.153846,4472.820512,4141.025641,4375.384615,4188.717948,4166.153846,4460.000000,4166.666666,4592.820512,3936.923077,4026.666666
153,4367.179487,4515.897435,4622.564102,4250.256410,4473.846153,4146.666666,4381.025641,4192.307692,4171.282051,4461.538461,4162.051282,4592.307692,3943.589744,4037.948717
154,4369.230769,4520.000000,4623.589743,4247.179487,4473.333333,4150.256410,4384.615384,4189.743589,4169.743589,4457.435897,4165.641025,4586.666666,3950.769231,4034.871794
155,4369.743589,4525.128205,4620.512820,4242.051282,4470.769230,4144.102564,4381.538461,4190.256410,4168.717948,4455.897435,4169.230769,4585.641025,3946.666667,4027.179487
156,4367.692307,4528.717948,4619.487179,4243.076923,4471.794871,4141.025641,4379.487179,4195.384615,4170.256410,4461.538461,4157.435897,4586.153846,3940.512821,4027.179487
157,4364.102564,4517.435897,4621.025641,4245.128205,4475.897435,4147.179487,4383.076923,4199.487179,4167.179487,4467.692307,4148.205128,4585.128205,3938.974359,4026.153846
158,4366.153846,4506.153846,4622.564102,4246.666666,4477.948717,4152.307692,4390.256410,4203.589743,4170.256410,4469.743589,4156.923076,4589.230769,3947.179488,4031.282051
159,4370.256410,4512.820512,4624.615384,4247.179487,4478.461538,4151.794871,4393.333333,4204.615384,4181.025641,4468.205128,4167.692307,4591.282051,3951.794872,4037.948717
160,4365.128205,4524.102564,4620.512820,4236.923076,4477.948717,4148.717948,4387.692307,4203.589743,4184.102564,4462.051282,4169.743589,4586.666666,3943.589744,4029.743589
161,4360.000000,4524.102564,4616.923076,4230.769230,4473.333333,4146.153846,4387.179487,4208.205128,4182.051282,4457.948717,4170.769230,4586.666666,3943.076924,4025.128205
162,4362.564102,4514.358974,4622.564102,4238.461538,4472.820512,4148.717948,4390.256410,4209.230769,4181.538461,4461.538461,4168.205128,4590.256410,3957.435898,4033.846153
163,4363.589743,4508.717948,4627.179487,4240.000000,4477.435897,4154.358974,4389.743589,4203.589743,4174.871794,4464.102564,4164.102564,4588.205128,3957.435898,4036.410256
164,4360.000000,4506.153846,4624.615384,4233.333333,4478.974358,4149.743589,4387.692307,4202.051282,4170.256410,4461.538461,4167.692307,4584.615384,3942.051283,4029.743589
165,4355.897435,4504.615384,4621.025641,4232.820512,4475.384615,4140.000000,4384.102564,4202.564102,4170.769230,4460.512820,4165.128205,4585.128205,3938.461539,4028.717948
166,4354.871794,4504.102564,4620.000000,4235.897435,4468.717948,4138.974358,4381.538461,4200.512820,4168.205128,4459.487179,4158.974358,4586.666666,3943.076924,4029.230769
167,4355.384615,4504.615384,4620.000000,4233.846153,4460.512820,4138.461538,4380.512820,4205.128205,4173.846153,4458.461538,4160.512820,4586.153846,3942.051283,4027.179487
168,4360.512820,4509.230769,4624.102564,4232.820512,4467.692307,4140.512820,4383.076923,4214.358974,4184.102564,4471.282051,4162.051282,4586.666666,3944.615385,4029.743589
169,4364.102564,4511.282051,4625.641025,4232.307692,4487.692307,4149.743589,4388.205128,4216.923076,4185.128205,4478.974358,4156.410256,4587.692307,3950.256411,4029.230769
170,4358.974358,4504.615384,4620.000000,4231.794871,4489.230769,4151.794871,4388.717948,4215.897435,4183.076923,4463.589743,4154.358974,4582.564102,3946.153847,4023.076923
171,4355.384615,4501.025641,4617.435897,4234.358974,4474.358974,4148.205128,4389.230769,4216.410256,4184.615384,4455.897435,4160.512820,4577.948717,3940.000000,4025.128205
172,4360.000000,4513.333333,4620.512820,4233.846153,4473.333333,4149.230769,4392.820512,4216.410256,4183.589743,4465.128205,4166.153846,4580.512820,3949.743590,4035.384615
173,4367.179487,4524.102564,4626.153846,4233.333333,4486.153846,4152.820512,4395.897435,4215.897435,4182.051282,4461.538461,4165.128205,4584.102564,3961.025642,4037.948717
174,4372.820512,4526.666666,4632.820512,4238.461538,4493.846153,4158.974358,4403.076923,4216.923076,4189.743589,4457.948717,4165.128205,4589.230769,3962.564103,4041.538461
175,4381.538461,4533.333333,4635.897435,4247.179487,4503.076923,4169.230769,4412.307692,4218.974358,4195.384615,4474.871794,4179.487179,4598.974358,3969.230770,4054.358974
176,4386.666666,4541.538461,4634.871794,4249.230769,4510.256410,4171.794871,4412.820512,4216.923076,4191.282051,4484.102564,4188.205128,4603.076923,3979.487180,4058.461538
177,4381.538461,4535.384615,4633.333333,4244.615384,4498.974358,4165.641025,4407.692307,4214.358974,4189.743589,4476.923076,4172.820512,4598.974358,3976.410257,4050.769230
178,4378.461538,4528.717948,4632.820512,4246.153846,4497.435897,4167.692307,4410.256410,4223.589743,4196.410256,4471.794871,4170.256410,4600.000000,3972.307693,4050.256410
179,4387.692307,4534.358974,4633.333333,4249.230769,4512.820512,4178.974358,4420.512820,4233.333333,4204.615384,4473.846153,4193.333333,4610.256410,3982.051283,4054.358974
180,4395.384615,4542.051282,4635.897435,4249.230769,4511.282051,4187.179487,4429.230769,4233.846153,4211.282051,4483.076923,4201.538461,4616.923076,3991.794872,4058.974358
181,4395.384615,4543.589743,4636.410256,4253.846153,4504.615384,4186.666666,4430.769230,4239.487179,4215.897435,4492.307692,4193.846153,4617.435897,3991.794872,4065.128205
182,4394.871794,4540.000000,4634.358974,4259.487179,4518.461538,4186.153846,4429.230769,4250.256410,4216.923076,4491.282051,4200.000000,4615.384615,3989.743590,4066.153846
183,4392.820512,4538.461538,4632.307692,4256.410256,4525.641025,4189.230769,4435.897435,4251.282051,4221.538461,4491.282051,4207.179487,4616.410256,3995.897436,4062.564102
184,4387.179487,4539.487179,4627.179487,4248.717948,4517.435897,4188.205128,4436.923076,4246.153846,4223.589743,4493.333333,4201.538461,4614.358974,4001.538461,4058.461538
185,4384.615384,4539.487179,4624.102564,4245.128205,4520.512820,4186.666666,4432.307692,4247.179487,4220.000000,4491.794871,4201.538461,4612.820512,3998.461539,4057.435897
186,4385.641025,4537.435897,4626.666666,4249.230769,4521.025641,4188.205128,4435.384615,4249.230769,4220.512820,4494.871794,4207.692307,4616.923076,3998.461539,4060.512820
187,4381.025641,4532.820512,4623.589743,4254.358974,4505.641025,4185.128205,4434.358974,4247.179487,4218.974358,4493.333333,4200.512820,4616.923076,4003.076923,4056.410256
188,4378.461538,4536.923076,4621.025641,4252.820512,4505.641025,4187.179487,4429.743589,4247.179487,4218.974358,4488.205128,4195.384615,4613.333333,4003.589743,4049.743589
189,4388.717948,4552.307692,4628.205128,4255.897435,4523.589743,4201.025641,4436.410256,4258.461538,4236.923076,4506.153846,4215.897435,4618.974358,4009.743589,4060.000000
190,4397.435897,4558.974358,4629.743589,4267.179487,4527.692307,4208.717948,4444.615384,4265.641025,4248.717948,4524.102564,4234.358974,4624.615384,4018.974358,4072.307692
191,4395.384615,4554.871794,4624.615384,4270.769230,4523.589743,4203.076923,4444.615384,4256.923076,4239.487179,4517.435897,4223.589743,4623.589743,4015.897435,4069.230769
192,4387.179487,4549.230769,4622.051282,4266.153846,4525.641025,4202.564102,4445.128205,4250.256410,4230.769230,4503.589743,4202.564102,4617.948717,4006.666666,4056.923076
193,4377.435897,4540.000000,4617.435897,4261.025641,4515.897435,4198.461538,4440.512820,4246.153846,4228.717948,4491.794871,4198.974358,4607.179487,4000.512820,4044.102564
194,4378.974358,4540.512820,4617.435897,4261.025641,4509.743589,4192.307692,4435.384615,4247.692307,4230.256410,4494.871794,4212.820512,4609.743589,4001.025641,4047.179487
195,4393.333333,4553.846153,4632.820512,4271.794871,4523.589743,4200.000000,4439.487179,4258.461538,4239.487179,4514.358974,4224.102564,4627.692307,4015.897435,4066.666666
196,4391.282051,4552.307692,4635.384615,4276.410256,4531.794871,4202.051282,4435.384615,4258.461538,4237.435897,4514.871794,4210.256410,4627.692307,4016.923076,4065.128205
197,4374.358974,4537.435897,4620.512820,4265.641025,4517.948717,4188.205128,4425.128205,4245.128205,4223.076923,4501.538461,4198.461538,4611.794871,3997.435898,4047.179487
198,4373.333333,4528.717948,4617.948717,4262.051282,4506.153846,4183.076923,4432.307692,4245.128205,4225.128205,4501.538461,4210.256410,4611.282051,3991.282052,4045.641025
199,4378.974358,4529.230769,4623.589743,4267.179487,4506.153846,4188.717948,4442.564102,4253.846153,4234.358974,4503.076923,4214.358974,4615.897435,4002.564102,4053.846153
200,4378.461538,4540.000000,4621.538461,4264.102564,4510.256410,4194.871794,4442.564102,4252.307692,4230.769230,4497.948717,4203.589743,4613.333333,4008.717948,4056.410256
201,4380.512820,4550.256410,4619.487179,4261.538461,4510.769230,4199.487179,4441.538461,4250.256410,4229.230769,4498.974358,4204.615384,4616.410256,4004.102564,4053.333333
202,4383.076923,4551.794871,4622.051282,4271.282051,4510.256410,4199.487179,4434.871794,4252.307692,4232.820512,4500.000000,4206.666666,4618.461538,4003.076923,4051.282051
203,4383.076923,4551.794871,4622.564102,4280.512820,4516.923076,4197.435897,4430.769230,4257.435897,4231.794871,4502.564102,4202.051282,4616.923076,4011.282051,4054.871794
204,4380.000000,4545.128205,4621.025641,4280.512820,4516.410256,4200.000000,4438.461538,4265.128205,4233.846153,4510.769230,4209.230769,4614.871794,4014.871794,4055.897435
205,4373.333333,4535.384615,4619.487179,4273.333333,4507.692307,4200.000000,4441.538461,4262.564102,4235.384615,4512.820512,4215.384615,4609.743589,4001.538461,4050.769230
206,4369.743589,4537.948717,4616.923076,4268.205128,4508.205128,4192.307692,4432.820512,4250.769230,4226.153846,4504.102564,4206.153846,4603.589743,3990.256411,4043.076923
207,4368.205128,4542.564102,4615.384615,4265.128205,4511.794871,4185.128205,4428.205128,4243.076923,4215.897435,4491.282051,4197.948717,4599.487179,3993.846154,4039.487179
208,4365.641025,4536.410256,4613.846153,4264.615384,4506.666666,4184.102564,4428.205128,4243.589743,4212.820512,4483.076923,4200.000000,4595.897435,3996.410257,4039.487179
209,4368.205128,4533.846153,4612.307692,4266.153846,4503.589743,4186.666666,4431.282051,4247.179487,4221.538461,4491.282051,4205.641025,4595.384615,3997.948718,4043.589743
210,4371.282051,4537.948717,4615.384615,4268.205128,4508.717948,4186.153846,4435.384615,4248.205128,4230.256410,4502.051282,4203.589743,4597.435897,4001.025641,4044.615384
211,4369.230769,4537.435897,4614.871794,4269.230769,4507.692307,4185.641025,4431.794871,4246.666666,4223.076923,4494.871794,4201.538461,4593.333333,3995.384616,4038.461538
212,4370.256410,4538.974358,4612.307692,4273.333333,4510.256410,4188.205128,4428.205128,4246.153846,4219.487179,4489.230769,4201.025641,4593.846153,3985.641026,4034.358974
213,4372.820512,4546.666666,4616.410256,4279.487179,4520.512820,4188.717948,4432.820512,4247.179487,4233.333333,4503.076923,4198.974358,4600.512820,3998.974359,4038.974358
214,4369.743589,4546.153846,4619.487179,4275.384615,4516.410256,4187.179487,4432.820512,4240.512820,4233.333333,4510.256410,4198.974358,4593.846153,4012.307692,4044.615384
215,4368.717948,4541.538461,4616.410256,4265.641025,4504.615384,4186.666666,4426.666666,4234.871794,4217.435897,4502.564102,4202.564102,4589.230769,3997.948718,4043.589743
216,4366.153846,4535.897435,4613.846153,4263.589743,4506.666666,4179.487179,4425.128205,4233.846153,4216.410256,4495.384615,4203.076923,4594.871794,3982.564103,4036.410256
217,4360.512820,4525.641025,4613.333333,4265.128205,4502.051282,4169.743589,4425.128205,4232.307692,4218.974358,4490.256410,4199.487179,4591.282051,3985.641026,4031.794871
218,4363.589743,4527.692307,4614.871794,4261.025641,4492.820512,4175.897435,4427.179487,4235.384615,4215.384615,4495.897435,4200.512820,4586.666666,3994.871795,4038.461538
219,4371.794871,4541.025641,4620.000000,4263.589743,4501.538461,4186.666666,4431.282051,4241.025641,4218.974358,4507.179487,4202.051282,4594.871794,3999.487180,4048.205128
220,4371.282051,4541.538461,4620.000000,4274.358974,4508.717948,4184.615384,4430.769230,4241.025641,4220.512820,4497.948717,4199.487179,4597.948717,3986.666667,4043.589743
221,4365.128205,4531.794871,4616.410256,4271.282051,4502.051282,4178.974358,4427.179487,4236.923076,4215.384615,4481.025641,4196.923076,4590.769230,3969.230770,4033.333333
222,4360.000000,4528.205128,4613.333333,4261.538461,4505.641025,4177.948717,4426.153846,4236.410256,4217.948717,4480.512820,4193.333333,4587.179487,3976.410257,4029.230769
223,4355.384615,4523.076923,4607.179487,4258.461538,4503.589743,4173.333333,4426.666666,4234.358974,4219.487179,4488.205128,4185.641025,4583.076923,3986.666667,4027.692307
224,4353.846153,4517.948717,4607.179487,4260.000000,4492.820512,4168.205128,4423.076923,4230.769230,4208.205128,4491.794871,4177.948717,4578.974358,3974.358975,4027.179487
225,4358.461538,4525.128205,4614.358974,4262.564102,4503.076923,4168.717948,4417.435897,4228.205128,4203.076923,4488.205128,4186.666666,4583.076923,3969.230770,4027.692307
226,4365.641025,4537.435897,4616.923076,4264.615384,4505.128205,4170.769230,4420.000000,4228.717948,4213.846153,4488.205128,4200.512820,4591.794871,3977.435898,4033.846153
227,4371.282051,4541.538461,4617.948717,4264.615384,4493.846153,4171.794871,4427.692307,4234.871794,4222.051282,4503.589743,4200.512820,4597.435897,3985.128206,4044.615384
228,4367.692307,4535.384615,4619.487179,4265.128205,4497.435897,4170.256410,4424.102564,4237.435897,4218.974358,4508.717948,4201.538461,4596.923076,3993.333334,4047.692307
229,4361.538461,4527.179487,4615.384615,4267.692307,4500.000000,4168.205128,4414.871794,4233.846153,4217.435897,4493.846153,4202.051282,4591.282051,3994.358975,4036.410256
230,4358.461538,4522.564102,4610.769230,4263.589743,4489.743589,4168.717948,4413.333333,4231.282051,4218.974358,4490.769230,4187.179487,4585.128205,3978.974359,4029.230769
231,4357.435897,4522.051282,4611.282051,4260.512820,4491.794871,4169.743589,4418.974358,4234.358974,4217.435897,4504.102564,4183.076923,4582.051282,3968.717949,4030.256410
232,4353.846153,4524.102564,4610.769230,4263.589743,4495.384615,4168.205128,4421.025641,4235.384615,4217.948717,4506.153846,4198.461538,4584.102564,3971.282052,4029.230769
233,4350.769230,4518.461538,4607.692307,4265.128205,4490.769230,4166.666666,4414.358974,4232.307692,4216.923076,4498.974358,4196.410256,4584.615384,3977.435898,4026.666666
234,4355.384615,4518.974358,4611.794871,4263.076923,4501.538461,4169.230769,4414.871794,4231.794871,4216.410256,4492.307692,4182.564102,4584.102564,3983.076924,4027.692307
235,4363.076923,4533.333333,4620.000000,4262.051282,4513.846153,4171.794871,4424.615384,4234.871794,4220.000000,4489.743589,4192.820512,4591.282051,3985.641026,4032.307692
236,4365.128205,4537.435897,4620.512820,4264.615384,4503.589743,4171.282051,4426.153846,4234.871794,4218.974358,4499.487179,4203.076923,4597.948717,3984.615385,4034.871794
237,4363.589743,4527.692307,4616.410256,4267.179487,4492.820512,4171.282051,4422.051282,4231.282051,4215.384615,4506.666666,4194.358974,4592.307692,3982.051283,4036.923076
238,4363.076923,4524.102564,4613.333333,4268.205128,4500.000000,4170.769230,4420.512820,4229.230769,4213.846153,4498.974358,4186.666666,4584.615384,3976.410257,4036.923076
239,4357.948717,4525.641025,4610.256410,4263.076923,4503.076923,4168.205128,4414.871794,4227.692307,4206.666666,4488.205128,4176.410256,4583.076923,3966.666667,4027.692307
240,4354.358974,4522.564102,4611.282051,4257.948717,4491.794871,4167.179487,4411.794871,4227.179487,4204.102564,4490.256410,4175.897435,4583.076923,3963.589744,4023.589743
241,4360.000000,4524.102564,4617.948717,4262.564102,4487.692307,4167.692307,4419.487179,4229.230769,4212.820512,4498.461538,4191.282051,4587.692307,3968.717949,4032.307692
242,4360.000000,4521.025641,4617.435897,4263.076923,4493.846153,4167.179487,4421.025641,4230.769230,4211.794871,4499.487179,4195.384615,4591.282051,3972.820513,4037.435897
243,4351.794871,4510.256410,4614.358974,4255.384615,4494.358974,4165.641025,4415.897435,4230.256410,4205.128205,4491.794871,4187.179487,4585.641025,3974.358975,4029.743589
244,4349.743589,4513.846153,4615.897435,4251.282051,4491.282051,4167.179487,4421.025641,4233.333333,4213.846153,4488.205128,4188.205128,4583.589743,3971.282052,4022.051282
245,4352.307692,4522.564102,4615.384615,4252.820512,4491.282051,4169.230769,4427.179487,4237.948717,4223.076923,4494.358974,4188.205128,4588.717948,3964.102565,4023.076923
246,4348.717948,4518.974358,4608.205128,4249.743589,4492.820512,4168.205128,4419.487179,4236.410256,4217.948717,4499.487179,4181.538461,4581.025641,3963.076924,4024.615384
247,4347.692307,4517.948717,4609.230769,4246.153846,4494.358974,4166.666666,4414.358974,4230.769230,4214.358974,4496.410256,4181.025641,4569.230769,3973.846154,4024.615384
248,4355.897435,4522.564102,4616.923076,4253.846153,4493.333333,4167.692307,4420.512820,4230.256410,4215.384615,4490.256410,4186.153846,4577.948717,3974.871795,4027.692307
249,4363.076923,4523.076923,4621.538461,4262.051282,4494.871794,4167.692307,4424.102564,4232.820512,4215.897435,4490.769230,4193.333333,4592.307692,3970.769231,4034.871794
250,4364.615384,4526.153846,4624.102564,4264.102564,4494.871794,4168.717948,4421.538461,4232.820512,4220.512820,4497.435897,4194.358974,4591.282051,3975.897436,4040.000000
251,4360.000000,4524.615384,4617.435897,4261.538461,4490.256410,4166.666666,4419.487179,4229.743589,4218.974358,4495.897435,4185.641025,4583.589743,3977.435898,4036.923076
252,4350.769230,4511.282051,4607.179487,4253.333333,4491.794871,4158.461538,4412.820512,4222.051282,4205.128205,4489.230769,4184.615384,4574.358974,3967.179488,4027.179487
253,4344.102564,4504.102564,4609.230769,4245.128205,4492.820512,4150.769230,4408.205128,4214.358974,4202.051282,4487.179487,4184.102564,4568.717948,3962.564103,4017.948717
254,4347.692307,4510.256410,4616.923076,4249.230769,4485.641025,4149.743589,4410.769230,4214.871794,4214.358974,4490.256410,4180.512820,4575.384615,3967.692308,4020.512820
255,4357.948717,4522.051282,4617.948717,4261.538461,4490.769230,4157.948717,4417.435897,4220.512820,4218.461538,4493.333333,4184.615384,4585.641025,3968.717949,4028.205128
256,4362.051282,4529.743589,4619.487179,4264.102564,4505.128205,4166.153846,4420.512820,4220.512820,4213.333333,4492.307692,4185.641025,4586.666666,3966.666667,4032.820512
257,4357.948717,4523.076923,4620.512820,4259.487179,4501.025641,4163.076923,4416.923076,4217.435897,4211.282051,4491.282051,4180.512820,4585.128205,3971.282052,4035.384615
258,4354.358974,4510.256410,4614.358974,4254.358974,4490.256410,4153.846153,4413.333333,4217.948717,4205.641025,4486.666666,4183.589743,4585.128205,3973.846154,4031.794871
259,4351.794871,4506.153846,4610.769230,4247.179487,4489.230769,4152.820512,4411.794871,4215.384615,4198.461538,4476.923076,4187.179487,4581.538461,3965.128206,4025.128205
