,AF3,F7,F3,FC5,T7,P7,O1,O2,P8,T8,FC6,F4,F8,AF4
0,4275.384615,4519.487179,4314.358974,4264.102564,4455.384615,4077.948717,4428.717948,4158.461538,4211.794871,4486.666666,4228.717948,4451.794871,3839.487180,4067.179487
1,4273.333333,4524.615384,4310.256410,4269.743589,4450.769230,4076.410256,4427.179487,4156.410256,4212.307692,4483.076923,4235.384615,4448.205128,3832.307693,4067.692307
2,4271.794871,4522.051282,4303.589743,4265.641025,4449.743589,4069.230769,4421.025641,4146.153846,4204.102564,4484.615384,4235.384615,4443.589743,3832.307693,4063.076923
3,4260.512820,4503.076923,4301.538461,4260.000000,4445.641025,4067.692307,4411.794871,4139.487179,4198.461538,4481.538461,4223.589743,4436.410256,3827.179488,4056.923076
4,4257.948717,4502.564102,4307.179487,4260.512820,4442.564102,4068.717948,4410.256410,4148.717948,4201.538461,4482.051282,4201.538461,4438.461538,3827.179488,4064.102564
5,4273.333333,4522.564102,4314.358974,4265.128205,4451.794871,4067.179487,4416.410256,4157.435897,4205.641025,4487.179487,4205.641025,4448.717948,3840.512821,4077.435897
6,4279.487179,4524.615384,4315.384615,4263.589743,4457.948717,4067.692307,4416.923076,4151.282051,4204.102564,4477.435897,4238.974358,4451.282051,3840.000000,4078.461538
7,4268.205128,4512.307692,4311.794871,4259.487179,4452.307692,4072.307692,4412.820512,4141.538461,4195.384615,4463.076923,4243.589743,4445.641025,3828.717949,4071.794871
8,4263.076923,4514.871794,4312.820512,4264.615384,4446.153846,4076.923076,4418.461538,4145.128205,4191.794871,4471.282051,4222.564102,4441.538461,3831.794872,4069.230769
9,4262.564102,4520.512820,4315.897435,4265.128205,4441.538461,4075.897435,4423.076923,4150.769230,4197.435897,4487.179487,4221.025641,4445.128205,3832.820513,4069.743589
10,4257.948717,4508.717948,4313.846153,4250.256410,4436.410256,4067.692307,4412.820512,4148.205128,4200.512820,4483.076923,4218.974358,4442.051282,3818.974359,4064.102564
11,4262.051282,4505.128205,4313.333333,4249.230769,4438.461538,4066.153846,4413.333333,4153.846153,4205.128205,4481.538461,4211.282051,4440.512820,3825.128206,4063.589743
12,4273.333333,4524.102564,4325.641025,4267.692307,4450.256410,4074.358974,4426.666666,4166.666666,4216.923076,4491.794871,4228.717948,4456.923076,3845.641026,4077.435897
13,4274.871794,4528.717948,4334.358974,4269.743589,4453.846153,4073.333333,4421.025641,4166.666666,4217.948717,4488.205128,4242.051282,4464.102564,3836.410257,4081.538461
14,4268.717948,4519.487179,4329.743589,4260.512820,4447.692307,4065.641025,4408.205128,4157.948717,4208.717948,4482.564102,4232.820512,4454.358974,3823.076924,4072.307692
15,4267.179487,4522.564102,4325.641025,4262.564102,4446.153846,4071.794871,4415.897435,4160.000000,4207.692307,4487.692307,4235.384615,4452.307692,3834.358975,4072.307692
16,4267.179487,4523.076923,4328.717948,4265.641025,4445.128205,4081.538461,4427.179487,4164.102564,4210.769230,4484.615384,4234.871794,4454.871794,3841.538462,4075.384615
17,4262.564102,4510.769230,4327.692307,4265.641025,4438.974358,4078.974358,4425.641025,4160.512820,4204.102564,4484.102564,4214.871794,4448.717948,3831.282052,4069.230769
18,4255.384615,4507.179487,4317.948717,4265.641025,4436.923076,4071.794871,4420.000000,4151.282051,4193.846153,4482.051282,4202.051282,4442.051282,3822.564103,4058.461538
19,4249.230769,4510.256410,4313.846153,4261.025641,4442.564102,4071.282051,4417.435897,4147.179487,4188.205128,4466.666666,4208.717948,4439.487179,3819.487180,4052.307692
20,4252.307692,4510.769230,4324.615384,4258.974358,4445.641025,4073.846153,4420.512820,4156.410256,4195.897435,4468.205128,4221.025641,4442.051282,3816.923077,4056.410256
21,4259.487179,4516.410256,4333.846153,4262.564102,4440.512820,4072.820512,4423.589743,4164.615384,4205.641025,4486.153846,4232.307692,4454.358974,3821.025642,4068.205128
22,4261.538461,4523.589743,4335.384615,4262.051282,4443.076923,4073.333333,4427.692307,4168.717948,4208.717948,4488.717948,4228.205128,4458.461538,3832.307693,4071.794871
23,4258.461538,4521.538461,4337.435897,4265.128205,4448.205128,4075.384615,4433.846153,4171.794871,4211.794871,4486.153846,4207.179487,4449.230769,3835.384616,4068.205128
24,4257.435897,4518.461538,4339.487179,4273.846153,4444.615384,4076.923076,4430.769230,4168.717948,4210.769230,4481.538461,4207.179487,4449.743589,3829.230770,4066.153846
25,4261.538461,4525.128205,4340.512820,4277.435897,4442.564102,4084.615384,4428.205128,4167.692307,4213.846153,4480.000000,4238.461538,4461.025641,3828.205129,4069.743589
26,4270.256410,4534.358974,4347.179487,4281.025641,4453.333333,4092.307692,4439.487179,4173.333333,4224.615384,4494.871794,4260.000000,4462.564102,3836.923077,4077.948717
27,4269.743589,4526.666666,4346.666666,4280.000000,4456.923076,4089.230769,4437.948717,4171.794871,4221.025641,4497.948717,4245.641025,4460.000000,3842.051283,4076.923076
28,4256.410256,4512.307692,4339.487179,4270.769230,4447.179487,4079.487179,4416.923076,4161.025641,4206.153846,4484.615384,4222.051282,4460.000000,3834.358975,4066.153846
29,4251.794871,4512.307692,4341.025641,4269.743589,4447.179487,4074.358974,4413.333333,4164.615384,4211.282051,4489.743589,4217.435897,4458.461538,3827.692308,4064.102564
30,4256.923076,4525.641025,4347.692307,4267.179487,4451.794871,4073.846153,4425.641025,4175.384615,4227.179487,4495.897435,4233.846153,4459.487179,3829.230770,4071.282051
31,4256.410256,4530.256410,4345.128205,4261.025641,4445.128205,4073.846153,4427.692307,4173.846153,4221.538461,4486.153846,4245.641025,4463.076923,3826.153847,4072.820512
32,4249.743589,4515.897435,4338.461538,4268.717948,4438.974358,4069.230769,4424.615384,4165.128205,4206.666666,4482.564102,4229.743589,4456.410256,3817.435898,4063.589743
33,4247.179487,4507.692307,4337.435897,4274.358974,4440.000000,4066.666666,4425.641025,4164.102564,4205.128205,4483.589743,4216.410256,4449.230769,3825.641026,4056.410256
34,4249.743589,4512.307692,4343.589743,4263.589743,4440.512820,4069.230769,4424.615384,4165.641025,4208.205128,4478.461538,4224.102564,4453.846153,3832.307693,4057.948717
35,4252.820512,4514.871794,4347.692307,4264.102564,4442.564102,4068.205128,4421.025641,4163.076923,4204.615384,4480.512820,4222.564102,4457.948717,3822.564103,4063.076923
36,4254.871794,4521.538461,4349.230769,4269.230769,4449.743589,4065.128205,4423.076923,4169.230769,4210.256410,4492.820512,4212.820512,4461.025641,3824.615385,4066.153846
37,4257.948717,4532.820512,4356.923076,4263.589743,4455.384615,4068.205128,4429.743589,4178.461538,4223.589743,4490.769230,4230.256410,4468.205128,3828.717949,4071.794871
38,4263.589743,4532.820512,4361.538461,4271.282051,4450.769230,4074.871794,4435.897435,4181.025641,4224.102564,4483.076923,4256.923076,4471.794871,3825.128206,4076.410256
39,4263.076923,4524.615384,4357.948717,4281.025641,4443.589743,4074.871794,4435.897435,4180.000000,4220.000000,4491.282051,4251.794871,4471.794871,3834.871795,4074.871794
40,4257.435897,4519.487179,4354.871794,4272.307692,4445.128205,4069.743589,4431.282051,4177.435897,4217.948717,4494.871794,4236.923076,4469.230769,3847.692308,4072.307692
41,4256.923076,4515.897435,4356.923076,4265.641025,4449.230769,4068.205128,4427.692307,4176.410256,4216.923076,4485.128205,4230.256410,4467.692307,3838.461539,4071.794871
42,4257.948717,4515.897435,4357.435897,4264.102564,4443.589743,4066.666666,4425.128205,4180.000000,4220.000000,4487.179487,4230.256410,4465.128205,3819.487180,4067.179487
43,4254.358974,4523.589743,4359.487179,4261.025641,4437.435897,4064.102564,4427.692307,4186.153846,4224.102564,4490.769230,4244.102564,4465.641025,3820.512821,4065.641025
44,4257.948717,4532.820512,4366.153846,4262.564102,4445.128205,4066.666666,4435.384615,4188.717948,4223.589743,4482.564102,4257.948717,4471.794871,3844.102565,4073.333333
45,4260.000000,4532.820512,4366.153846,4264.102564,4451.794871,4072.307692,4437.948717,4182.564102,4216.923076,4488.205128,4232.820512,4473.333333,3849.230770,4072.307692
46,4249.743589,4523.589743,4360.512820,4264.615384,4449.230769,4068.717948,4430.256410,4171.794871,4201.025641,4485.128205,4207.179487,4463.589743,3827.692308,4059.487179
47,4243.589743,4516.410256,4360.000000,4267.692307,4447.179487,4059.487179,4424.615384,4170.256410,4193.333333,4466.666666,4223.589743,4458.461538,3817.435898,4053.333333
48,4243.589743,4515.384615,4358.974358,4260.000000,4447.692307,4054.358974,4429.743589,4175.897435,4207.179487,4473.333333,4234.871794,4462.051282,3815.897436,4055.384615
49,4240.512820,4514.358974,4354.358974,4254.358974,4443.589743,4052.307692,4430.769230,4172.820512,4212.307692,4482.564102,4223.589743,4460.512820,3810.256411,4053.333333
50,4239.487179,4520.512820,4356.923076,4260.512820,4438.974358,4054.358974,4428.205128,4171.794871,4203.076923,4469.230769,4220.000000,4461.025641,3817.435898,4053.333333
51,4237.948717,4522.564102,4361.025641,4255.897435,4443.076923,4057.435897,4428.717948,4171.282051,4203.076923,4465.641025,4227.179487,4465.641025,3826.666667,4057.435897
52,4232.820512,4513.333333,4357.435897,4249.743589,4442.051282,4057.948717,4427.692307,4166.153846,4206.153846,4481.538461,4229.743589,4460.000000,3825.128206,4055.897435
53,4237.948717,4520.000000,4359.487179,4265.641025,4434.358974,4058.974358,4432.307692,4169.230769,4207.692307,4495.384615,4230.769230,4460.512820,3833.333334,4059.487179
54,4237.435897,4526.153846,4358.461538,4270.256410,4433.846153,4056.923076,4437.435897,4173.846153,4210.256410,4491.282051,4224.102564,4463.589743,3828.717949,4059.487179
55,4218.974358,4506.666666,4346.153846,4248.717948,4436.923076,4052.307692,4431.282051,4166.153846,4205.641025,4471.282051,4207.179487,4451.794871,3804.102565,4044.102564
56,4218.461538,4491.282051,4349.230769,4246.153846,4436.923076,4058.461538,4432.307692,4163.589743,4204.615384,4465.641025,4209.743589,4447.692307,3804.102565,4042.051282
57,4230.769230,4501.538461,4360.512820,4259.487179,4435.897435,4067.692307,4444.102564,4168.717948,4207.692307,4478.461538,4213.846153,4455.897435,3822.051283,4052.307692
58,4225.128205,4510.256410,4352.820512,4251.794871,4434.358974,4061.025641,4440.512820,4161.538461,4198.461538,4469.230769,4202.564102,4450.256410,3820.512821,4043.589743
59,4220.000000,4505.641025,4345.641025,4245.641025,4434.358974,4052.820512,4433.333333,4149.743589,4188.717948,4451.282051,4200.000000,4445.641025,3801.025642,4037.435897
60,4228.717948,4505.128205,4358.461538,4258.461538,4433.846153,4056.923076,4438.974358,4153.333333,4194.358974,4460.512820,4213.846153,4456.410256,3794.871795,4048.717948
61,4229.230769,4503.589743,4363.076923,4265.641025,4430.769230,4058.461538,4437.948717,4160.000000,4200.000000,4470.769230,4219.487179,4458.974358,3806.153847,4050.256410
62,4226.153846,4502.051282,4358.461538,4264.615384,4432.820512,4054.358974,4431.794871,4154.871794,4194.358974,4468.205128,4207.179487,4453.333333,3815.897436,4046.153846
63,4229.230769,4504.102564,4363.076923,4262.051282,4441.025641,4055.384615,4435.384615,4154.358974,4191.282051,4472.820512,4202.564102,4453.846153,3818.461539,4050.769230
64,4222.564102,4496.923076,4361.025641,4251.282051,4438.974358,4052.307692,4432.820512,4157.435897,4195.384615,4472.307692,4209.743589,4449.230769,3809.743590,4046.153846
65,4221.025641,4493.846153,4355.897435,4252.820512,4431.282051,4044.615384,4423.589743,4153.333333,4193.846153,4464.102564,4210.769230,4448.205128,3795.897436,4041.025641
66,4236.923076,4514.871794,4368.717948,4267.692307,4436.923076,4046.153846,4425.128205,4151.794871,4192.820512,4472.307692,4207.692307,4461.538461,3800.512821,4056.410256
67,4243.076923,4530.256410,4378.461538,4267.692307,4444.102564,4054.358974,4429.230769,4154.358974,4199.487179,4479.487179,4211.794871,4467.179487,3816.410257,4064.615384
68,4235.897435,4509.743589,4369.743589,4262.051282,4444.102564,4055.897435,4428.205128,4153.333333,4202.564102,4466.153846,4217.948717,4461.538461,3813.846154,4054.358974
69,4231.794871,4496.410256,4368.205128,4266.153846,4444.615384,4057.948717,4427.692307,4150.769230,4195.897435,4463.589743,4211.282051,4459.487179,3806.153847,4051.282051
70,4233.846153,4514.871794,4377.435897,4267.179487,4446.666666,4068.717948,4429.743589,4154.871794,4195.897435,4478.461538,4210.256410,4460.000000,3807.179488,4054.871794
71,4233.846153,4520.512820,4373.846153,4264.615384,4443.076923,4074.358974,4430.769230,4156.410256,4196.923076,4477.435897,4214.871794,4454.871794,3797.435898,4051.282051
72,4231.794871,4506.666666,4367.692307,4267.179487,4440.512820,4073.333333,4433.846153,4155.897435,4192.307692,4465.641025,4204.102564,4453.333333,3787.179488,4049.743589
73,4227.179487,4498.461538,4372.307692,4264.615384,4446.666666,4069.230769,4435.897435,4152.307692,4193.846153,4463.589743,4190.769230,4453.333333,3786.666667,4049.743589
74,4221.538461,4497.948717,4375.384615,4256.410256,4442.051282,4058.974358,4430.256410,4143.589743,4192.820512,4457.948717,4193.846153,4447.179487,3783.076924,4037.948717
75,4224.615384,4495.384615,4373.333333,4258.974358,4433.846153,4052.307692,4426.153846,4143.076923,4186.666666,4450.256410,4201.538461,4447.179487,3787.179488,4034.871794
76,4234.871794,4494.871794,4381.538461,4265.641025,4442.564102,4056.923076,4430.256410,4151.794871,4189.230769,4461.025641,4203.076923,4456.923076,3800.000000,4049.230769
77,4240.512820,4498.461538,4390.769230,4263.076923,4447.692307,4057.435897,4430.256410,4153.846153,4196.923076,4475.897435,4210.256410,4457.435897,3791.282052,4053.846153
78,4236.410256,4498.974358,4384.615384,4260.512820,4442.051282,4051.794871,4425.641025,4150.256410,4195.897435,4470.256410,4208.717948,4447.179487,3775.384616,4044.102564
79,4235.897435,4501.538461,4383.589743,4258.974358,4446.666666,4057.435897,4428.717948,4154.871794,4194.871794,4459.487179,4195.384615,4447.692307,3790.769231,4042.051282
80,4238.461538,4500.512820,4389.743589,4244.102564,4447.692307,4060.000000,4430.769230,4152.820512,4195.897435,4463.076923,4193.846153,4449.743589,3806.666667,4044.615384
81,4233.846153,4493.846153,4387.179487,4235.897435,4433.333333,4047.692307,4422.051282,4141.025641,4195.897435,4475.897435,4205.641025,4441.025641,3800.512821,4042.051282
82,4237.435897,4494.871794,4384.102564,4249.230769,4434.871794,4043.589743,4418.461538,4144.102564,4195.897435,4477.948717,4213.333333,4438.461538,3795.897436,4043.076923
83,4243.076923,4498.974358,4385.128205,4251.282051,4448.717948,4050.256410,4423.589743,4149.743589,4193.846153,4469.743589,4213.333333,4440.512820,3797.435898,4045.641025
84,4237.435897,4496.923076,4384.102564,4241.025641,4449.743589,4053.333333,4425.128205,4147.179487,4195.897435,4470.256410,4206.666666,4437.948717,3797.435898,4040.000000
85,4233.846153,4498.461538,4385.641025,4243.589743,4443.076923,4052.820512,4425.128205,4149.230769,4198.974358,4473.846153,4198.974358,4438.461538,3795.897436,4036.410256
86,4241.538461,4504.615384,4392.820512,4251.282051,4444.615384,4050.256410,4425.641025,4148.717948,4195.897435,4469.743589,4209.230769,4443.076923,3804.102565,4046.153846
87,4240.512820,4504.102564,4391.282051,4245.641025,4451.282051,4046.153846,4418.974358,4141.538461,4195.384615,4467.179487,4221.025641,4439.487179,3809.743590,4051.794871
88,4230.256410,4495.897435,4384.102564,4242.051282,4450.769230,4042.564102,4411.794871,4142.564102,4196.410256,4471.794871,4203.076923,4431.282051,3798.461539,4044.102564
89,4231.794871,4498.974358,4389.230769,4247.179487,4444.615384,4043.076923,4418.461538,4151.794871,4196.410256,4475.897435,4188.717948,4431.794871,3793.846154,4041.025641
90,4238.461538,4508.205128,4401.025641,4246.666666,4447.692307,4045.641025,4427.692307,4158.461538,4202.564102,4483.589743,4209.743589,4437.435897,3808.717949,4050.769230
91,4241.025641,4512.820512,4404.102564,4246.666666,4460.512820,4050.256410,4428.717948,4158.461538,4208.205128,4485.641025,4232.820512,4445.128205,3812.307693,4056.410256
92,4237.435897,4508.717948,4398.461538,4253.846153,4462.051282,4050.769230,4424.615384,4150.769230,4196.410256,4471.282051,4224.615384,4446.666666,3802.051283,4052.307692
93,4229.743589,4502.564102,4398.974358,4250.769230,4454.871794,4045.641025,4415.897435,4143.589743,4186.666666,4462.051282,4209.230769,4438.974358,3805.641026,4048.205128
94,4236.410256,4506.666666,4407.692307,4243.076923,4457.435897,4046.666666,4416.923076,4153.846153,4202.051282,4476.923076,4215.384615,4441.025641,3816.923077,4054.358974
95,4250.256410,4518.461538,4412.820512,4255.384615,4463.076923,4054.358974,4431.794871,4169.230769,4220.000000,4499.487179,4226.153846,4456.410256,3823.589744,4067.179487
96,4253.846153,4526.666666,4413.846153,4264.102564,4462.051282,4058.461538,4438.461538,4169.230769,4225.128205,4508.717948,4225.641025,4461.538461,3825.128206,4069.743589
97,4249.743589,4518.974358,4414.358974,4253.333333,4461.025641,4053.333333,4429.230769,4163.589743,4221.538461,4500.000000,4227.179487,4456.923076,3818.461539,4061.538461
98,4246.666666,4503.076923,4412.820512,4253.333333,4458.974358,4047.179487,4424.102564,4162.051282,4214.358974,4485.128205,4229.230769,4454.871794,3812.820513,4057.435897
99,4245.128205,4504.102564,4409.230769,4264.615384,4461.025641,4043.076923,4423.076923,4160.512820,4216.410256,4486.666666,4220.512820,4451.794871,3809.743590,4057.435897
100,4250.256410,4522.051282,4412.307692,4263.589743,4468.205128,4040.000000,4419.487179,4163.076923,4220.512820,4498.461538,4220.000000,4451.282051,3812.820513,4057.435897
101,4260.000000,4530.256410,4423.589743,4253.846153,4468.717948,4044.615384,4424.615384,4170.256410,4215.384615,4500.512820,4232.820512,4462.564102,3823.076924,4063.076923
102,4256.923076,4517.948717,4424.102564,4248.717948,4461.538461,4045.128205,4427.692307,4167.179487,4208.717948,4497.435897,4226.666666,4462.564102,3821.538462,4063.076923
103,4243.076923,4511.794871,4412.820512,4251.282051,4455.384615,4032.307692,4421.538461,4153.333333,4204.615384,4489.230769,4214.871794,4446.666666,3806.153847,4050.769230
104,4234.871794,4510.256410,4409.743589,4257.948717,4447.179487,4022.564102,4415.384615,4144.102564,4195.897435,4470.769230,4216.923076,4439.487179,3796.410257,4043.589743
105,4229.743589,4498.461538,4408.205128,4248.205128,4444.615384,4026.153846,4415.897435,4143.076923,4190.769230,4466.666666,4211.282051,4439.487179,3791.794872,4040.000000
106,4225.641025,4493.333333,4400.512820,4231.282051,4449.230769,4031.794871,4415.897435,4147.179487,4195.897435,4478.974358,4206.153846,4435.897435,3790.769231,4034.871794
107,4234.358974,4507.179487,4400.512820,4237.948717,4450.769230,4034.871794,4414.358974,4155.897435,4204.102564,4487.179487,4214.871794,4437.948717,3805.128206,4042.051282
108,4246.666666,4517.435897,4415.384615,4250.769230,4450.769230,4037.435897,4416.410256,4165.641025,4218.461538,4494.871794,4226.666666,4451.282051,3829.230770,4061.538461
109,4249.230769,4515.384615,4426.153846,4250.256410,4452.307692,4035.384615,4414.358974,4168.717948,4225.641025,4498.461538,4232.307692,4461.025641,3834.358975,4071.282051
110,4247.692307,4510.256410,4422.051282,4252.307692,4447.179487,4032.307692,4409.230769,4161.538461,4214.358974,4487.692307,4226.666666,4454.358974,3818.461539,4066.153846
111,4242.564102,4502.051282,4410.256410,4252.307692,4440.000000,4029.230769,4405.641025,4146.666666,4193.846153,4474.358974,4209.230769,4443.076923,3801.538462,4052.307692
112,4233.846153,4495.897435,4410.256410,4239.487179,4442.051282,4026.153846,4407.692307,4133.846153,4189.743589,4476.923076,4205.641025,4440.512820,3798.461539,4044.102564
113,4236.923076,4495.384615,4421.538461,4238.974358,4449.230769,4029.230769,4413.846153,4137.435897,4203.076923,4485.128205,4222.564102,4448.205128,3805.641026,4050.769230
114,4245.641025,4498.461538,4425.128205,4249.743589,4450.769230,4035.897435,4418.461538,4153.333333,4212.307692,4488.205128,4223.076923,4455.384615,3811.282052,4057.435897
115,4247.692307,4509.743589,4425.128205,4249.743589,4453.333333,4035.384615,4416.923076,4161.025641,4212.307692,4492.820512,4218.461538,4456.923076,3813.333334,4056.923076
116,4247.179487,4517.435897,4428.205128,4249.743589,4453.846153,4026.666666,4412.820512,4149.743589,4203.076923,4484.615384,4225.641025,4455.384615,3810.256411,4054.871794
117,4236.923076,4502.051282,4420.512820,4247.179487,4437.948717,4014.358974,4407.179487,4133.846153,4185.128205,4460.000000,4216.923076,4445.641025,3796.923077,4045.641025
118,4225.128205,4487.179487,4407.179487,4233.846153,4428.205128,4005.641025,4403.589743,4124.615384,4174.358974,4454.358974,4197.948717,4436.923076,3781.538462,4033.846153
119,4225.641025,4495.897435,4408.205128,4228.717948,4443.589743,4003.589743,4401.538461,4121.538461,4175.897435,4466.666666,4191.794871,4433.846153,3774.358975,4028.717948
120,4229.743589,4499.487179,4413.846153,4236.410256,4449.230769,4005.641025,4401.025641,4122.564102,4178.974358,4462.051282,4193.333333,4432.820512,3776.410257,4029.230769
121,4234.358974,4494.871794,4412.820512,4243.589743,4438.974358,4011.794871,4407.179487,4132.820512,4186.666666,4455.897435,4209.743589,4438.974358,3791.282052,4034.358974
122,4240.512820,4505.641025,4415.897435,4248.717948,4443.589743,4021.025641,4414.358974,4145.128205,4194.358974,4472.307692,4229.230769,4445.128205,3806.153847,4042.051282
123,4235.384615,4513.333333,4417.435897,4249.743589,4450.256410,4018.461538,4408.717948,4142.564102,4191.282051,4478.461538,4211.794871,4436.923076,3802.051283,4038.461538
124,4228.717948,4500.512820,4410.769230,4245.641025,4438.974358,4008.717948,4397.948717,4135.897435,4191.794871,4467.692307,4186.666666,4432.820512,3789.230770,4030.256410
125,4234.871794,4497.435897,4413.333333,4247.692307,4434.871794,4005.641025,4400.000000,4136.923076,4194.358974,4465.641025,4196.410256,4444.102564,3784.102565,4033.846153
126,4234.871794,4506.666666,4423.589743,4245.128205,4441.538461,4003.076923,4406.153846,4137.435897,4187.179487,4467.692307,4209.230769,4445.641025,3785.128206,4038.974358
127,4225.128205,4502.051282,4424.615384,4237.948717,4438.461538,3996.923077,4405.128205,4135.384615,4187.179487,4466.153846,4209.743589,4443.589743,3794.871795,4040.000000
128,4223.589743,4491.282051,4414.871794,4231.794871,4436.410256,3995.897436,4402.564102,4133.333333,4187.692307,4463.076923,4203.076923,4444.615384,3798.974359,4036.923076
129,4227.692307,4496.923076,4408.717948,4228.205128,4445.128205,3997.435898,4404.615384,4132.307692,4181.025641,4462.051282,4195.384615,4438.974358,3789.230770,4030.256410
130,4231.282051,4507.692307,4413.846153,4240.000000,4446.666666,4000.512820,4410.769230,4140.000000,4187.692307,4467.692307,4209.743589,4440.000000,3793.333334,4032.307692
131,4236.410256,4508.205128,4422.051282,4253.333333,4439.487179,4004.102564,4412.307692,4152.307692,4207.179487,4481.538461,4231.794871,4451.282051,3806.666667,4045.641025
132,4245.128205,4512.820512,4428.205128,4246.666666,4441.538461,4009.230769,4413.846153,4160.000000,4218.461538,4495.897435,4234.871794,4458.461538,3812.307693,4053.333333
133,4247.692307,4517.435897,4432.307692,4242.564102,4449.230769,4010.256410,4415.897435,4158.974358,4212.307692,4489.743589,4225.641025,4460.000000,3814.358975,4050.769230
134,4237.948717,4510.256410,4426.153846,4241.538461,4445.128205,4001.025641,4404.102564,4145.128205,4195.384615,4470.769230,4208.717948,4452.820512,3803.076924,4044.102564
135,4228.717948,4505.128205,4420.512820,4227.179487,4430.769230,3992.307693,4390.256410,4133.846153,4186.666666,4466.666666,4202.051282,4441.538461,3786.666667,4038.974358
136,4235.384615,4507.179487,4425.128205,4232.820512,4429.230769,3996.923077,4391.794871,4142.564102,4195.384615,4470.256410,4218.461538,4446.666666,3795.384616,4042.051282
137,4240.000000,4504.615384,4430.769230,4251.282051,4438.974358,4003.076923,4397.948717,4151.282051,4200.512820,4470.769230,4227.692307,4453.333333,3809.743590,4045.128205
138,4237.435897,4508.205128,4428.205128,4241.025641,4436.410256,4003.589743,4396.410256,4146.666666,4197.948717,4476.923076,4211.794871,4448.717948,3796.410257,4038.974358
139,4240.512820,4519.487179,4428.205128,4236.923076,4432.307692,4008.717948,4403.589743,4150.769230,4201.538461,4481.025641,4205.641025,4450.256410,3795.897436,4037.948717
140,4242.051282,4515.897435,4431.282051,4249.743589,4442.051282,4012.820512,4411.794871,4155.897435,4206.666666,4477.435897,4216.410256,4454.358974,3819.487180,4044.102564
141,4237.435897,4507.179487,4427.179487,4241.538461,4448.205128,4010.769230,4409.230769,4147.692307,4201.538461,4480.000000,4217.948717,4449.743589,3821.025642,4042.051282
142,4240.000000,4515.897435,4429.230769,4232.820512,4446.153846,4014.358974,4410.256410,4145.641025,4194.871794,4489.743589,4213.846153,4453.846153,3806.666667,4039.487179
143,4249.743589,4531.282051,4443.589743,4249.743589,4446.666666,4024.102564,4417.948717,4158.974358,4205.641025,4497.948717,4218.461538,4466.666666,3807.692308,4048.205128
144,4249.230769,4529.230769,4447.692307,4257.948717,4445.641025,4028.205128,4417.435897,4162.051282,4216.923076,4493.846153,4223.076923,4466.666666,3813.846154,4052.307692
145,4238.974358,4513.333333,4431.282051,4241.538461,4442.051282,4023.589743,4405.641025,4144.615384,4201.025641,4472.307692,4221.025641,4455.897435,3809.743590,4040.512820
146,4230.256410,4510.256410,4422.051282,4234.871794,4443.076923,4019.487179,4402.564102,4136.923076,4185.641025,4461.025641,4213.846153,4451.794871,3804.615385,4031.282051
147,4228.205128,4517.948717,4427.692307,4238.461538,4444.615384,4022.564102,4406.153846,4144.102564,4192.307692,4479.487179,4210.256410,4454.358974,3809.230770,4034.871794
148,4231.794871,4517.948717,4429.743589,4235.897435,4445.641025,4024.615384,4405.128205,4145.128205,4200.000000,4498.974358,4220.512820,4460.000000,3820.512821,4040.000000
149,4240.000000,4516.923076,4435.384615,4234.871794,4446.666666,4022.564102,4406.153846,4142.564102,4202.564102,4498.974358,4233.333333,4470.256410,3821.025642,4043.589743
150,4243.076923,4527.692307,4440.000000,4242.051282,4446.153846,4022.051282,4406.153846,4148.717948,4211.282051,4495.897435,4225.128205,4474.358974,3808.717949,4047.179487
151,4237.948717,4529.743589,4431.794871,4250.256410,4445.641025,4012.307692,4395.897435,4146.666666,4209.230769,4490.769230,4218.974358,4464.102564,3807.692308,4045.128205
152,4235.897435,4516.923076,4426.153846,4253.333333,4436.923076,3998.974359,4385.641025,4133.333333,4194.358974,4481.538461,4229.743589,4461.538461,3818.461539,4041.538461
153,4240.512820,4517.948717,4436.410256,4254.871794,4429.230769,4003.589743,4389.743589,4132.307692,4194.358974,4477.435897,4231.282051,4475.897435,3825.641026,4047.692307
154,4240.512820,4523.076923,4442.051282,4252.307692,4435.897435,4013.333333,4395.897435,4137.948717,4201.025641,4477.948717,4221.025641,4476.410256,3818.974359,4048.717948
155,4234.871794,4517.948717,4430.769230,4240.000000,4438.974358,4008.717948,4395.897435,4136.410256,4194.358974,4478.461538,4220.512820,4461.538461,3797.435898,4036.923076
156,4231.282051,4515.384615,4425.641025,4236.410256,4433.333333,4006.666666,4397.948717,4138.461538,4189.230769,4478.461538,4218.461538,4458.461538,3791.282052,4032.307692
157,4230.769230,4516.410256,4434.358974,4250.769230,4437.435897,4013.846153,4401.538461,4144.102564,4197.948717,4473.333333,4201.025641,4463.076923,3806.666667,4036.923076
158,4233.846153,4514.871794,4440.512820,4256.410256,4446.153846,4015.384615,4403.589743,4142.564102,4199.487179,4460.000000,4195.897435,4462.564102,3805.641026,4037.948717
159,4233.846153,4517.435897,4439.487179,4249.230769,4438.974358,4011.794871,4403.076923,4140.512820,4190.769230,4455.897435,4213.846153,4460.000000,3795.384616,4033.333333
160,4227.179487,4518.974358,4435.897435,4247.179487,4431.794871,4010.769230,4403.076923,4144.615384,4194.871794,4473.846153,4220.000000,4461.025641,3805.641026,4032.307692
161,4226.153846,4515.897435,4433.846153,4237.948717,4441.025641,4013.846153,4405.128205,4148.717948,4205.641025,4485.641025,4211.282051,4461.538461,3810.769231,4034.358974
162,4227.179487,4513.333333,4429.230769,4224.102564,4441.538461,4014.871794,4408.717948,4149.743589,4206.153846,4473.333333,4207.179487,4460.000000,3790.769231,4031.282051
163,4224.102564,4511.282051,4428.205128,4238.974358,4431.282051,4010.769230,4408.717948,4150.769230,4203.076923,4463.589743,4205.641025,4460.000000,3782.564103,4028.717948
164,4225.641025,4514.871794,4436.410256,4255.384615,4434.358974,4012.307692,4407.692307,4152.307692,4202.564102,4468.205128,4207.179487,4466.153846,3803.589744,4038.461538
165,4234.871794,4522.564102,4444.615384,4248.717948,4443.589743,4020.000000,4408.717948,4149.743589,4201.025641,4473.846153,4216.410256,4476.923076,3829.743590,4045.641025
166,4235.897435,4518.461538,4445.128205,4248.205128,4442.051282,4018.461538,4406.666666,4147.179487,4198.974358,4478.461538,4221.538461,4479.487179,3831.282052,4043.589743
167,4232.307692,4513.846153,4442.564102,4249.230769,4438.974358,4010.769230,4398.461538,4145.128205,4198.974358,4483.076923,4216.923076,4477.948717,3815.384616,4045.641025
168,4232.307692,4518.974358,4440.000000,4238.461538,4436.923076,4009.743589,4391.794871,4143.589743,4200.000000,4478.974358,4208.717948,4474.871794,3806.666667,4045.641025
169,4225.128205,4514.358974,4432.307692,4231.282051,4428.205128,4010.256410,4388.205128,4136.923076,4192.307692,4462.051282,4196.923076,4464.615384,3803.076924,4034.358974
170,4217.948717,4500.000000,4426.666666,4233.846153,4426.153846,4012.820512,4390.256410,4130.256410,4181.025641,4452.820512,4185.128205,4456.923076,3798.974359,4028.205128
171,4215.384615,4489.743589,4427.692307,4229.230769,4428.717948,4017.948717,4392.307692,4131.282051,4183.076923,4460.512820,4184.102564,4456.410256,3794.871795,4028.717948
172,4209.230769,4485.641025,4425.128205,4220.512820,4423.076923,4022.051282,4391.282051,4134.358974,4190.769230,4471.794871,4191.794871,4454.358974,3787.692308,4024.102564
173,4210.256410,4481.025641,4425.128205,4221.538461,4421.025641,4024.615384,4395.384615,4136.410256,4189.230769,4472.307692,4191.282051,4454.358974,3783.589744,4023.589743
174,4220.000000,4482.564102,4431.282051,4232.820512,4427.692307,4028.717948,4401.025641,4144.615384,4191.794871,4462.051282,4188.205128,4460.512820,3796.923077,4030.256410
175,4218.974358,4487.692307,4431.282051,4235.384615,4428.717948,4028.205128,4397.435897,4148.205128,4197.435897,4456.410256,4192.307692,4457.948717,3807.692308,4031.282051
176,4208.717948,4484.615384,4424.615384,4225.641025,4419.487179,4025.641025,4388.717948,4139.487179,4192.307692,4464.102564,4191.282051,4448.205128,3796.923077,4024.615384
177,4208.205128,4480.512820,4424.102564,4220.512820,4418.974358,4026.153846,4387.692307,4136.923076,4189.743589,4471.794871,4187.179487,4445.128205,3785.641026,4020.512820
178,4214.358974,4483.589743,4425.641025,4220.000000,4429.743589,4027.692307,4393.846153,4143.589743,4194.358974,4465.128205,4194.871794,4445.128205,3793.333334,4024.102564
179,4224.615384,4491.794871,4429.230769,4224.102564,4430.769230,4031.282051,4400.512820,4149.743589,4199.487179,4466.666666,4200.512820,4450.256410,3811.794872,4035.384615
180,4230.769230,4490.256410,4437.948717,4233.333333,4421.538461,4030.769230,4398.974358,4151.282051,4199.487179,4472.307692,4198.461538,4457.435897,3816.410257,4041.538461
181,4230.256410,4481.025641,4441.538461,4236.410256,4426.666666,4023.589743,4391.794871,4144.615384,4192.307692,4467.692307,4200.512820,4454.358974,3805.128206,4035.897435
182,4233.846153,4478.461538,4441.538461,4234.871794,4439.487179,4027.179487,4389.743589,4142.051282,4193.333333,4473.846153,4206.666666,4450.769230,3799.487180,4034.358974
183,4237.435897,4489.743589,4445.128205,4236.923076,4435.897435,4037.435897,4395.897435,4149.743589,4203.589743,4486.666666,4209.743589,4458.974358,3807.179488,4044.102564
184,4241.025641,4499.487179,4448.717948,4235.897435,4426.666666,4036.410256,4400.000000,4152.307692,4204.615384,4483.076923,4212.307692,4465.128205,3814.871795,4046.666666
185,4242.051282,4493.846153,4450.769230,4228.205128,4424.615384,4029.743589,4395.897435,4146.153846,4194.871794,4468.717948,4216.410256,4458.974358,3811.282052,4040.000000
186,4238.461538,4490.256410,4454.871794,4231.282051,4422.564102,4030.769230,4392.307692,4144.102564,4190.256410,4463.589743,4215.897435,4454.358974,3811.282052,4038.974358
187,4235.897435,4495.384615,4456.923076,4243.589743,4422.564102,4030.256410,4392.307692,4146.666666,4192.820512,4466.666666,4197.948717,4455.897435,3811.794872,4039.487179
188,4245.128205,4496.410256,4457.435897,4251.282051,4429.230769,4029.230769,4393.333333,4150.256410,4193.333333,4469.230769,4188.717948,4458.461538,3801.025642,4038.974358
189,4251.794871,4495.384615,4460.512820,4248.717948,4432.820512,4035.897435,4395.897435,4150.769230,4195.897435,4473.846153,4215.897435,4462.564102,3800.512821,4043.589743
190,4246.666666,4497.948717,4458.974358,4243.076923,4433.846153,4038.974358,4401.025641,4148.717948,4195.384615,4476.410256,4233.333333,4462.051282,3815.384616,4046.666666
191,4245.641025,4498.461538,4455.897435,4249.230769,4440.000000,4043.589743,4403.076923,4150.769230,4191.282051,4477.435897,4218.974358,4458.461538,3814.358975,4042.564102
192,4250.256410,4501.538461,4460.000000,4253.846153,4441.538461,4055.897435,4406.153846,4157.948717,4196.410256,4480.000000,4221.025641,4456.923076,3808.205129,4042.051282
193,4246.666666,4505.128205,4458.974358,4246.666666,4436.923076,4056.923076,4408.717948,4160.000000,4208.717948,4484.615384,4224.615384,4456.410256,3817.435898,4043.076923
194,4241.025641,4497.948717,4453.846153,4245.128205,4441.025641,4049.743589,4408.717948,4164.615384,4218.461538,4490.769230,4201.025641,4457.435897,3817.435898,4039.487179
195,4243.076923,4492.820512,4454.358974,4244.102564,4447.179487,4051.794871,4410.769230,4170.256410,4215.897435,4489.230769,4201.538461,4458.974358,3809.230770,4038.461538
196,4242.564102,4497.948717,4460.512820,4235.384615,4441.025641,4053.846153,4413.333333,4169.230769,4208.205128,4482.564102,4229.230769,4458.974358,3817.435898,4043.076923
197,4238.461538,4496.923076,4462.564102,4238.974358,4436.923076,4043.589743,4411.794871,4160.512820,4202.564102,4479.487179,4230.769230,4458.461538,3823.076924,4044.615384
198,4230.256410,4488.205128,4451.794871,4242.564102,4436.410256,4033.846153,4404.615384,4150.256410,4195.897435,4481.538461,4214.871794,4452.820512,3806.666667,4034.871794
199,4222.051282,4481.025641,4442.051282,4233.846153,4428.205128,4033.846153,4397.435897,4146.666666,4192.307692,4481.025641,4210.256410,4445.641025,3795.384616,4026.153846
200,4223.076923,4478.974358,4447.179487,4233.846153,4427.179487,4037.948717,4394.358974,4149.743589,4194.871794,4474.871794,4202.051282,4445.641025,3797.435898,4026.153846
201,4227.179487,4489.230769,4449.743589,4235.384615,4439.487179,4041.025641,4395.897435,4149.230769,4194.358974,4468.717948,4192.307692,4445.128205,3801.025642,4026.153846
202,4225.641025,4495.897435,4445.641025,4233.333333,4443.076923,4041.538461,4396.923076,4147.692307,4191.282051,4470.769230,4201.025641,4445.641025,3808.205129,4026.666666
203,4227.179487,4488.205128,4446.666666,4247.179487,4431.794871,4042.564102,4395.384615,4147.179487,4192.820512,4476.923076,4213.846153,4452.307692,3812.307693,4031.282051
204,4233.846153,4488.205128,4450.256410,4259.487179,4430.769230,4044.102564,4394.871794,4150.256410,4197.435897,4482.051282,4214.871794,4454.871794,3803.589744,4033.333333
205,4232.307692,4500.512820,4451.282051,4250.769230,4436.923076,4042.051282,4394.358974,4150.256410,4194.358974,4475.897435,4210.256410,4454.358974,3796.410257,4031.282051
206,4227.179487,4503.076923,4452.307692,4241.538461,4433.846153,4043.076923,4394.358974,4144.615384,4187.692307,4468.717948,4208.717948,4453.846153,3803.076924,4033.333333
207,4229.230769,4497.948717,4450.256410,4245.641025,4435.384615,4045.641025,4392.307692,4137.435897,4185.641025,4472.307692,4206.666666,4450.769230,3810.256411,4035.897435
208,4227.692307,4495.384615,4444.102564,4248.717948,4441.025641,4039.487179,4385.641025,4134.871794,4184.102564,4470.256410,4201.025641,4446.666666,3811.282052,4031.794871
209,4221.538461,4491.282051,4443.589743,4243.076923,4435.897435,4030.769230,4382.051282,4139.487179,4183.589743,4461.538461,4203.589743,4448.717948,3805.128206,4026.153846
210,4222.051282,4490.769230,4449.230769,4240.000000,4431.282051,4037.948717,4386.666666,4145.128205,4186.153846,4466.666666,4212.307692,4451.794871,3791.282052,4027.179487
211,4232.307692,4501.538461,4457.948717,4248.205128,4438.461538,4051.282051,4393.846153,4152.820512,4193.846153,4481.538461,4221.538461,4456.410256,3796.410257,4036.923076
212,4237.435897,4504.615384,4463.589743,4252.820512,4442.564102,4052.307692,4398.974358,4159.487179,4203.076923,4488.205128,4224.615384,4463.589743,3816.410257,4040.000000
213,4228.717948,4490.769230,4458.974358,4247.179487,4435.384615,4045.641025,4397.948717,4157.435897,4203.076923,4478.461538,4206.153846,4457.948717,3817.435898,4031.794871
214,4217.948717,4480.512820,4450.769230,4238.461538,4427.692307,4038.974358,4389.230769,4148.717948,4192.820512,4464.102564,4195.384615,4445.641025,3802.051283,4024.102564
215,4217.435897,4484.615384,4447.179487,4236.923076,4428.717948,4038.461538,4385.641025,4144.615384,4191.282051,4470.256410,4214.871794,4445.128205,3794.358975,4024.102564
216,4226.666666,4487.692307,4454.871794,4246.666666,4440.512820,4046.666666,4393.846153,4152.820512,4199.487179,4486.666666,4233.333333,4456.410256,3801.025642,4028.717948
217,4233.333333,4488.717948,4464.615384,4252.820512,4443.076923,4050.256410,4397.435897,4159.487179,4200.000000,4486.153846,4225.128205,4462.564102,3812.820513,4035.897435
218,4230.256410,4491.282051,4462.564102,4245.641025,4428.205128,4040.512820,4390.769230,4153.333333,4194.358974,4478.461538,4209.230769,4459.487179,3813.846154,4040.000000
219,4228.205128,4491.282051,4457.948717,4245.641025,4425.641025,4035.384615,4387.692307,4150.769230,4191.794871,4477.435897,4214.871794,4459.487179,3807.179488,4038.974358
220,4233.333333,4496.923076,4465.128205,4253.333333,4438.974358,4041.025641,4393.846153,4161.025641,4197.948717,4478.461538,4225.641025,4464.615384,3807.692308,4043.076923
221,4233.333333,4499.487179,4468.205128,4249.230769,4440.512820,4037.948717,4394.871794,4161.025641,4198.974358,4472.307692,4215.384615,4462.564102,3810.769231,4040.512820
222,4217.435897,4475.897435,4449.230769,4232.820512,4428.205128,4023.076923,4382.564102,4138.974358,4176.923076,4454.358974,4187.692307,4440.512820,3793.846154,4017.435897
223,4204.615384,4454.358974,4433.846153,4230.769230,4424.102564,4020.000000,4372.820512,4126.666666,4160.512820,4445.641025,4182.051282,4424.615384,3773.333334,4001.025641
224,4212.307692,4468.717948,4444.615384,4244.615384,4427.692307,4032.307692,4378.461538,4136.410256,4174.358974,4458.974358,4203.589743,4437.948717,3781.025642,4012.820512
225,4226.153846,4483.589743,4455.897435,4247.692307,4424.615384,4037.435897,4387.179487,4144.102564,4184.102564,4462.564102,4205.641025,4449.230769,3792.820513,4024.102564
226,4227.179487,4478.461538,4456.410256,4247.692307,4427.179487,4036.923076,4390.769230,4145.128205,4178.974358,4456.923076,4194.358974,4446.153846,3782.051283,4020.512820
227,4221.538461,4480.512820,4456.923076,4251.282051,4435.384615,4041.538461,4390.769230,4146.153846,4176.923076,4460.512820,4201.538461,4446.153846,3776.923077,4015.384615
228,4215.384615,4478.461538,4451.794871,4236.410256,4429.743589,4037.435897,4386.153846,4144.615384,4171.282051,4453.846153,4210.769230,4443.589743,3788.717949,4007.692307
229,4205.641025,4465.641025,4443.589743,4225.128205,4428.205128,4030.256410,4387.179487,4144.615384,4173.846153,4452.307692,4198.974358,4434.358974,3790.769231,4001.538461
230,4207.692307,4469.743589,4451.794871,4245.128205,4433.846153,4040.512820,4396.923076,4153.333333,4189.743589,4469.743589,4191.282051,4438.461538,3786.666667,4008.717948
231,4217.435897,4480.000000,4460.512820,4257.435897,4429.230769,4046.153846,4396.410256,4151.794871,4191.282051,4469.743589,4196.410256,4445.641025,3781.538462,4013.846153
232,4208.717948,4470.769230,4449.230769,4244.615384,4426.153846,4030.769230,4386.153846,4139.487179,4181.538461,4454.358974,4194.358974,4433.846153,3766.666667,4003.076923
233,4201.538461,4463.076923,4445.128205,4239.487179,4432.820512,4024.102564,4384.102564,4142.051282,4183.076923,4462.564102,4197.435897,4431.794871,3774.358975,3997.948718
234,4208.717948,4466.666666,4453.846153,4241.025641,4430.769230,4030.256410,4386.666666,4149.230769,4185.641025,4474.871794,4212.820512,4443.076923,3797.435898,4006.666666
235,4209.230769,4465.641025,4449.743589,4233.333333,4421.025641,4027.692307,4383.589743,4146.666666,4183.076923,4462.564102,4209.743589,4438.461538,3793.333334,4010.256410
236,4203.589743,4465.128205,4444.102564,4229.743589,4422.051282,4023.076923,4380.000000,4144.102564,4185.128205,4446.666666,4191.282051,4430.256410,3776.410257,4004.615384
237,4209.230769,4469.230769,4452.820512,4241.538461,4428.717948,4028.717948,4382.051282,4144.615384,4188.717948,4450.769230,4197.948717,4439.487179,3779.487180,4003.076923
238,4221.025641,4477.435897,4460.000000,4252.307692,4431.794871,4036.410256,4387.692307,4146.153846,4191.794871,4469.743589,4214.358974,4450.256410,3790.769231,4010.769230
239,4224.102564,4482.564102,4458.974358,4253.846153,4428.717948,4040.512820,4391.282051,4149.743589,4194.871794,4483.589743,4214.358974,4449.743589,3793.333334,4021.025641
240,4224.615384,4480.000000,4463.589743,4251.794871,4430.256410,4043.076923,4392.820512,4152.307692,4194.358974,4480.000000,4221.025641,4450.769230,3806.153847,4028.205128
241,4225.128205,4475.384615,4468.205128,4238.974358,4436.923076,4039.487179,4390.256410,4150.769230,4190.256410,4470.256410,4230.769230,4453.333333,3815.384616,4027.179487
242,4220.512820,4469.743589,4465.128205,4229.743589,4435.384615,4034.358974,4387.179487,4150.769230,4187.179487,4461.538461,4225.641025,4454.358974,3797.435898,4018.461538
243,4217.948717,4466.153846,4463.589743,4247.179487,4433.846153,4039.487179,4388.717948,4151.282051,4190.256410,4461.538461,4215.384615,4454.358974,3785.641026,4017.435897
244,4231.794871,4480.512820,4471.794871,4269.230769,4440.000000,4048.717948,4393.333333,4152.307692,4192.820512,4475.384615,4211.282051,4457.435897,3813.846154,4031.282051
245,4246.666666,4502.051282,4478.974358,4267.692307,4446.153846,4051.794871,4393.846153,4155.897435,4194.871794,4491.282051,4220.000000,4463.589743,3836.923077,4045.641025
246,4236.923076,4494.871794,4473.846153,4253.333333,4442.051282,4047.179487,4384.615384,4146.666666,4194.871794,4486.153846,4240.512820,4460.000000,3819.487180,4037.948717
247,4222.051282,4479.487179,4469.743589,4246.666666,4431.282051,4043.076923,4377.435897,4134.871794,4191.282051,4470.256410,4249.743589,4452.820512,3803.589744,4021.538461
248,4230.256410,4489.230769,4474.871794,4250.256410,4433.333333,4050.256410,4386.153846,4141.538461,4195.384615,4475.897435,4234.871794,4458.974358,3810.769231,4027.692307
249,4243.589743,4501.538461,4478.461538,4257.948717,4445.128205,4060.000000,4397.435897,4153.846153,4202.051282,4485.641025,4223.589743,4467.179487,3818.461539,4041.538461
250,4239.487179,4496.923076,4473.846153,4256.410256,4444.102564,4054.358974,4392.820512,4153.333333,4199.487179,4484.615384,4221.538461,4462.051282,3814.358975,4036.923076
251,4224.102564,4481.538461,4461.538461,4246.666666,4429.743589,4040.512820,4380.512820,4144.102564,4185.641025,4470.769230,4216.410256,4447.692307,3797.435898,4019.487179
252,4215.897435,4468.205128,4453.333333,4242.051282,4424.615384,4034.358974,4375.384615,4136.410256,4173.333333,4448.717948,4213.333333,4439.487179,3782.564103,4007.179487
253,4222.051282,4474.871794,4462.051282,4246.153846,4431.282051,4041.025641,4380.512820,4144.102564,4183.076923,4451.794871,4215.897435,4448.205128,3790.256411,4012.820512
254,4228.205128,4487.179487,4470.769230,4251.794871,4440.000000,4049.743589,4387.179487,4154.871794,4196.923076,4473.333333,4215.897435,4457.435897,3803.589744,4022.051282
255,4222.051282,4477.435897,4463.076923,4244.102564,4441.538461,4051.282051,4386.153846,4147.179487,4192.307692,4468.205128,4206.666666,4450.256410,3792.307693,4017.948717
