,AF3,F7,F3,FC5,T7,P7,O1,O2,P8,T8,FC6,F4,F8,AF4
0,4278.974358,4518.461538,4529.230769,4257.435897,4558.461538,4180.000000,4433.846153,4142.051282,4229.230769,4500.512820,4170.769230,4635.897435,3935.384616,4055.897435
1,4282.051282,4530.256410,4534.358974,4264.615384,4564.102564,4186.153846,4441.538461,4144.102564,4236.923076,4498.974358,4171.794871,4642.564102,3947.692308,4058.461538
2,4284.615384,4535.384615,4534.358974,4269.743589,4567.692307,4183.589743,4439.487179,4144.615384,4231.282051,4489.743589,4155.384615,4640.512820,3938.461539,4054.358974
3,4285.641025,4530.769230,4533.333333,4271.794871,4564.102564,4184.615384,4434.358974,4142.564102,4226.153846,4493.333333,4148.717948,4636.410256,3921.538462,4051.794871
4,4282.051282,4524.102564,4534.358974,4267.692307,4565.128205,4186.153846,4430.256410,4137.435897,4223.589743,4497.435897,4163.076923,4636.410256,3923.076924,4051.282051
5,4270.256410,4520.000000,4532.307692,4261.538461,4566.666666,4182.051282,4430.256410,4132.820512,4214.871794,4487.179487,4166.666666,4633.333333,3936.410257,4049.743589
6,4270.256410,4523.076923,4530.256410,4262.051282,4560.512820,4182.051282,4437.435897,4139.487179,4215.384615,4487.179487,4156.410256,4632.307692,3944.102565,4051.794871
7,4283.589743,4532.307692,4540.000000,4269.743589,4558.461538,4185.641025,4443.076923,4152.307692,4230.256410,4502.564102,4161.538461,4643.076923,3942.564103,4057.948717
8,4289.230769,4534.871794,4549.230769,4276.923076,4564.102564,4186.153846,4442.051282,4157.435897,4237.435897,4510.769230,4175.384615,4651.794871,3938.974359,4062.051282
9,4286.666666,4531.794871,4547.179487,4278.461538,4567.179487,4184.615384,4443.076923,4154.871794,4231.794871,4508.717948,4177.948717,4648.717948,3940.512821,4065.641025
10,4284.615384,4532.307692,4543.589743,4274.871794,4564.102564,4184.615384,4445.641025,4154.358974,4231.282051,4502.564102,4166.153846,4642.564102,3946.153847,4065.641025
11,4282.564102,4532.820512,4543.589743,4268.717948,4561.538461,4185.128205,4443.589743,4152.307692,4229.743589,4495.384615,4155.384615,4640.000000,3946.153847,4058.974358
12,4280.000000,4530.256410,4539.487179,4269.230769,4557.435897,4184.615384,4440.512820,4141.025641,4220.000000,4489.743589,4158.974358,4636.410256,3940.512821,4054.871794
13,4279.487179,4525.128205,4532.820512,4272.820512,4553.333333,4180.000000,4437.948717,4133.333333,4213.333333,4489.743589,4163.076923,4632.307692,3930.769231,4054.871794
14,4277.948717,4524.615384,4534.358974,4269.743589,4555.384615,4177.948717,4441.025641,4135.384615,4214.358974,4489.743589,4160.512820,4635.897435,3929.743590,4052.307692
15,4276.923076,4530.769230,4541.538461,4270.256410,4560.512820,4182.051282,4445.641025,4138.461538,4221.538461,4487.179487,4161.025641,4643.076923,3937.948718,4054.358974
16,4277.948717,4528.717948,4542.564102,4280.512820,4563.076923,4186.666666,4445.641025,4143.589743,4228.205128,4492.820512,4168.205128,4643.076923,3946.153847,4057.948717
17,4281.538461,4523.076923,4540.512820,4282.564102,4558.461538,4188.717948,4445.128205,4152.820512,4227.179487,4504.102564,4171.794871,4639.487179,3947.179488,4054.358974
18,4278.974358,4529.743589,4539.487179,4272.820512,4554.358974,4182.051282,4443.076923,4151.282051,4220.512820,4501.025641,4167.692307,4637.435897,3937.435898,4045.128205
19,4269.743589,4532.820512,4535.897435,4272.307692,4553.846153,4175.897435,4441.025641,4145.128205,4222.564102,4493.333333,4165.128205,4636.923076,3931.794872,4047.692307
20,4268.205128,4521.538461,4533.846153,4278.461538,4553.846153,4181.538461,4443.589743,4151.282051,4230.256410,4494.871794,4170.769230,4638.461538,3937.948718,4055.897435
21,4269.743589,4516.923076,4535.384615,4276.923076,4554.358974,4182.564102,4445.641025,4157.435897,4227.692307,4490.256410,4168.717948,4636.410256,3943.076924,4049.743589
22,4264.615384,4525.128205,4534.358974,4266.666666,4552.820512,4176.923076,4444.102564,4153.846153,4224.615384,4482.564102,4158.974358,4631.794871,3939.487180,4042.564102
23,4262.564102,4530.769230,4534.358974,4261.538461,4551.282051,4178.974358,4444.102564,4151.794871,4225.641025,4490.256410,4161.538461,4633.333333,3934.871795,4047.179487
24,4269.743589,4527.692307,4538.461538,4266.153846,4550.769230,4182.564102,4444.615384,4151.794871,4225.641025,4496.410256,4170.769230,4635.897435,3935.897436,4049.743589
25,4276.410256,4527.179487,4541.025641,4273.846153,4552.307692,4182.051282,4444.102564,4150.256410,4226.666666,4488.717948,4177.948717,4636.410256,3946.153847,4051.282051
26,4281.538461,4538.974358,4545.128205,4282.051282,4555.384615,4185.128205,4444.102564,4151.282051,4229.743589,4488.205128,4180.512820,4637.948717,3955.384616,4056.923076
27,4282.051282,4545.128205,4548.717948,4284.102564,4557.948717,4185.641025,4443.589743,4152.820512,4230.256410,4502.051282,4180.512820,4638.461538,3957.435898,4056.410256
28,4277.948717,4536.923076,4545.128205,4275.897435,4558.461538,4183.589743,4443.076923,4151.794871,4232.307692,4504.615384,4182.051282,4637.435897,3955.384616,4055.897435
29,4279.487179,4534.871794,4541.025641,4275.897435,4557.948717,4186.153846,4442.051282,4153.333333,4236.410256,4498.974358,4177.948717,4638.461538,3953.333334,4064.102564
30,4283.076923,4540.512820,4543.076923,4287.179487,4557.948717,4185.128205,4442.051282,4156.923076,4234.871794,4500.000000,4170.769230,4640.512820,3955.897436,4066.666666
31,4280.000000,4540.512820,4540.000000,4288.717948,4558.461538,4184.615384,4442.564102,4158.461538,4229.743589,4501.025641,4173.846153,4640.512820,3961.025642,4058.461538
32,4275.384615,4536.923076,4533.846153,4279.487179,4558.974358,4186.666666,4442.051282,4155.384615,4225.128205,4490.256410,4175.897435,4637.948717,3959.487180,4051.794871
33,4277.948717,4536.410256,4534.871794,4278.461538,4555.897435,4185.128205,4442.051282,4154.358974,4224.615384,4484.102564,4167.692307,4634.871794,3951.282052,4049.743589
34,4280.000000,4540.512820,4534.871794,4281.538461,4557.435897,4184.615384,4443.076923,4155.897435,4230.256410,4490.769230,4168.717948,4634.358974,3948.205129,4047.179487
35,4277.948717,4540.512820,4529.743589,4283.076923,4564.102564,4185.641025,4442.051282,4154.358974,4232.820512,4494.871794,4178.461538,4637.435897,3948.205129,4047.692307
36,4279.487179,4535.897435,4531.282051,4283.589743,4561.025641,4185.128205,4441.025641,4151.794871,4228.717948,4493.846153,4176.410256,4638.461538,3951.282052,4054.871794
37,4282.564102,4538.974358,4534.871794,4287.179487,4558.974358,4185.128205,4443.076923,4153.846153,4227.692307,4492.820512,4165.641025,4634.358974,3957.948718,4057.435897
38,4280.512820,4547.179487,4534.358974,4291.794871,4564.615384,4185.641025,4442.564102,4153.846153,4228.717948,4490.769230,4161.538461,4632.820512,3961.025642,4049.230769
39,4278.461538,4544.615384,4533.846153,4290.769230,4565.128205,4185.128205,4441.538461,4150.769230,4226.666666,4489.230769,4165.641025,4634.871794,3953.333334,4046.666666
40,4279.487179,4537.948717,4534.871794,4281.538461,4558.461538,4188.205128,4443.076923,4150.256410,4226.153846,4490.256410,4170.256410,4635.384615,3944.615385,4051.794871
41,4277.435897,4532.820512,4533.846153,4271.794871,4554.358974,4185.128205,4439.487179,4149.743589,4224.615384,4488.205128,4168.205128,4632.820512,3949.230770,4050.769230
42,4274.871794,4529.230769,4536.410256,4271.794871,4552.820512,4176.923076,4429.230769,4148.717948,4225.128205,4485.128205,4161.025641,4631.794871,3955.897436,4047.179487
43,4274.358974,4529.743589,4541.025641,4277.435897,4552.307692,4177.435897,4428.717948,4152.307692,4229.743589,4488.717948,4160.512820,4634.871794,3958.974359,4047.692307
44,4273.846153,4527.692307,4540.000000,4282.051282,4555.384615,4184.615384,4439.487179,4156.923076,4229.230769,4486.153846,4170.256410,4637.948717,3960.512821,4047.692307
45,4270.769230,4527.179487,4533.846153,4277.948717,4554.871794,4185.641025,4437.948717,4154.871794,4222.564102,4475.384615,4174.358974,4632.307692,3948.717949,4045.128205
46,4268.717948,4531.282051,4527.179487,4272.307692,4549.743589,4178.974358,4430.769230,4148.717948,4218.974358,4471.794871,4162.051282,4622.564102,3933.846154,4041.025641
47,4272.820512,4533.333333,4528.717948,4277.435897,4549.230769,4177.948717,4437.948717,4147.692307,4218.461538,4476.410256,4154.871794,4625.128205,3946.666667,4042.051282
48,4280.512820,4533.846153,4538.974358,4288.205128,4554.871794,4184.615384,4446.666666,4153.333333,4218.461538,4485.641025,4166.153846,4636.923076,3971.282052,4054.358974
49,4282.564102,4540.000000,4541.025641,4291.794871,4557.948717,4187.692307,4443.589743,4154.358974,4221.025641,4489.743589,4175.384615,4636.410256,3964.102565,4059.487179
50,4278.974358,4541.025641,4534.871794,4286.666666,4554.871794,4184.102564,4440.512820,4149.230769,4220.000000,4481.025641,4169.743589,4628.717948,3946.666667,4054.358974
51,4280.512820,4534.358974,4534.871794,4279.487179,4556.410256,4182.564102,4444.102564,4149.230769,4216.410256,4481.538461,4165.641025,4631.794871,3954.871795,4055.384615
52,4290.769230,4540.000000,4536.923076,4280.512820,4559.487179,4187.179487,4446.153846,4155.384615,4220.000000,4492.820512,4166.666666,4636.410256,3970.769231,4062.051282
53,4294.358974,4548.205128,4533.333333,4292.307692,4557.435897,4192.307692,4449.743589,4159.487179,4227.179487,4491.282051,4171.794871,4634.871794,3973.333334,4063.076923
54,4288.717948,4544.102564,4533.333333,4294.358974,4553.846153,4192.307692,4450.769230,4157.948717,4225.641025,4486.666666,4183.076923,4633.333333,3967.692308,4058.974358
55,4281.025641,4538.461538,4533.846153,4284.615384,4554.358974,4187.179487,4446.153846,4156.410256,4222.051282,4493.846153,4181.538461,4632.307692,3963.589744,4051.794871
56,4279.487179,4536.923076,4531.794871,4282.051282,4552.307692,4184.102564,4443.076923,4160.000000,4228.205128,4492.820512,4167.692307,4632.820512,3963.076924,4050.256410
57,4281.025641,4528.205128,4533.333333,4283.589743,4547.179487,4184.615384,4443.589743,4160.512820,4228.717948,4482.051282,4166.666666,4632.820512,3961.538462,4052.307692
58,4277.435897,4523.589743,4528.717948,4276.410256,4549.230769,4182.051282,4444.102564,4157.435897,4220.000000,4482.564102,4171.282051,4625.641025,3954.871795,4047.179487
59,4275.897435,4532.820512,4524.615384,4275.897435,4550.769230,4182.051282,4442.564102,4158.974358,4224.615384,4484.615384,4165.641025,4622.564102,3957.435898,4046.666666
60,4280.512820,4532.307692,4526.666666,4284.102564,4549.230769,4185.641025,4444.615384,4166.666666,4236.923076,4484.102564,4161.025641,4627.179487,3967.692308,4052.820512
61,4282.564102,4520.512820,4523.076923,4277.435897,4549.230769,4185.128205,4445.641025,4166.666666,4229.743589,4486.153846,4160.000000,4623.076923,3961.025642,4050.769230
62,4275.384615,4520.000000,4514.871794,4263.589743,4547.179487,4183.076923,4442.564102,4156.410256,4216.923076,4481.025641,4155.384615,4613.846153,3944.102565,4043.076923
63,4273.846153,4527.179487,4518.461538,4267.179487,4547.692307,4188.205128,4449.230769,4152.307692,4221.025641,4479.487179,4153.333333,4615.384615,3948.205129,4044.102564
64,4281.538461,4530.256410,4529.230769,4277.948717,4552.307692,4191.282051,4456.410256,4158.461538,4229.230769,4488.717948,4153.333333,4623.589743,3964.102565,4050.256410
65,4282.051282,4523.589743,4529.230769,4272.307692,4547.179487,4186.666666,4444.615384,4158.461538,4222.564102,4487.179487,4156.923076,4622.051282,3962.051283,4048.717948
66,4278.974358,4515.384615,4528.205128,4265.641025,4534.871794,4182.051282,4432.820512,4150.256410,4217.435897,4478.974358,4165.128205,4615.897435,3956.410257,4045.128205
67,4287.692307,4527.179487,4537.948717,4272.820512,4541.025641,4183.589743,4441.538461,4150.769230,4228.717948,4485.128205,4164.102564,4621.025641,3967.692308,4048.205128
68,4298.974358,4543.589743,4544.615384,4281.025641,4555.897435,4188.717948,4450.256410,4159.487179,4233.333333,4496.410256,4156.410256,4631.794871,3977.948718,4058.974358
69,4298.974358,4536.923076,4544.102564,4280.000000,4554.358974,4192.820512,4446.666666,4163.589743,4229.230769,4501.538461,4163.076923,4635.384615,3977.948718,4067.179487
70,4295.897435,4529.743589,4540.512820,4275.384615,4547.692307,4190.256410,4443.589743,4159.487179,4233.333333,4497.948717,4172.820512,4632.307692,3982.051283,4066.666666
71,4291.794871,4534.358974,4535.897435,4269.230769,4549.230769,4183.589743,4441.025641,4156.410256,4232.820512,4488.717948,4167.692307,4624.615384,3978.974359,4058.974358
72,4291.794871,4536.923076,4537.948717,4266.153846,4552.820512,4183.589743,4441.025641,4164.102564,4232.307692,4497.948717,4165.128205,4624.615384,3972.820513,4057.435897
73,4303.589743,4535.384615,4546.666666,4271.794871,4553.846153,4190.256410,4445.128205,4174.358974,4243.589743,4513.333333,4169.743589,4634.358974,3982.564103,4064.615384
74,4306.153846,4536.923076,4547.692307,4278.461538,4551.794871,4191.794871,4444.615384,4169.230769,4245.128205,4502.051282,4169.230769,4638.461538,3989.230770,4068.205128
75,4297.435897,4537.948717,4542.051282,4274.871794,4548.205128,4188.717948,4443.589743,4157.435897,4229.743589,4487.179487,4169.743589,4633.333333,3982.564103,4065.641025
76,4298.461538,4537.435897,4542.564102,4264.615384,4546.666666,4185.128205,4445.128205,4160.000000,4224.102564,4489.230769,4168.205128,4633.846153,3986.153847,4058.974358
77,4303.076923,4532.820512,4541.025641,4261.025641,4544.102564,4186.153846,4446.153846,4164.102564,4227.179487,4494.358974,4155.384615,4635.897435,3987.179488,4053.333333
78,4298.974358,4531.282051,4534.871794,4270.256410,4544.615384,4187.692307,4445.641025,4162.051282,4228.717948,4490.769230,4152.820512,4630.256410,3979.487180,4057.435897
79,4294.871794,4534.358974,4532.307692,4277.948717,4547.692307,4187.179487,4446.153846,4162.051282,4230.256410,4485.128205,4166.666666,4624.615384,3978.461539,4062.564102
80,4291.794871,4528.717948,4529.230769,4271.282051,4545.128205,4185.641025,4445.128205,4160.000000,4225.641025,4489.743589,4168.205128,4622.564102,3973.333334,4056.923076
81,4290.256410,4525.641025,4526.153846,4262.051282,4537.948717,4184.102564,4443.589743,4152.307692,4220.000000,4491.794871,4152.820512,4619.487179,3961.025642,4047.692307
82,4293.846153,4531.794871,4528.205128,4266.153846,4536.923076,4183.589743,4444.102564,4152.307692,4220.000000,4480.000000,4148.205128,4621.538461,3965.128206,4047.692307
83,4295.897435,4529.743589,4530.256410,4267.179487,4544.615384,4188.205128,4444.615384,4159.487179,4224.615384,4476.923076,4160.000000,4631.282051,3978.974359,4053.333333
84,4296.923076,4525.641025,4530.769230,4267.692307,4547.692307,4193.333333,4444.615384,4163.076923,4227.692307,4490.769230,4165.128205,4637.948717,3984.102565,4060.000000
85,4303.076923,4535.384615,4534.358974,4276.410256,4544.615384,4191.282051,4447.692307,4167.692307,4232.820512,4494.871794,4158.974358,4636.410256,3981.538462,4062.564102
86,4307.179487,4542.051282,4538.461538,4281.025641,4544.615384,4192.820512,4448.205128,4168.717948,4237.435897,4492.307692,4158.974358,4632.820512,3981.025642,4061.025641
87,4309.230769,4536.410256,4537.948717,4280.000000,4549.743589,4196.410256,4444.615384,4166.666666,4237.948717,4501.025641,4167.692307,4635.384615,3989.230770,4063.589743
88,4310.769230,4534.871794,4535.897435,4282.564102,4545.641025,4189.743589,4443.589743,4169.230769,4235.897435,4511.794871,4175.897435,4640.512820,3999.487180,4070.256410
89,4305.128205,4537.435897,4534.358974,4280.000000,4537.435897,4182.051282,4445.128205,4168.717948,4231.282051,4501.538461,4172.820512,4638.974358,3992.307693,4068.205128
90,4295.384615,4538.974358,4532.307692,4274.871794,4537.948717,4183.076923,4443.589743,4167.179487,4232.307692,4490.769230,4158.974358,4634.358974,3983.589744,4057.948717
91,4300.000000,4537.435897,4532.820512,4279.487179,4538.974358,4184.615384,4440.512820,4168.205128,4234.358974,4498.974358,4159.487179,4637.948717,3991.282052,4060.000000
92,4311.282051,4535.897435,4534.358974,4283.589743,4535.384615,4182.051282,4443.076923,4169.230769,4233.846153,4505.641025,4181.025641,4646.666666,4000.512820,4070.256410
93,4310.769230,4539.487179,4532.307692,4282.051282,4536.410256,4182.051282,4443.589743,4168.717948,4233.333333,4493.846153,4185.641025,4647.179487,3993.333334,4067.692307
94,4298.461538,4542.051282,4530.769230,4280.000000,4533.846153,4178.974358,4438.461538,4166.153846,4229.230769,4483.589743,4167.179487,4638.974358,3981.025642,4057.435897
95,4296.923076,4535.897435,4532.307692,4277.948717,4524.615384,4174.358974,4438.461538,4165.641025,4224.615384,4488.205128,4163.076923,4636.410256,3983.076924,4052.820512
96,4303.589743,4526.666666,4533.846153,4275.897435,4525.128205,4175.897435,4444.615384,4169.743589,4224.102564,4491.282051,4176.410256,4637.435897,3991.794872,4053.846153
97,4302.051282,4528.717948,4529.230769,4275.384615,4532.307692,4181.538461,4444.615384,4167.179487,4221.025641,4487.179487,4180.000000,4634.358974,3985.641026,4054.871794
98,4298.974358,4537.435897,4528.717948,4280.000000,4532.820512,4182.564102,4441.025641,4162.564102,4214.871794,4485.641025,4174.871794,4634.358974,3976.410257,4058.461538
99,4303.589743,4538.461538,4538.461538,4286.666666,4534.358974,4182.564102,4444.102564,4166.666666,4222.051282,4488.717948,4172.820512,4638.461538,3982.564103,4062.051282
100,4308.717948,4536.410256,4544.615384,4289.743589,4537.948717,4186.153846,4448.205128,4172.820512,4231.282051,4494.358974,4172.307692,4642.051282,3992.820513,4062.051282
101,4308.717948,4539.487179,4537.948717,4282.051282,4532.820512,4186.666666,4446.666666,4170.769230,4226.666666,4492.307692,4178.461538,4643.589743,3989.743590,4061.538461
102,4308.717948,4541.538461,4532.307692,4274.871794,4530.256410,4182.564102,4444.102564,4161.025641,4221.025641,4484.102564,4182.051282,4642.564102,3983.076924,4059.487179
103,4308.717948,4538.974358,4535.384615,4282.564102,4536.923076,4184.102564,4444.102564,4157.948717,4225.128205,4480.512820,4182.051282,4643.589743,3988.205129,4063.589743
104,4309.743589,4541.538461,4543.076923,4294.871794,4537.948717,4188.717948,4447.692307,4166.666666,4231.282051,4494.358974,4188.205128,4649.230769,4001.025641,4071.794871
105,4311.282051,4545.128205,4545.128205,4292.307692,4537.948717,4189.230769,4447.692307,4172.307692,4233.846153,4506.153846,4191.282051,4649.230769,4004.615384,4067.179487
106,4309.230769,4543.076923,4535.384615,4281.025641,4539.487179,4184.615384,4442.051282,4168.205128,4231.282051,4495.384615,4184.615384,4642.564102,3993.333334,4053.333333
107,4308.205128,4541.538461,4531.282051,4278.974358,4537.948717,4183.589743,4442.051282,4168.205128,4230.256410,4486.153846,4186.666666,4642.564102,3986.666667,4057.948717
108,4311.282051,4543.589743,4540.512820,4287.692307,4539.487179,4185.128205,4445.641025,4172.307692,4234.358974,4493.846153,4195.384615,4647.179487,3994.358975,4071.282051
109,4309.230769,4541.538461,4540.512820,4293.333333,4541.025641,4185.641025,4440.512820,4169.230769,4234.358974,4504.102564,4185.641025,4644.615384,3997.948718,4067.179487
110,4302.564102,4535.384615,4531.282051,4287.179487,4535.384615,4179.487179,4433.846153,4167.692307,4232.820512,4505.128205,4179.487179,4638.974358,3993.846154,4056.410256
111,4304.102564,4532.307692,4531.794871,4282.051282,4531.282051,4172.820512,4435.897435,4168.717948,4233.846153,4500.000000,4190.769230,4639.487179,3994.871795,4058.461538
112,4308.717948,4533.846153,4534.358974,4284.102564,4535.384615,4176.923076,4441.025641,4169.230769,4232.307692,4489.230769,4186.666666,4640.000000,3989.743590,4058.974358
113,4306.666666,4538.974358,4531.794871,4284.615384,4538.461538,4182.564102,4443.076923,4169.230769,4230.256410,4485.641025,4170.256410,4635.384615,3983.589744,4053.333333
114,4305.641025,4541.025641,4532.307692,4287.692307,4540.512820,4184.615384,4440.000000,4170.769230,4229.743589,4497.435897,4174.358974,4633.846153,3998.461539,4052.307692
115,4308.205128,4538.461538,4533.846153,4288.205128,4536.923076,4180.512820,4435.384615,4167.692307,4231.282051,4503.076923,4189.743589,4636.923076,4007.179487,4059.487179
116,4309.743589,4538.461538,4534.871794,4282.051282,4529.743589,4175.897435,4437.435897,4163.076923,4231.282051,4494.871794,4186.666666,4636.923076,3995.897436,4067.179487
117,4309.743589,4535.384615,4538.974358,4283.589743,4531.794871,4174.358974,4442.051282,4165.128205,4231.282051,4489.743589,4185.128205,4637.435897,3996.923077,4066.153846
118,4309.743589,4533.846153,4540.512820,4289.230769,4533.333333,4173.846153,4441.025641,4166.666666,4233.333333,4493.846153,4200.000000,4642.564102,4004.615384,4062.051282
119,4308.717948,4538.974358,4534.358974,4283.589743,4530.256410,4177.435897,4439.487179,4160.512820,4229.743589,4494.358974,4195.384615,4641.538461,3997.435898,4059.487179
120,4302.564102,4536.410256,4529.743589,4275.897435,4531.282051,4180.512820,4437.948717,4151.794871,4217.435897,4490.769230,4171.282051,4634.358974,3990.256411,4054.871794
121,4295.897435,4524.615384,4528.717948,4280.512820,4528.205128,4173.333333,4433.846153,4148.717948,4210.769230,4490.769230,4162.051282,4629.230769,3988.205129,4049.230769
122,4301.025641,4527.179487,4530.256410,4285.641025,4525.641025,4171.282051,4434.358974,4156.410256,4220.000000,4490.256410,4170.769230,4631.282051,3990.256411,4052.820512
123,4310.769230,4538.461538,4535.897435,4288.717948,4530.256410,4179.487179,4441.538461,4167.692307,4227.692307,4491.282051,4185.641025,4638.461538,4001.538461,4061.538461
124,4313.846153,4540.000000,4544.102564,4294.871794,4534.358974,4184.615384,4445.128205,4171.282051,4227.692307,4491.794871,4194.358974,4644.102564,4005.641025,4063.076923
125,4314.871794,4536.923076,4543.589743,4294.358974,4533.846153,4180.512820,4442.564102,4163.589743,4226.153846,4490.256410,4185.641025,4641.538461,4000.512820,4062.051282
126,4313.333333,4535.897435,4536.410256,4286.666666,4532.307692,4175.897435,4434.871794,4159.487179,4224.102564,4491.282051,4176.410256,4634.358974,4003.589743,4064.102564
127,4309.230769,4535.384615,4534.358974,4285.641025,4531.282051,4175.897435,4433.333333,4164.615384,4222.051282,4492.820512,4182.564102,4634.358974,4004.615384,4061.025641
128,4308.717948,4530.769230,4535.897435,4291.794871,4531.794871,4177.948717,4437.435897,4168.717948,4217.435897,4490.769230,4183.589743,4634.358974,3997.948718,4057.435897
129,4312.820512,4528.205128,4532.307692,4290.256410,4530.769230,4176.923076,4436.410256,4170.769230,4220.512820,4491.794871,4179.487179,4632.307692,3996.410257,4059.487179
130,4315.384615,4532.820512,4531.282051,4283.589743,4529.230769,4175.897435,4436.410256,4171.794871,4226.666666,4492.307692,4183.589743,4636.923076,4004.102564,4060.000000
131,4313.333333,4534.358974,4532.307692,4282.051282,4531.282051,4177.435897,4440.000000,4166.153846,4223.076923,4486.666666,4186.153846,4636.923076,4004.615384,4055.384615
132,4309.230769,4525.128205,4528.205128,4278.974358,4528.205128,4174.871794,4433.846153,4161.025641,4216.410256,4487.179487,4179.487179,4628.717948,3993.846154,4051.794871
133,4308.205128,4522.051282,4526.153846,4276.923076,4523.589743,4169.743589,4428.717948,4163.589743,4213.846153,4492.820512,4179.487179,4628.717948,3992.307693,4049.743589
134,4311.282051,4525.641025,4527.692307,4281.538461,4524.615384,4169.743589,4432.820512,4164.615384,4216.410256,4490.256410,4188.205128,4635.384615,4004.615384,4050.256410
135,4309.230769,4522.564102,4527.179487,4281.025641,4523.076923,4170.769230,4432.307692,4163.589743,4223.076923,4489.230769,4187.179487,4635.897435,4005.641025,4056.410256
136,4300.512820,4519.487179,4527.179487,4274.871794,4524.615384,4173.333333,4428.717948,4166.666666,4224.615384,4489.743589,4181.538461,4630.769230,3992.307693,4057.948717
137,4295.897435,4521.025641,4527.179487,4274.358974,4528.205128,4175.384615,4427.692307,4166.153846,4215.384615,4485.128205,4184.615384,4628.717948,3990.256411,4050.769230
138,4304.102564,4521.025641,4527.179487,4277.948717,4524.102564,4175.897435,4429.743589,4163.076923,4215.897435,4486.153846,4184.615384,4632.307692,3996.923077,4052.307692
139,4313.846153,4524.102564,4531.282051,4280.000000,4524.615384,4178.974358,4438.461538,4170.256410,4231.282051,4497.435897,4180.512820,4640.000000,4007.692307,4061.538461
140,4317.948717,4534.871794,4541.025641,4286.153846,4534.871794,4184.102564,4447.692307,4182.564102,4241.025641,4505.641025,4191.794871,4644.102564,4018.974358,4064.615384
141,4318.974358,4537.435897,4545.641025,4289.743589,4540.000000,4188.205128,4449.743589,4185.641025,4241.025641,4509.230769,4205.128205,4645.641025,4017.948717,4061.538461
142,4317.435897,4529.743589,4540.000000,4285.641025,4533.333333,4185.128205,4446.153846,4182.051282,4235.897435,4508.205128,4196.923076,4645.128205,4012.307692,4062.564102
143,4313.846153,4529.230769,4536.923076,4288.205128,4530.769230,4180.512820,4443.076923,4176.923076,4230.256410,4502.564102,4183.589743,4641.538461,4012.820512,4062.051282
144,4313.333333,4532.307692,4536.923076,4292.307692,4538.461538,4183.589743,4443.589743,4169.743589,4225.641025,4497.435897,4186.153846,4637.948717,4003.589743,4054.358974
145,4311.282051,4527.179487,4531.794871,4284.615384,4537.948717,4185.128205,4446.153846,4164.102564,4219.487179,4488.205128,4186.153846,4632.307692,3988.205129,4051.282051
146,4301.538461,4518.974358,4525.641025,4272.820512,4524.615384,4174.871794,4443.076923,4156.923076,4214.358974,4473.333333,4169.230769,4623.076923,3987.692308,4048.205128
147,4296.410256,4524.102564,4526.153846,4271.282051,4522.564102,4169.743589,4440.000000,4151.282051,4214.358974,4472.820512,4167.692307,4620.000000,4000.000000,4042.564102
148,4304.102564,4531.794871,4533.333333,4276.410256,4532.820512,4174.871794,4442.564102,4155.384615,4218.974358,4488.205128,4181.025641,4628.205128,4002.564102,4047.179487
149,4311.282051,4525.641025,4537.948717,4280.512820,4531.794871,4172.820512,4443.076923,4160.512820,4223.076923,4495.897435,4177.948717,4636.410256,3998.461539,4057.435897
150,4312.307692,4525.128205,4538.974358,4280.000000,4522.051282,4173.846153,4443.589743,4161.538461,4226.666666,4494.871794,4173.333333,4634.871794,4004.615384,4058.974358
151,4309.743589,4533.333333,4536.923076,4278.974358,4522.564102,4179.487179,4444.615384,4161.538461,4224.102564,4494.871794,4174.358974,4629.230769,4007.179487,4050.769230
152,4304.102564,4528.717948,4529.743589,4278.461538,4526.153846,4174.871794,4437.948717,4157.948717,4217.435897,4491.282051,4163.589743,4621.025641,3995.384616,4043.076923
153,4301.538461,4521.025641,4526.153846,4274.871794,4524.102564,4171.282051,4429.743589,4151.794871,4217.435897,4487.179487,4159.487179,4618.974358,3995.384616,4044.102564
154,4309.230769,4529.743589,4532.820512,4278.461538,4523.589743,4174.871794,4430.769230,4154.871794,4222.564102,4490.769230,4175.384615,4625.641025,4009.743589,4052.820512
155,4314.358974,4537.948717,4536.410256,4284.615384,4524.102564,4176.923076,4433.333333,4155.384615,4219.487179,4494.871794,4177.435897,4628.717948,4010.256410,4055.384615
156,4311.794871,4532.307692,4527.692307,4280.512820,4524.102564,4174.871794,4428.717948,4151.794871,4213.333333,4488.205128,4165.641025,4623.589743,3998.461539,4048.205128
157,4311.282051,4526.153846,4524.615384,4277.435897,4524.615384,4173.846153,4427.692307,4153.333333,4215.897435,4484.615384,4168.205128,4622.051282,3996.410257,4050.769230
158,4311.794871,4521.025641,4529.230769,4280.000000,4523.589743,4176.410256,4433.846153,4153.333333,4217.435897,4487.692307,4173.846153,4623.076923,4000.000000,4051.794871
159,4309.743589,4521.025641,4524.615384,4272.307692,4523.076923,4178.461538,4437.435897,4151.282051,4211.282051,4482.051282,4162.051282,4618.974358,3999.487180,4043.076923
160,4309.230769,4528.205128,4519.487179,4266.153846,4524.102564,4178.461538,4438.461538,4152.820512,4208.717948,4475.384615,4146.666666,4617.435897,3993.846154,4040.000000
161,4308.205128,4529.743589,4522.564102,4271.282051,4523.589743,4176.410256,4433.333333,4152.820512,4211.282051,4473.846153,4146.153846,4618.974358,3991.282052,4040.000000
162,4305.128205,4523.076923,4524.615384,4269.743589,4523.589743,4175.384615,4428.717948,4149.743589,4213.333333,4474.871794,4155.897435,4618.461538,3993.846154,4035.897435
163,4305.641025,4519.487179,4523.589743,4268.717948,4525.641025,4175.897435,4434.358974,4150.256410,4213.333333,4481.025641,4158.974358,4616.923076,3992.307693,4036.410256
164,4308.717948,4522.564102,4527.179487,4271.282051,4523.589743,4176.923076,4442.051282,4153.333333,4216.923076,4481.025641,4152.820512,4620.000000,3988.717949,4036.923076
165,4313.333333,4523.589743,4534.871794,4264.615384,4526.153846,4181.538461,4443.076923,4154.358974,4217.948717,4480.512820,4149.743589,4628.205128,3991.282052,4037.435897
166,4314.358974,4522.051282,4538.461538,4259.487179,4533.333333,4181.025641,4441.025641,4155.384615,4213.846153,4482.564102,4149.230769,4631.282051,3994.358975,4043.589743
167,4313.333333,4523.076923,4539.487179,4264.615384,4530.256410,4177.948717,4442.051282,4156.410256,4214.871794,4480.512820,4152.820512,4629.230769,3993.333334,4048.717948
168,4313.846153,4522.564102,4540.512820,4265.128205,4522.564102,4175.384615,4441.538461,4157.435897,4218.974358,4480.512820,4163.589743,4630.769230,3990.769231,4049.230769
169,4316.923076,4522.051282,4542.564102,4263.076923,4521.025641,4171.794871,4440.512820,4155.897435,4217.435897,4487.692307,4168.717948,4633.333333,3994.358975,4052.307692
170,4321.538461,4526.666666,4544.615384,4265.128205,4526.666666,4175.384615,4441.538461,4155.384615,4220.000000,4485.128205,4162.564102,4632.307692,4004.102564,4054.358974
171,4325.128205,4528.717948,4544.102564,4261.025641,4533.846153,4181.538461,4440.000000,4160.512820,4229.743589,4481.025641,4162.564102,4633.846153,4008.717948,4055.897435
172,4324.615384,4523.076923,4537.435897,4262.564102,4531.282051,4180.000000,4440.512820,4162.564102,4228.205128,4492.307692,4171.282051,4636.923076,4007.179487,4060.512820
173,4324.102564,4524.615384,4534.871794,4269.743589,4526.153846,4174.358974,4443.076923,4160.000000,4220.000000,4495.897435,4176.923076,4634.871794,4006.153846,4058.974358
174,4325.128205,4531.282051,4543.589743,4271.794871,4534.358974,4181.025641,4443.589743,4164.102564,4226.666666,4489.230769,4180.512820,4638.461538,4009.230769,4058.461538
175,4324.102564,4531.794871,4546.153846,4266.666666,4542.564102,4188.205128,4443.076923,4171.794871,4237.948717,4494.871794,4175.897435,4640.512820,4013.333333,4064.102564
176,4319.487179,4530.769230,4536.923076,4260.000000,4538.461538,4182.564102,4443.589743,4167.179487,4229.743589,4495.384615,4165.128205,4635.897435,4009.743589,4057.435897
177,4316.410256,4527.692307,4533.846153,4261.025641,4536.923076,4177.435897,4443.589743,4156.923076,4217.435897,4481.025641,4167.179487,4635.384615,3999.487180,4049.743589
178,4317.435897,4521.538461,4536.923076,4266.153846,4538.974358,4180.512820,4441.025641,4153.846153,4218.461538,4476.410256,4173.846153,4638.461538,3990.256411,4053.846153
179,4320.000000,4521.025641,4536.410256,4266.153846,4538.461538,4182.051282,4441.025641,4155.384615,4220.512820,4485.641025,4167.692307,4637.948717,3991.282052,4055.897435
180,4315.384615,4525.128205,4531.282051,4261.538461,4538.461538,4176.410256,4441.025641,4154.871794,4217.435897,4481.538461,4157.435897,4635.384615,4001.025641,4053.333333
181,4313.333333,4523.589743,4529.743589,4260.512820,4538.461538,4175.384615,4437.435897,4152.307692,4215.384615,4472.820512,4154.358974,4635.384615,4002.051282,4052.820512
182,4317.435897,4520.000000,4533.846153,4264.102564,4540.000000,4180.000000,4436.923076,4151.794871,4212.820512,4474.358974,4159.487179,4633.846153,3991.794872,4052.820512
183,4315.384615,4525.128205,4534.358974,4268.205128,4541.538461,4183.076923,4443.076923,4154.358974,4211.282051,4475.384615,4165.641025,4633.846153,3983.589744,4053.333333
184,4308.717948,4529.743589,4533.333333,4267.179487,4540.000000,4181.538461,4446.153846,4155.384615,4210.256410,4473.333333,4167.179487,4636.923076,3985.641026,4055.384615
185,4308.717948,4520.000000,4532.820512,4257.948717,4532.820512,4177.435897,4438.974358,4152.820512,4207.692307,4478.974358,4160.512820,4633.846153,3992.820513,4050.769230
186,4306.666666,4512.307692,4528.205128,4250.256410,4530.769230,4173.333333,4435.897435,4149.743589,4207.692307,4474.871794,4152.307692,4624.102564,3994.871795,4041.538461
187,4303.076923,4514.358974,4524.102564,4251.794871,4534.871794,4174.871794,4440.000000,4151.794871,4206.666666,4458.461538,4148.205128,4621.538461,3982.564103,4042.051282
188,4307.179487,4516.410256,4526.666666,4258.974358,4530.256410,4174.358974,4437.435897,4155.897435,4207.692307,4460.512820,4148.205128,4629.743589,3975.897436,4047.692307
189,4304.615384,4514.358974,4523.589743,4256.923076,4520.000000,4166.153846,4428.717948,4150.769230,4208.717948,4472.307692,4146.666666,4627.179487,3985.641026,4043.589743
190,4296.410256,4511.282051,4515.897435,4249.230769,4521.538461,4166.153846,4425.641025,4138.461538,4202.564102,4467.179487,4148.205128,4616.923076,3987.179488,4034.871794
191,4298.461538,4512.820512,4519.487179,4251.282051,4528.205128,4169.230769,4428.717948,4140.512820,4203.076923,4464.615384,4159.487179,4621.025641,3982.051283,4036.923076
192,4306.666666,4516.923076,4528.205128,4253.333333,4524.102564,4168.717948,4427.692307,4150.769230,4214.358974,4476.410256,4162.051282,4632.820512,3986.153847,4044.102564
193,4308.717948,4519.487179,4527.692307,4252.307692,4524.102564,4167.179487,4427.179487,4154.358974,4220.512820,4476.923076,4154.871794,4635.384615,3990.769231,4045.128205
194,4309.230769,4520.512820,4528.205128,4257.948717,4532.820512,4167.179487,4429.230769,4162.051282,4222.051282,4478.461538,4160.000000,4636.410256,3993.846154,4051.282051
195,4312.820512,4523.589743,4533.846153,4267.692307,4538.974358,4171.282051,4431.282051,4169.230769,4226.666666,4494.871794,4172.307692,4641.025641,4001.538461,4056.923076
196,4310.769230,4523.076923,4529.743589,4266.666666,4538.461538,4171.794871,4429.230769,4159.487179,4223.589743,4490.769230,4165.641025,4636.923076,4003.076923,4051.794871
197,4302.564102,4516.410256,4517.435897,4256.410256,4535.384615,4167.692307,4427.179487,4147.692307,4212.820512,4469.230769,4147.692307,4624.102564,3991.794872,4042.051282
198,4296.410256,4512.820512,4512.820512,4249.743589,4534.871794,4166.666666,4426.153846,4152.820512,4211.282051,4465.641025,4153.333333,4620.000000,3985.641026,4038.461538
199,4303.076923,4517.948717,4518.461538,4254.871794,4537.435897,4171.282051,4427.179487,4162.051282,4220.000000,4473.333333,4168.717948,4630.256410,3994.358975,4047.692307
200,4317.435897,4521.538461,4527.179487,4265.641025,4539.487179,4172.307692,4434.871794,4163.076923,4227.179487,4481.025641,4167.692307,4639.487179,4007.179487,4058.974358
201,4321.538461,4522.564102,4532.307692,4267.179487,4542.564102,4173.333333,4442.564102,4162.564102,4225.641025,4488.205128,4159.487179,4636.923076,4009.743589,4057.435897
202,4318.461538,4529.743589,4532.820512,4264.102564,4549.743589,4181.025641,4442.564102,4166.153846,4226.153846,4493.333333,4164.615384,4634.871794,4005.128205,4051.794871
203,4320.000000,4534.358974,4535.384615,4265.641025,4555.384615,4187.179487,4442.564102,4171.794871,4233.333333,4495.384615,4182.051282,4641.025641,4007.692307,4059.487179
204,4323.076923,4531.282051,4542.564102,4271.794871,4555.384615,4185.128205,4444.615384,4173.333333,4238.461538,4495.384615,4182.051282,4646.666666,4017.435897,4063.589743
205,4326.666666,4536.410256,4541.025641,4280.512820,4556.923076,4183.076923,4442.051282,4171.794871,4237.948717,4493.333333,4170.256410,4646.666666,4024.102564,4063.589743
206,4329.230769,4543.076923,4535.384615,4282.051282,4557.948717,4186.666666,4440.512820,4169.230769,4234.871794,4491.794871,4174.871794,4645.128205,4023.076923,4069.743589
207,4326.666666,4536.923076,4534.871794,4274.871794,4555.897435,4184.615384,4440.512820,4166.153846,4228.205128,4491.794871,4183.076923,4644.102564,4015.384615,4068.205128
208,4320.512820,4528.717948,4534.358974,4269.230769,4553.846153,4177.435897,4441.538461,4170.256410,4225.641025,4493.333333,4178.461538,4643.076923,4012.820512,4063.076923
209,4315.384615,4522.051282,4529.230769,4264.615384,4553.333333,4176.923076,4441.538461,4170.769230,4226.153846,4492.307692,4172.307692,4640.512820,4012.820512,4060.000000
210,4310.769230,4517.948717,4524.615384,4263.076923,4551.282051,4180.000000,4437.435897,4162.051282,4222.564102,4484.615384,4172.307692,4635.384615,4006.153846,4053.846153
211,4310.769230,4523.589743,4522.051282,4263.589743,4546.153846,4175.384615,4433.333333,4153.846153,4216.923076,4476.923076,4172.307692,4630.769230,3993.846154,4048.717948
212,4308.205128,4520.512820,4518.974358,4254.358974,4541.025641,4169.230769,4430.769230,4153.333333,4212.820512,4475.384615,4160.512820,4625.128205,3987.692308,4047.179487
213,4299.487179,4507.692307,4516.923076,4246.666666,4537.948717,4170.256410,4429.230769,4152.820512,4208.717948,4471.794871,4143.589743,4620.000000,3990.769231,4041.025641
214,4298.461538,4511.282051,4516.923076,4254.358974,4538.974358,4170.256410,4432.820512,4151.794871,4209.230769,4470.256410,4142.564102,4620.000000,3991.794872,4039.487179
215,4305.641025,4522.051282,4524.615384,4261.025641,4542.564102,4170.769230,4441.025641,4153.333333,4216.410256,4471.282051,4155.384615,4628.717948,3989.230770,4048.205128
216,4309.230769,4516.923076,4529.230769,4258.461538,4543.076923,4173.846153,4443.076923,4153.333333,4216.410256,4473.333333,4162.564102,4633.333333,3993.846154,4054.358974
217,4307.692307,4512.307692,4523.589743,4257.948717,4538.461538,4172.307692,4442.051282,4156.923076,4217.435897,4478.974358,4163.589743,4633.846153,4005.641025,4052.307692
218,4311.794871,4522.564102,4522.051282,4261.538461,4538.974358,4169.743589,4443.589743,4167.179487,4230.769230,4487.692307,4161.538461,4635.897435,4011.282051,4050.256410
219,4319.487179,4533.333333,4527.179487,4270.256410,4543.589743,4174.871794,4444.615384,4172.307692,4235.384615,4490.256410,4156.410256,4635.897435,4005.128205,4051.794871
220,4323.589743,4532.820512,4529.230769,4275.897435,4540.512820,4177.435897,4445.128205,4168.717948,4228.205128,4487.179487,4165.641025,4635.384615,4002.564102,4057.948717
221,4324.102564,4531.282051,4527.692307,4270.769230,4539.487179,4172.820512,4444.615384,4171.282051,4231.794871,4490.769230,4182.564102,4638.461538,4016.410256,4064.615384
222,4322.564102,4533.333333,4529.743589,4265.128205,4546.666666,4175.897435,4445.128205,4176.923076,4235.897435,4495.897435,4183.076923,4641.538461,4026.153846,4060.000000
223,4321.025641,4530.256410,4527.692307,4265.641025,4548.205128,4185.128205,4448.205128,4173.333333,4224.615384,4482.564102,4169.230769,4636.410256,4015.897435,4052.307692
224,4318.461538,4527.179487,4522.564102,4270.256410,4546.666666,4184.615384,4448.205128,4168.717948,4214.871794,4473.846153,4162.051282,4629.230769,4000.512820,4052.820512
225,4317.948717,4528.205128,4524.102564,4273.846153,4549.230769,4181.025641,4450.769230,4166.153846,4216.923076,4483.076923,4163.589743,4629.743589,4001.025641,4056.410256
226,4320.000000,4529.230769,4527.179487,4268.205128,4552.307692,4183.589743,4451.794871,4162.051282,4217.435897,4484.102564,4161.025641,4630.769230,4011.794871,4054.358974
227,4321.025641,4531.794871,4528.717948,4266.153846,4552.820512,4186.153846,4451.794871,4163.589743,4220.000000,4480.512820,4171.794871,4631.282051,4015.384615,4052.307692
228,4320.512820,4533.333333,4530.256410,4272.307692,4552.820512,4185.641025,4455.897435,4169.743589,4227.692307,4492.820512,4188.717948,4634.358974,4008.717948,4056.923076
229,4321.538461,4529.743589,4531.282051,4271.282051,4553.846153,4185.641025,4453.846153,4169.743589,4228.717948,4497.435897,4178.974358,4636.410256,4005.641025,4060.000000
230,4321.538461,4530.256410,4528.717948,4266.153846,4550.769230,4184.102564,4444.102564,4167.692307,4226.666666,4489.743589,4163.076923,4634.358974,4009.230769,4056.923076
231,4316.410256,4531.282051,4527.179487,4265.641025,4543.076923,4178.461538,4443.076923,4170.769230,4225.641025,4485.641025,4169.230769,4632.307692,4008.205128,4050.769230
232,4309.230769,4524.102564,4525.128205,4263.076923,4541.538461,4176.410256,4445.128205,4169.230769,4216.410256,4473.846153,4169.743589,4630.769230,4004.102564,4047.692307
233,4309.230769,4523.076923,4524.615384,4262.564102,4551.282051,4181.538461,4442.051282,4165.641025,4213.333333,4472.307692,4155.897435,4630.769230,4005.641025,4051.282051
234,4315.384615,4531.282051,4528.717948,4268.205128,4556.410256,4186.153846,4450.769230,4173.333333,4226.666666,4491.794871,4156.923076,4632.820512,4003.589743,4058.461538
235,4313.846153,4530.256410,4530.769230,4271.794871,4554.871794,4186.666666,4462.051282,4182.564102,4233.846153,4496.923076,4162.051282,4630.769230,4000.000000,4059.487179
236,4310.256410,4524.615384,4528.205128,4271.794871,4556.923076,4188.717948,4463.076923,4184.102564,4233.333333,4488.717948,4159.487179,4631.794871,4011.282051,4055.897435
237,4312.307692,4526.666666,4526.666666,4267.692307,4558.974358,4189.230769,4462.564102,4184.615384,4236.410256,4489.743589,4160.512820,4633.846153,4021.538461,4053.333333
238,4310.769230,4529.230769,4521.025641,4261.538461,4555.384615,4185.641025,4462.051282,4180.512820,4233.846153,4492.820512,4154.871794,4625.128205,4010.769230,4048.717948
239,4308.205128,4525.128205,4517.435897,4265.128205,4552.820512,4182.564102,4458.461538,4175.384615,4229.743589,4491.794871,4147.692307,4621.538461,4001.538461,4046.153846
240,4314.358974,4526.666666,4527.179487,4276.410256,4555.897435,4184.102564,4456.923076,4179.487179,4232.820512,4492.820512,4157.948717,4634.358974,4006.153846,4048.205128
241,4315.897435,4531.794871,4533.333333,4274.871794,4557.435897,4185.641025,4457.435897,4177.948717,4228.717948,4491.794871,4164.102564,4639.487179,4006.666666,4048.717948
242,4311.794871,4524.615384,4525.641025,4263.076923,4553.846153,4183.076923,4455.384615,4173.846153,4220.000000,4487.692307,4154.358974,4629.230769,4003.076923,4045.641025
243,4319.487179,4517.948717,4524.615384,4260.512820,4553.333333,4182.051282,4457.435897,4177.435897,4224.615384,4489.230769,4154.358974,4632.307692,4004.102564,4049.230769
244,4328.717948,4524.102564,4532.820512,4267.692307,4559.487179,4186.153846,4459.487179,4181.538461,4232.820512,4491.794871,4165.641025,4644.615384,4006.153846,4063.589743
245,4325.128205,4534.358974,4539.487179,4273.846153,4563.076923,4188.205128,4460.000000,4181.025641,4233.846153,4492.307692,4169.230769,4646.666666,4010.256410,4071.794871
246,4326.153846,4536.410256,4538.974358,4274.358974,4560.512820,4185.641025,4458.974358,4179.487179,4229.230769,4493.333333,4162.564102,4645.641025,4011.282051,4063.589743
247,4328.205128,4527.179487,4532.820512,4266.666666,4555.384615,4184.102564,4452.307692,4172.307692,4221.025641,4492.820512,4154.871794,4642.051282,4004.615384,4052.820512
248,4316.923076,4518.461538,4527.692307,4258.974358,4552.307692,4181.538461,4450.769230,4162.564102,4213.333333,4483.076923,4149.743589,4630.769230,3995.897436,4049.230769
249,4307.692307,4518.974358,4525.128205,4263.076923,4552.820512,4178.461538,4454.358974,4163.589743,4214.358974,4476.923076,4143.076923,4623.076923,3990.256411,4045.128205
250,4310.256410,4521.025641,4520.512820,4266.153846,4553.846153,4179.487179,4452.307692,4166.666666,4218.974358,4485.128205,4140.000000,4624.615384,3994.358975,4045.128205
251,4312.307692,4519.487179,4516.410256,4261.025641,4553.333333,4181.538461,4445.641025,4164.102564,4217.948717,4492.307692,4148.205128,4625.641025,4002.051282,4049.230769
252,4312.307692,4521.538461,4515.384615,4256.923076,4553.333333,4181.025641,4441.538461,4161.538461,4218.461538,4489.230769,4155.384615,4626.153846,4002.051282,4045.128205
253,4317.435897,4528.717948,4517.435897,4262.051282,4557.948717,4181.538461,4446.666666,4165.641025,4224.102564,4488.205128,4149.743589,4628.717948,3999.487180,4043.589743
254,4323.076923,4529.743589,4523.076923,4267.179487,4565.128205,4185.641025,4453.846153,4171.282051,4225.128205,4493.333333,4144.615384,4630.769230,4004.615384,4053.846153
255,4325.128205,4522.564102,4526.153846,4266.153846,4569.743589,4188.717948,4451.282051,4170.256410,4220.512820,4492.820512,4145.641025,4629.743589,4013.333333,4056.923076
256,4325.128205,4522.564102,4525.641025,4262.564102,4565.128205,4186.666666,4443.589743,4168.717948,4220.000000,4490.256410,4151.794871,4630.769230,4020.512820,4054.871794
