,AF3,F7,F3,FC5,T7,P7,O1,O2,P8,T8,FC6,F4,F8,AF4
0,4372.820512,4498.461538,4489.743589,4255.897435,4475.897435,4155.384615,4429.230769,4215.897435,4256.410256,4483.076923,4230.256410,4624.615384,3998.974359,3965.128206
1,4379.487179,4499.487179,4493.846153,4263.076923,4468.205128,4156.410256,4431.282051,4214.871794,4257.948717,4485.641025,4229.230769,4624.615384,3994.871795,3968.717949
2,4388.205128,4497.948717,4505.128205,4267.179487,4468.205128,4158.461538,4434.871794,4218.461538,4260.000000,4491.282051,4229.743589,4634.358974,3993.846154,3975.384616
3,4388.205128,4499.487179,4507.692307,4264.615384,4468.717948,4154.358974,4431.794871,4221.025641,4259.487179,4486.666666,4229.743589,4638.461538,3997.948718,3978.974359
4,4380.512820,4501.538461,4504.615384,4257.948717,4464.102564,4152.307692,4427.179487,4218.461538,4262.564102,4483.076923,4226.153846,4632.307692,3996.923077,3975.384616
5,4374.358974,4499.487179,4503.589743,4253.333333,4460.000000,4152.307692,4427.692307,4215.384615,4261.025641,4487.692307,4225.641025,4629.743589,3991.794872,3971.794872
6,4368.717948,4487.179487,4494.358974,4253.333333,4459.487179,4153.846153,4427.692307,4215.384615,4253.333333,4481.538461,4220.512820,4625.641025,3986.153847,3965.128206
7,4366.153846,4477.435897,4487.692307,4251.282051,4464.615384,4154.871794,4423.589743,4213.846153,4250.256410,4472.307692,4214.358974,4620.512820,3977.948718,3958.461539
8,4367.179487,4484.615384,4493.333333,4246.666666,4467.179487,4153.333333,4422.051282,4213.333333,4250.769230,4477.948717,4216.410256,4620.000000,3976.923077,3959.487180
9,4364.102564,4488.717948,4492.307692,4245.641025,4463.076923,4153.333333,4425.641025,4215.384615,4249.230769,4483.076923,4212.820512,4619.487179,3979.487180,3959.487180
10,4365.641025,4481.025641,4487.179487,4248.205128,4464.615384,4157.435897,4428.205128,4215.897435,4251.282051,4474.358974,4204.615384,4617.435897,3979.487180,3957.948718
11,4373.846153,4487.692307,4497.435897,4255.384615,4474.358974,4162.051282,4428.205128,4216.923076,4258.461538,4472.820512,4218.461538,4622.564102,3981.025642,3963.589744
12,4372.307692,4497.948717,4504.102564,4259.487179,4477.435897,4164.615384,4428.717948,4217.948717,4256.923076,4483.076923,4234.358974,4626.666666,3981.025642,3964.615385
13,4362.051282,4489.743589,4495.384615,4251.282051,4471.282051,4160.512820,4422.051282,4215.897435,4248.205128,4483.076923,4219.487179,4621.538461,3977.435898,3955.384616
14,4361.025641,4479.487179,4488.205128,4242.051282,4467.692307,4152.820512,4414.358974,4213.846153,4245.641025,4474.871794,4200.512820,4617.948717,3977.948718,3955.384616
15,4370.769230,4483.589743,4494.358974,4249.743589,4470.256410,4156.923076,4420.000000,4216.923076,4260.512820,4481.538461,4214.358974,4620.000000,3982.051283,3963.589744
16,4378.461538,4493.846153,4504.102564,4264.615384,4475.897435,4164.615384,4427.692307,4221.025641,4273.846153,4493.846153,4233.846153,4624.102564,3987.179488,3965.128206
17,4376.923076,4497.435897,4505.641025,4263.076923,4477.435897,4163.076923,4428.205128,4220.512820,4269.743589,4490.256410,4218.461538,4625.128205,3995.384616,3967.179488
18,4371.794871,4491.282051,4504.615384,4248.205128,4477.948717,4159.487179,4423.589743,4215.384615,4259.487179,4478.974358,4205.641025,4622.051282,3992.307693,3969.230770
19,4369.230769,4488.205128,4502.564102,4242.051282,4474.358974,4156.923076,4415.897435,4212.820512,4256.410256,4478.461538,4215.384615,4620.512820,3981.025642,3963.589744
20,4372.307692,4494.358974,4502.051282,4252.820512,4467.179487,4157.948717,4416.923076,4215.897435,4263.589743,4488.717948,4214.871794,4625.641025,3982.051283,3965.128206
21,4378.974358,4498.461538,4505.641025,4262.051282,4470.769230,4162.051282,4426.666666,4219.487179,4270.769230,4495.897435,4215.384615,4632.820512,3991.282052,3974.358975
22,4380.512820,4499.487179,4510.256410,4257.435897,4480.512820,4162.564102,4429.743589,4219.487179,4275.384615,4496.923076,4235.897435,4634.871794,3996.410257,3975.384616
23,4376.923076,4497.948717,4508.205128,4249.230769,4480.512820,4162.564102,4428.205128,4217.435897,4274.358974,4492.820512,4235.384615,4633.846153,3994.871795,3967.692308
24,4372.820512,4492.307692,4502.051282,4250.769230,4474.871794,4166.153846,4429.743589,4215.897435,4263.589743,4482.564102,4206.666666,4629.743589,3983.589744,3960.512821
25,4371.282051,4495.384615,4504.615384,4251.794871,4478.461538,4166.153846,4430.256410,4216.410256,4260.512820,4480.000000,4205.128205,4627.692307,3973.846154,3958.974359
26,4375.384615,4501.538461,4512.820512,4247.179487,4481.025641,4166.666666,4432.820512,4217.435897,4269.743589,4488.717948,4230.256410,4632.820512,3983.589744,3965.128206
27,4382.564102,4501.538461,4519.487179,4251.794871,4477.948717,4170.769230,4438.974358,4224.102564,4276.923076,4500.000000,4244.615384,4642.564102,4001.025641,3975.897436
28,4385.128205,4507.179487,4524.615384,4267.179487,4480.000000,4170.256410,4440.000000,4235.384615,4277.948717,4504.102564,4248.717948,4650.256410,4009.230769,3981.538462
29,4384.615384,4510.769230,4525.128205,4267.692307,4481.025641,4166.153846,4434.871794,4234.871794,4274.358974,4494.871794,4238.974358,4650.769230,4002.564102,3977.435898
30,4381.538461,4500.000000,4514.871794,4252.820512,4473.846153,4165.128205,4428.717948,4218.461538,4268.205128,4481.025641,4212.820512,4638.974358,3981.025642,3968.717949
31,4378.461538,4492.820512,4511.282051,4250.256410,4471.282051,4163.589743,4428.717948,4211.794871,4268.717948,4483.076923,4202.564102,4632.820512,3970.256411,3964.615385
32,4380.512820,4497.435897,4519.487179,4258.461538,4477.948717,4165.641025,4433.846153,4220.512820,4274.358974,4492.307692,4219.487179,4642.051282,3988.205129,3969.743590
33,4376.923076,4497.435897,4514.871794,4252.820512,4478.974358,4164.615384,4427.179487,4218.974358,4265.128205,4482.051282,4220.000000,4638.974358,3993.846154,3967.179488
34,4368.205128,4494.358974,4502.564102,4245.128205,4469.743589,4156.410256,4412.307692,4203.589743,4248.205128,4466.666666,4197.948717,4621.538461,3967.179488,3955.384616
35,4369.743589,4493.333333,4504.102564,4247.692307,4463.076923,4153.333333,4409.743589,4198.461538,4248.717948,4468.205128,4190.256410,4620.512820,3960.512821,3955.897436
36,4375.384615,4492.307692,4510.769230,4248.205128,4468.205128,4157.948717,4414.871794,4204.102564,4257.435897,4468.717948,4195.384615,4628.717948,3976.923077,3966.153847
37,4368.205128,4493.333333,4503.589743,4244.102564,4475.384615,4156.923076,4412.307692,4201.538461,4248.717948,4462.564102,4193.846153,4624.615384,3973.846154,3962.051283
38,4362.051282,4498.461538,4497.435897,4247.692307,4476.410256,4157.948717,4411.794871,4203.076923,4241.538461,4466.153846,4198.974358,4623.589743,3962.051283,3955.897436
39,4372.820512,4501.538461,4504.102564,4252.820512,4478.974358,4167.179487,4423.589743,4214.871794,4253.846153,4475.384615,4216.410256,4634.871794,3971.794872,3968.205129
40,4380.512820,4503.076923,4510.769230,4253.333333,4481.538461,4169.743589,4429.230769,4219.487179,4261.025641,4475.384615,4213.846153,4639.487179,3985.128206,3972.307693
41,4373.846153,4508.205128,4508.205128,4255.384615,4477.435897,4164.615384,4417.948717,4212.820512,4254.871794,4471.794871,4195.384615,4634.871794,3982.564103,3962.051283
42,4369.743589,4512.307692,4503.076923,4256.923076,4474.871794,4163.589743,4411.794871,4206.153846,4254.358974,4470.256410,4198.974358,4631.282051,3973.333334,3958.974359
43,4372.820512,4508.205128,4504.102564,4256.410256,4476.923076,4164.615384,4414.358974,4200.512820,4251.794871,4465.641025,4216.923076,4628.717948,3966.153847,3960.000000
44,4372.307692,4500.512820,4506.153846,4257.948717,4475.384615,4165.128205,4413.333333,4201.538461,4245.128205,4466.666666,4214.358974,4629.230769,3970.769231,3962.051283
45,4375.897435,4497.948717,4507.179487,4264.615384,4475.384615,4167.692307,4415.384615,4209.743589,4252.307692,4476.410256,4210.769230,4633.333333,3979.487180,3968.717949
46,4381.538461,4505.641025,4508.205128,4265.128205,4478.974358,4170.769230,4427.179487,4222.564102,4267.692307,4484.615384,4217.435897,4637.948717,3982.051283,3975.897436
47,4377.435897,4509.743589,4507.179487,4256.923076,4481.538461,4173.333333,4433.846153,4230.256410,4273.846153,4485.641025,4203.076923,4634.871794,3981.025642,3971.794872
48,4370.256410,4503.589743,4500.512820,4250.769230,4480.000000,4172.820512,4432.307692,4222.051282,4265.641025,4481.025641,4189.230769,4628.717948,3977.435898,3961.538462
49,4368.717948,4497.948717,4493.846153,4245.641025,4476.923076,4166.153846,4433.846153,4214.871794,4255.384615,4476.923076,4207.692307,4628.205128,3973.333334,3958.461539
50,4367.692307,4497.435897,4490.256410,4247.692307,4475.897435,4161.025641,4438.974358,4215.897435,4251.794871,4472.820512,4213.333333,4629.230769,3967.179488,3960.000000
51,4368.717948,4498.974358,4492.820512,4257.435897,4479.487179,4163.589743,4441.025641,4212.820512,4253.846153,4475.384615,4200.512820,4628.717948,3967.179488,3958.974359
52,4375.384615,4506.666666,4498.974358,4256.410256,4483.076923,4170.769230,4442.564102,4213.846153,4258.974358,4484.102564,4206.666666,4631.794871,3976.410257,3960.512821
53,4375.897435,4511.794871,4497.948717,4250.256410,4483.076923,4171.282051,4446.153846,4218.974358,4260.512820,4485.128205,4213.846153,4633.846153,3983.076924,3962.564103
54,4369.230769,4501.538461,4492.307692,4253.333333,4480.512820,4168.205128,4447.179487,4211.282051,4259.487179,4482.051282,4205.641025,4627.692307,3982.564103,3957.948718
55,4368.717948,4494.871794,4491.794871,4256.410256,4481.538461,4170.769230,4445.128205,4200.512820,4258.461538,4479.487179,4205.128205,4624.102564,3978.461539,3957.948718
56,4372.820512,4500.512820,4494.871794,4250.769230,4484.102564,4172.820512,4446.153846,4202.051282,4254.358974,4471.794871,4206.153846,4628.205128,3975.384616,3964.615385
57,4371.794871,4504.615384,4493.846153,4247.692307,4481.538461,4164.615384,4446.666666,4206.666666,4248.717948,4469.230769,4209.230769,4629.743589,3976.923077,3964.102565
58,4369.743589,4504.615384,4491.794871,4252.307692,4474.871794,4160.000000,4444.615384,4212.820512,4256.923076,4478.974358,4210.769230,4628.205128,3978.461539,3960.000000
59,4369.230769,4503.076923,4492.820512,4255.897435,4473.846153,4164.102564,4444.102564,4216.410256,4266.153846,4482.051282,4188.717948,4625.128205,3971.794872,3959.487180
60,4366.666666,4496.923076,4493.333333,4254.871794,4474.358974,4160.512820,4445.641025,4209.743589,4256.923076,4472.307692,4181.025641,4625.128205,3961.025642,3958.974359
61,4365.128205,4493.333333,4493.846153,4247.692307,4471.282051,4156.923076,4441.538461,4201.538461,4243.589743,4467.692307,4205.641025,4626.666666,3963.589744,3958.461539
62,4365.641025,4493.333333,4493.846153,4240.000000,4474.871794,4162.564102,4444.615384,4204.615384,4248.717948,4472.307692,4215.897435,4626.153846,3973.333334,3956.923077
63,4357.948717,4484.615384,4493.333333,4241.025641,4481.538461,4168.205128,4454.871794,4206.153846,4253.846153,4474.871794,4196.410256,4625.128205,3969.743590,3949.743590
64,4347.692307,4478.974358,4490.256410,4247.692307,4476.410256,4162.051282,4450.769230,4201.538461,4244.102564,4468.205128,4167.692307,4622.051282,3954.871795,3946.153847
65,4354.871794,4489.743589,4490.769230,4252.820512,4469.743589,4154.871794,4440.512820,4201.025641,4244.102564,4464.615384,4163.076923,4619.487179,3955.897436,3955.384616
66,4364.615384,4497.948717,4491.794871,4250.256410,4473.846153,4158.461538,4440.512820,4204.102564,4252.307692,4469.230769,4187.692307,4618.974358,3969.743590,3962.564103
67,4359.487179,4495.384615,4492.820512,4244.102564,4477.948717,4161.538461,4443.076923,4200.512820,4246.666666,4465.641025,4193.846153,4620.000000,3967.179488,3959.487180
68,4357.435897,4496.410256,4499.487179,4244.102564,4480.512820,4162.051282,4447.179487,4202.564102,4242.051282,4466.666666,4172.307692,4619.487179,3960.512821,3959.487180
69,4362.564102,4495.384615,4506.666666,4252.307692,4485.641025,4167.692307,4457.948717,4214.358974,4253.333333,4480.512820,4171.282051,4623.076923,3971.794872,3967.692308
70,4361.538461,4488.205128,4505.128205,4255.384615,4484.102564,4173.333333,4461.025641,4216.923076,4255.384615,4478.974358,4171.282051,4628.205128,3985.641026,3969.230770
71,4358.974358,4489.743589,4505.641025,4247.692307,4481.538461,4169.230769,4456.923076,4212.307692,4250.256410,4467.179487,4150.769230,4627.179487,3980.512821,3964.615385
72,4360.000000,4493.846153,4509.230769,4242.051282,4486.153846,4164.615384,4459.487179,4217.435897,4258.461538,4474.871794,4160.512820,4628.717948,3966.153847,3962.564103
73,4355.897435,4490.256410,4507.692307,4243.589743,4485.128205,4167.179487,4462.564102,4223.589743,4261.538461,4484.615384,4182.051282,4632.307692,3963.076924,3964.615385
74,4351.794871,4487.692307,4504.102564,4244.615384,4476.410256,4166.153846,4459.487179,4221.538461,4255.384615,4478.461538,4173.846153,4628.205128,3969.230770,3961.538462
75,4354.358974,4485.641025,4504.615384,4242.051282,4473.846153,4157.948717,4449.743589,4214.871794,4253.333333,4469.743589,4165.641025,4621.025641,3969.230770,3956.923077
76,4357.948717,4484.102564,4504.615384,4244.102564,4474.358974,4157.435897,4443.589743,4210.256410,4252.820512,4466.153846,4168.717948,4624.102564,3969.743590,3962.051283
77,4356.923076,4486.153846,4505.641025,4250.256410,4473.846153,4163.076923,4446.153846,4211.794871,4246.153846,4463.076923,4170.256410,4627.692307,3973.846154,3965.128206
78,4352.307692,4484.615384,4505.128205,4244.102564,4476.410256,4162.564102,4446.666666,4214.358974,4245.128205,4463.589743,4177.948717,4622.564102,3967.692308,3955.897436
79,4354.358974,4482.051282,4504.615384,4236.410256,4475.384615,4160.512820,4444.102564,4216.410256,4258.974358,4474.871794,4183.076923,4627.692307,3961.025642,3952.307693
80,4361.538461,4489.230769,4504.615384,4246.666666,4475.384615,4162.051282,4444.615384,4220.000000,4267.692307,4487.179487,4171.794871,4635.897435,3967.179488,3958.974359
81,4364.615384,4495.384615,4505.641025,4255.897435,4476.410256,4160.512820,4443.589743,4219.487179,4258.461538,4484.615384,4171.794871,4629.743589,3972.307693,3963.076924
82,4362.051282,4490.769230,4507.692307,4249.230769,4470.769230,4159.487179,4442.564102,4216.923076,4246.666666,4470.256410,4186.666666,4628.717948,3968.717949,3963.589744
83,4359.487179,4486.666666,4507.179487,4239.487179,4469.743589,4161.538461,4440.512820,4219.487179,4245.641025,4468.717948,4183.076923,4635.897435,3968.205129,3962.051283
84,4354.358974,4485.641025,4498.461538,4237.435897,4473.846153,4154.871794,4430.256410,4211.282051,4243.589743,4472.307692,4165.641025,4627.692307,3969.743590,3952.307693
85,4350.256410,4485.128205,4493.333333,4243.076923,4470.256410,4147.692307,4420.000000,4196.923076,4237.948717,4465.128205,4160.512820,4617.948717,3966.153847,3947.179488
86,4361.025641,4492.307692,4500.512820,4252.820512,4470.256410,4156.923076,4428.205128,4202.564102,4247.179487,4468.205128,4172.820512,4627.179487,3971.794872,3962.051283
87,4375.384615,4499.487179,4514.358974,4256.410256,4480.512820,4167.692307,4444.102564,4218.974358,4261.538461,4483.589743,4192.307692,4639.487179,3986.666667,3977.435898
88,4372.307692,4498.974358,4518.461538,4255.897435,4482.564102,4165.128205,4443.076923,4219.487179,4261.538461,4489.743589,4200.000000,4639.487179,3988.717949,3972.820513
89,4365.128205,4499.487179,4510.256410,4258.461538,4474.871794,4160.512820,4431.282051,4213.333333,4256.410256,4485.128205,4180.512820,4636.410256,3981.538462,3964.102565
90,4369.230769,4499.487179,4508.205128,4252.307692,4471.794871,4161.025641,4434.358974,4214.871794,4252.820512,4479.487179,4160.000000,4635.897435,3983.076924,3964.615385
91,4378.461538,4497.948717,4519.487179,4250.769230,4477.948717,4163.589743,4441.538461,4222.564102,4255.897435,4480.000000,4176.923076,4638.974358,3985.641026,3969.230770
92,4380.512820,4505.128205,4527.692307,4261.025641,4487.179487,4168.205128,4435.897435,4226.666666,4267.692307,4489.230769,4201.538461,4645.128205,3982.051283,3974.358975
93,4374.871794,4512.820512,4522.564102,4262.564102,4484.102564,4167.692307,4429.743589,4221.538461,4270.769230,4494.871794,4197.435897,4644.615384,3981.538462,3973.333334
94,4371.794871,4507.179487,4518.461538,4254.358974,4476.410256,4160.512820,4430.769230,4215.384615,4260.512820,4483.076923,4187.692307,4638.461538,3982.051283,3966.153847
95,4377.435897,4505.128205,4522.051282,4258.461538,4478.461538,4162.564102,4434.871794,4216.923076,4254.871794,4473.333333,4183.076923,4642.051282,3984.615385,3966.153847
96,4383.076923,4510.769230,4526.153846,4269.230769,4482.564102,4171.794871,4442.051282,4219.487179,4257.435897,4480.000000,4178.461538,4647.179487,3989.743590,3975.384616
97,4375.384615,4507.692307,4525.128205,4264.615384,4479.487179,4170.256410,4444.615384,4216.923076,4254.871794,4486.666666,4188.717948,4638.974358,3986.666667,3974.871795
98,4369.230769,4504.102564,4521.538461,4259.487179,4475.384615,4163.589743,4441.025641,4215.384615,4253.846153,4486.666666,4202.051282,4635.897435,3978.974359,3966.666667
99,4374.358974,4509.230769,4522.051282,4265.128205,4479.487179,4161.025641,4441.538461,4216.923076,4261.025641,4486.153846,4204.102564,4644.615384,3981.538462,3968.717949
100,4377.435897,4511.794871,4522.051282,4266.153846,4482.051282,4163.589743,4442.564102,4217.435897,4261.025641,4483.589743,4206.153846,4642.564102,3985.128206,3969.230770
101,4374.871794,4512.307692,4521.025641,4260.512820,4482.564102,4169.743589,4448.717948,4216.410256,4254.871794,4482.564102,4206.153846,4635.897435,3980.512821,3963.589744
102,4369.230769,4510.256410,4521.538461,4258.974358,4485.641025,4171.282051,4456.410256,4214.871794,4253.333333,4479.487179,4198.461538,4637.435897,3978.461539,3961.025642
103,4365.128205,4505.641025,4520.512820,4256.923076,4483.589743,4165.641025,4453.846153,4212.307692,4250.256410,4474.358974,4195.384615,4637.435897,3984.615385,3962.051283
104,4372.820512,4510.256410,4521.538461,4256.923076,4481.025641,4164.615384,4448.205128,4212.307692,4245.128205,4476.923076,4193.846153,4631.282051,3984.615385,3962.051283
105,4380.512820,4516.923076,4524.615384,4265.128205,4482.051282,4168.205128,4448.717948,4216.410256,4251.794871,4483.589743,4192.820512,4633.333333,3975.897436,3960.512821
106,4374.358974,4510.769230,4523.076923,4266.666666,4479.487179,4163.589743,4449.743589,4222.051282,4263.589743,4485.641025,4203.076923,4639.487179,3979.487180,3960.000000
107,4370.769230,4507.692307,4521.025641,4258.461538,4477.948717,4162.051282,4448.717948,4227.692307,4265.641025,4489.230769,4210.256410,4638.974358,3988.717949,3964.615385
108,4375.384615,4513.333333,4521.025641,4249.743589,4482.051282,4167.179487,4447.692307,4224.615384,4258.974358,4490.256410,4196.923076,4633.846153,3983.076924,3965.641026
109,4376.923076,4512.820512,4521.538461,4253.846153,4483.589743,4167.179487,4444.102564,4216.923076,4255.384615,4483.076923,4189.743589,4633.333333,3978.461539,3962.051283
110,4376.410256,4507.179487,4521.025641,4262.051282,4484.102564,4167.179487,4444.102564,4216.410256,4256.410256,4481.025641,4196.410256,4635.897435,3986.153847,3961.025642
111,4375.897435,4506.666666,4520.000000,4261.025641,4487.179487,4174.871794,4443.076923,4217.948717,4259.487179,4490.256410,4195.897435,4632.820512,3987.692308,3962.564103
112,4373.846153,4510.256410,4520.000000,4255.897435,4484.102564,4173.846153,4435.384615,4214.871794,4262.564102,4498.974358,4194.871794,4630.769230,3986.153847,3962.564103
113,4377.435897,4518.974358,4523.076923,4257.948717,4480.000000,4165.128205,4427.179487,4215.897435,4267.179487,4497.948717,4200.000000,4638.974358,3994.358975,3964.102565
114,4385.128205,4527.179487,4525.128205,4264.615384,4482.564102,4166.153846,4427.179487,4219.487179,4267.692307,4496.410256,4201.025641,4646.153846,3998.461539,3965.641026
115,4386.153846,4522.564102,4527.179487,4264.102564,4484.102564,4169.743589,4434.358974,4217.948717,4262.564102,4494.358974,4195.897435,4646.666666,3985.641026,3969.743590
116,4383.076923,4515.897435,4523.076923,4257.948717,4480.512820,4165.641025,4436.410256,4217.435897,4261.025641,4489.743589,4195.897435,4646.666666,3984.102565,3973.333334
117,4380.000000,4517.948717,4511.794871,4255.384615,4477.435897,4165.641025,4431.282051,4214.871794,4254.871794,4486.666666,4189.743589,4641.025641,3994.871795,3962.564103
118,4374.871794,4516.410256,4502.051282,4260.000000,4476.923076,4165.128205,4425.128205,4205.128205,4242.564102,4481.025641,4175.897435,4629.230769,3994.871795,3953.333334
119,4371.794871,4506.666666,4495.384615,4258.974358,4474.358974,4159.487179,4423.076923,4198.461538,4245.128205,4477.435897,4173.333333,4627.179487,3982.564103,3958.974359
120,4369.743589,4500.512820,4488.717948,4247.692307,4468.717948,4159.487179,4424.615384,4206.153846,4254.358974,4480.512820,4178.461538,4632.307692,3969.230770,3956.923077
121,4370.769230,4506.666666,4492.307692,4246.666666,4471.282051,4165.128205,4425.128205,4216.410256,4250.256410,4482.564102,4184.102564,4632.307692,3972.307693,3951.794872
122,4374.358974,4508.205128,4498.974358,4255.384615,4477.948717,4165.128205,4427.179487,4217.435897,4245.641025,4480.512820,4190.256410,4631.282051,3990.769231,3956.923077
123,4376.923076,4507.179487,4497.948717,4256.923076,4476.923076,4165.128205,4434.871794,4214.358974,4252.307692,4482.564102,4184.615384,4634.358974,3992.820513,3956.410257
124,4377.435897,4517.948717,4496.410256,4256.410256,4476.923076,4168.205128,4442.051282,4215.384615,4256.410256,4485.641025,4170.769230,4632.820512,3970.769231,3951.282052
125,4377.948717,4524.615384,4494.871794,4256.923076,4484.615384,4167.692307,4441.538461,4214.871794,4254.871794,4484.615384,4173.333333,4630.256410,3966.153847,3955.384616
126,4380.512820,4523.076923,4492.820512,4252.307692,4487.179487,4168.717948,4439.487179,4215.384615,4256.923076,4485.641025,4183.589743,4633.333333,3980.512821,3959.487180
127,4383.589743,4526.666666,4494.358974,4251.282051,4481.538461,4171.794871,4437.948717,4218.461538,4256.923076,4487.692307,4176.410256,4634.358974,3988.205129,3959.487180
128,4377.948717,4527.179487,4492.307692,4254.358974,4478.974358,4169.743589,4430.769230,4213.846153,4247.692307,4483.076923,4168.717948,4626.666666,3988.717949,3957.948718
129,4365.128205,4515.897435,4486.666666,4248.205128,4476.923076,4165.128205,4419.487179,4201.538461,4236.410256,4471.794871,4172.820512,4616.923076,3976.923077,3947.179488
130,4365.641025,4512.307692,4488.717948,4247.692307,4475.897435,4164.615384,4413.846153,4198.974358,4237.435897,4470.256410,4179.487179,4615.897435,3965.128206,3942.051283
131,4377.948717,4522.051282,4494.358974,4259.487179,4482.051282,4168.205128,4415.384615,4205.128205,4250.769230,4483.589743,4180.512820,4624.615384,3977.435898,3952.307693
132,4379.487179,4527.179487,4491.282051,4259.487179,4483.076923,4167.692307,4414.871794,4205.641025,4255.384615,4489.230769,4176.923076,4626.666666,3991.282052,3954.871795
133,4374.358974,4526.666666,4489.230769,4254.871794,4475.384615,4164.615384,4416.410256,4202.564102,4247.692307,4483.076923,4181.025641,4624.102564,3988.717949,3950.256411
134,4378.974358,4525.641025,4493.846153,4258.461538,4474.871794,4169.743589,4422.051282,4202.564102,4246.153846,4484.102564,4191.282051,4631.794871,3988.205129,3956.923077
135,4381.025641,4527.692307,4495.897435,4260.512820,4481.025641,4175.384615,4424.102564,4203.076923,4255.384615,4494.871794,4190.769230,4636.923076,3992.307693,3960.512821
136,4380.512820,4528.205128,4493.333333,4262.051282,4481.538461,4167.692307,4424.102564,4205.641025,4256.410256,4495.897435,4187.692307,4634.358974,3988.205129,3955.384616
137,4379.487179,4524.615384,4488.717948,4258.461538,4476.410256,4161.025641,4424.102564,4205.128205,4245.641025,4486.153846,4177.948717,4631.794871,3983.076924,3953.333334
138,4374.871794,4521.538461,4488.717948,4245.641025,4472.307692,4165.128205,4422.051282,4202.564102,4240.512820,4480.000000,4155.897435,4626.153846,3980.512821,3950.769231
139,4370.256410,4514.871794,4487.692307,4241.025641,4472.820512,4165.128205,4423.076923,4202.564102,4241.538461,4476.410256,4157.948717,4620.000000,3973.846154,3943.076924
140,4372.307692,4508.717948,4478.461538,4246.153846,4479.487179,4160.512820,4427.692307,4203.076923,4243.076923,4476.410256,4178.974358,4624.102564,3967.692308,3941.538462
141,4374.871794,4514.871794,4477.948717,4245.128205,4483.076923,4165.641025,4429.230769,4202.051282,4244.102564,4478.974358,4183.076923,4631.794871,3970.256411,3945.128206
142,4371.794871,4524.102564,4488.717948,4244.102564,4480.000000,4172.820512,4426.153846,4202.051282,4241.025641,4472.820512,4180.000000,4632.820512,3978.461539,3946.153847
143,4372.307692,4521.538461,4491.794871,4249.230769,4481.538461,4169.743589,4425.641025,4202.564102,4238.974358,4470.769230,4190.256410,4633.846153,3984.102565,3948.205129
144,4376.923076,4518.461538,4489.743589,4258.974358,4486.153846,4168.205128,4426.666666,4203.589743,4247.179487,4483.589743,4187.692307,4634.871794,3982.051283,3949.743590
145,4378.974358,4523.076923,4489.230769,4265.128205,4483.589743,4171.282051,4422.564102,4204.615384,4253.333333,4489.743589,4172.820512,4632.307692,3983.589744,3946.666667
146,4376.410256,4527.179487,4483.076923,4261.025641,4480.000000,4169.230769,4413.846153,4203.076923,4246.666666,4478.461538,4174.871794,4629.230769,3988.205129,3946.153847
147,4371.282051,4526.666666,4475.384615,4253.333333,4483.076923,4168.205128,4412.820512,4201.025641,4240.512820,4472.307692,4180.512820,4627.179487,3980.000000,3946.666667
148,4370.256410,4522.564102,4476.410256,4250.256410,4490.256410,4176.923076,4419.487179,4202.564102,4243.589743,4478.461538,4176.410256,4627.179487,3965.128206,3942.564103
149,4373.333333,4521.538461,4483.589743,4251.794871,4489.743589,4180.512820,4419.487179,4203.589743,4247.692307,4485.128205,4182.564102,4629.743589,3974.358975,3943.076924
150,4376.410256,4524.615384,4485.641025,4252.820512,4486.153846,4169.743589,4413.846153,4203.076923,4253.846153,4488.717948,4189.230769,4630.256410,3992.820513,3948.205129
151,4375.384615,4522.051282,4480.512820,4252.307692,4486.666666,4164.102564,4411.794871,4202.564102,4257.948717,4485.128205,4168.717948,4624.102564,3988.205129,3944.102565
152,4369.743589,4520.000000,4475.384615,4249.743589,4485.128205,4169.743589,4411.282051,4201.025641,4249.230769,4480.000000,4161.025641,4616.923076,3976.923077,3936.410257
153,4368.205128,4527.179487,4474.871794,4248.717948,4480.512820,4170.256410,4411.282051,4200.000000,4242.564102,4481.538461,4179.487179,4614.358974,3974.871795,3935.384616
154,4370.256410,4529.743589,4475.384615,4250.769230,4484.102564,4167.179487,4412.820512,4198.974358,4248.205128,4484.615384,4182.051282,4615.384615,3973.333334,3938.461539
155,4373.333333,4526.153846,4475.384615,4251.282051,4493.846153,4172.820512,4414.358974,4198.461538,4251.794871,4486.153846,4171.794871,4618.974358,3981.538462,3945.128206
156,4374.358974,4530.256410,4477.435897,4252.820512,4491.794871,4178.461538,4411.794871,4199.487179,4249.743589,4481.538461,4167.692307,4620.000000,3988.717949,3947.692308
157,4374.358974,4535.897435,4481.025641,4256.410256,4483.589743,4174.871794,4411.282051,4202.051282,4256.923076,4480.512820,4170.256410,4620.000000,3981.538462,3942.564103
158,4376.923076,4536.410256,4485.641025,4260.512820,4485.128205,4174.358974,4416.923076,4204.615384,4265.128205,4487.692307,4178.461538,4627.179487,3983.589744,3945.641026
159,4379.487179,4535.897435,4489.230769,4262.564102,4488.205128,4178.461538,4416.923076,4203.589743,4255.897435,4488.205128,4181.538461,4627.692307,3992.307693,3953.333334
160,4380.512820,4532.307692,4484.102564,4260.512820,4484.615384,4175.384615,4410.769230,4197.435897,4242.051282,4477.435897,4180.512820,4617.435897,3984.102565,3950.769231
161,4377.948717,4529.743589,4477.435897,4254.358974,4481.025641,4169.230769,4410.256410,4194.871794,4236.923076,4465.641025,4180.000000,4615.897435,3974.871795,3940.512821
162,4375.897435,4533.333333,4480.000000,4251.794871,4481.025641,4170.769230,4415.897435,4201.025641,4238.974358,4465.128205,4168.717948,4623.589743,3978.461539,3936.923077
163,4374.871794,4530.769230,4480.512820,4251.282051,4480.512820,4172.820512,4415.384615,4197.948717,4242.051282,4467.692307,4160.000000,4621.025641,3973.846154,3937.435898
164,4369.743589,4518.974358,4476.923076,4244.615384,4479.487179,4164.102564,4405.641025,4186.666666,4240.512820,4468.205128,4167.692307,4615.384615,3962.051283,3934.871795
165,4373.846153,4521.025641,4483.589743,4248.205128,4478.461538,4160.000000,4403.589743,4189.230769,4238.974358,4471.282051,4170.256410,4623.589743,3968.205129,3938.461539
166,4387.692307,4534.358974,4497.435897,4262.051282,4480.000000,4169.743589,4416.923076,4202.051282,4246.153846,4481.025641,4174.871794,4634.871794,3987.692308,3951.794872
167,4387.179487,4534.871794,4495.897435,4260.512820,4488.205128,4175.384615,4428.717948,4211.794871,4255.384615,4493.333333,4188.205128,4637.948717,3993.846154,3954.358975
168,4376.410256,4530.256410,4491.282051,4250.256410,4494.358974,4176.923076,4429.230769,4215.384615,4257.948717,4494.871794,4181.538461,4631.794871,3984.615385,3948.205129
169,4376.410256,4529.743589,4492.820512,4254.358974,4490.769230,4180.000000,4429.230769,4210.256410,4260.512820,4491.794871,4165.641025,4627.179487,3986.153847,3950.769231
170,4378.974358,4525.641025,4492.307692,4257.435897,4485.641025,4177.435897,4432.307692,4203.589743,4258.461538,4489.743589,4165.641025,4628.717948,3998.974359,3956.410257
171,4370.769230,4518.974358,4490.256410,4249.743589,4484.102564,4172.307692,4430.256410,4199.487179,4246.666666,4484.102564,4161.538461,4629.743589,3997.948718,3951.794872
172,4364.615384,4514.358974,4488.205128,4245.128205,4483.589743,4169.743589,4425.641025,4191.794871,4243.076923,4478.974358,4143.076923,4621.538461,3979.487180,3945.641026
173,4358.974358,4511.794871,4486.666666,4240.512820,4478.461538,4164.102564,4421.538461,4186.153846,4246.666666,4476.923076,4129.743589,4612.820512,3967.179488,3942.564103
174,4352.820512,4507.692307,4488.205128,4236.410256,4472.307692,4160.512820,4421.538461,4186.153846,4240.512820,4472.820512,4130.769230,4612.820512,3974.871795,3937.435898
175,4356.410256,4508.717948,4488.717948,4242.564102,4473.846153,4167.179487,4426.153846,4189.743589,4236.923076,4470.769230,4135.897435,4617.435897,3987.692308,3938.974359
176,4362.051282,4518.974358,4489.743589,4250.769230,4483.076923,4171.282051,4427.179487,4197.435897,4244.615384,4478.461538,4144.102564,4621.538461,3990.769231,3947.179488
177,4362.564102,4520.000000,4495.897435,4250.769230,4483.589743,4165.641025,4421.025641,4197.435897,4243.589743,4483.589743,4150.769230,4626.153846,3987.179488,3948.717949
178,4361.025641,4514.358974,4502.564102,4249.230769,4478.461538,4163.589743,4416.410256,4190.769230,4235.384615,4481.538461,4146.666666,4626.666666,3982.051283,3945.641026
179,4362.051282,4516.410256,4506.666666,4245.128205,4482.051282,4169.230769,4417.948717,4193.846153,4235.897435,4479.487179,4129.743589,4624.102564,3977.948718,3948.205129
180,4367.179487,4518.461538,4514.871794,4247.692307,4485.128205,4174.871794,4423.589743,4200.000000,4240.000000,4476.410256,4130.769230,4629.743589,3982.051283,3956.923077
181,4373.333333,4516.410256,4522.564102,4260.000000,4483.076923,4172.307692,4427.179487,4200.512820,4240.000000,4473.846153,4151.794871,4635.897435,3991.794872,3961.025642
182,4370.769230,4515.897435,4522.051282,4256.923076,4481.538461,4165.128205,4420.000000,4200.512820,4238.974358,4472.820512,4146.666666,4630.769230,3989.743590,3956.923077
183,4366.153846,4515.384615,4516.923076,4247.179487,4481.538461,4162.051282,4413.333333,4202.564102,4240.512820,4472.307692,4124.615384,4626.666666,3977.948718,3951.794872
184,4367.179487,4511.282051,4512.307692,4249.743589,4481.025641,4165.128205,4417.948717,4198.461538,4238.461538,4468.717948,4128.717948,4626.153846,3973.333334,3947.179488
185,4362.564102,4507.179487,4506.666666,4246.153846,4477.435897,4163.076923,4419.487179,4187.692307,4228.717948,4465.128205,4127.179487,4620.512820,3971.794872,3943.589744
186,4357.948717,4508.717948,4507.179487,4234.871794,4472.820512,4159.487179,4415.897435,4186.153846,4223.589743,4461.538461,4110.256410,4616.410256,3966.666667,3940.512821
187,4363.589743,4515.384615,4520.000000,4244.615384,4478.461538,4164.615384,4422.051282,4198.974358,4232.307692,4466.153846,4128.717948,4622.564102,3970.769231,3942.051283
188,4368.205128,4515.897435,4527.179487,4255.384615,4486.153846,4171.282051,4426.666666,4204.615384,4241.538461,4478.974358,4153.846153,4629.743589,3981.538462,3947.179488
189,4362.051282,4504.615384,4514.871794,4242.051282,4477.435897,4164.102564,4416.410256,4197.948717,4237.435897,4478.974358,4142.051282,4625.641025,3981.025642,3945.641026
190,4358.461538,4501.538461,4508.205128,4229.743589,4467.692307,4154.871794,4405.641025,4195.897435,4233.846153,4463.076923,4128.205128,4616.923076,3969.743590,3938.974359
191,4359.487179,4510.256410,4518.461538,4230.256410,4467.179487,4155.897435,4407.692307,4198.461538,4235.384615,4459.487179,4131.282051,4618.974358,3968.717949,3940.000000
192,4360.000000,4513.846153,4524.102564,4236.923076,4469.230769,4162.051282,4417.948717,4201.025641,4238.974358,4475.897435,4133.846153,4628.205128,3982.564103,3947.179488
193,4368.205128,4512.307692,4522.051282,4248.205128,4475.384615,4168.205128,4428.205128,4205.641025,4250.256410,4488.205128,4138.461538,4632.307692,3990.769231,3952.820513
194,4371.282051,4512.820512,4523.076923,4246.666666,4475.897435,4168.717948,4427.692307,4206.153846,4253.333333,4478.974358,4144.102564,4628.717948,3984.615385,3951.282052
195,4362.564102,4513.333333,4523.076923,4234.871794,4472.820512,4167.179487,4421.025641,4201.538461,4243.589743,4470.769230,4145.128205,4624.102564,3979.487180,3945.128206
196,4365.128205,4513.333333,4524.615384,4240.000000,4476.923076,4170.769230,4425.128205,4207.179487,4248.717948,4483.589743,4151.282051,4628.717948,3988.205129,3949.230770
197,4376.923076,4516.410256,4529.743589,4251.794871,4480.512820,4172.307692,4430.256410,4218.461538,4262.564102,4495.897435,4145.128205,4637.435897,3992.820513,3955.384616
198,4374.871794,4523.076923,4527.179487,4249.230769,4474.871794,4166.153846,4426.153846,4214.358974,4253.846153,4484.615384,4134.358974,4634.358974,3981.025642,3950.256411
199,4369.743589,4525.128205,4522.564102,4247.179487,4477.435897,4165.128205,4425.641025,4203.589743,4241.025641,4477.435897,4154.871794,4629.230769,3975.897436,3950.769231
200,4369.743589,4515.897435,4524.102564,4246.153846,4484.102564,4167.692307,4428.205128,4202.564102,4243.076923,4483.076923,4172.307692,4633.846153,3983.589744,3953.846154
201,4362.051282,4507.179487,4517.948717,4240.000000,4478.974358,4162.564102,4427.179487,4200.512820,4239.487179,4476.410256,4152.307692,4630.769230,3983.076924,3947.179488
202,4358.974358,4511.794871,4505.128205,4240.512820,4471.282051,4161.025641,4425.641025,4194.358974,4233.846153,4466.153846,4134.871794,4620.000000,3977.948718,3943.076924
203,4369.743589,4522.051282,4507.692307,4247.692307,4474.871794,4168.205128,4425.641025,4200.512820,4243.589743,4470.769230,4148.205128,4623.589743,3982.051283,3951.282052
204,4378.461538,4525.641025,4518.974358,4255.384615,4486.153846,4174.358974,4430.256410,4213.333333,4259.487179,4489.230769,4166.153846,4635.897435,3986.666667,3957.948718
205,4382.564102,4528.205128,4524.102564,4264.615384,4486.666666,4178.461538,4433.333333,4220.512820,4265.128205,4501.538461,4173.846153,4642.051282,3995.897436,3961.538462
206,4385.641025,4532.820512,4522.051282,4264.102564,4480.512820,4177.435897,4428.205128,4219.487179,4257.948717,4491.794871,4169.743589,4640.000000,4004.102564,3964.102565
207,4380.512820,4530.256410,4513.333333,4251.794871,4482.564102,4170.769230,4421.538461,4206.153846,4247.692307,4477.948717,4151.794871,4632.820512,3995.384616,3958.461539
208,4373.333333,4521.538461,4506.153846,4248.717948,4484.102564,4169.230769,4424.102564,4201.538461,4248.205128,4481.538461,4146.153846,4629.743589,3984.102565,3952.820513
209,4375.897435,4520.000000,4508.205128,4252.820512,4480.000000,4173.846153,4428.717948,4210.256410,4254.871794,4488.717948,4150.769230,4632.307692,3983.076924,3952.820513
210,4377.435897,4526.666666,4508.717948,4247.692307,4478.974358,4173.333333,4428.205128,4208.205128,4247.692307,4482.051282,4147.179487,4628.717948,3988.205129,3951.794872
211,4373.333333,4526.666666,4504.615384,4245.641025,4480.512820,4169.743589,4424.102564,4201.538461,4236.923076,4473.846153,4151.282051,4625.641025,3994.358975,3950.256411
212,4372.820512,4521.025641,4506.153846,4254.871794,4475.384615,4168.717948,4422.051282,4212.820512,4240.000000,4473.333333,4159.487179,4630.256410,3987.692308,3951.282052
213,4369.230769,4515.384615,4507.692307,4251.794871,4470.769230,4164.615384,4420.512820,4217.948717,4242.564102,4473.333333,4153.333333,4626.153846,3973.846154,3947.692308
214,4362.564102,4515.384615,4503.589743,4241.025641,4470.256410,4161.025641,4417.948717,4203.589743,4236.923076,4470.769230,4146.153846,4615.384615,3975.897436,3940.512821
215,4366.153846,4518.974358,4498.461538,4245.128205,4472.307692,4162.564102,4419.487179,4197.435897,4236.923076,4471.282051,4145.641025,4617.948717,3985.641026,3940.000000
216,4366.666666,4514.358974,4492.820512,4245.128205,4471.282051,4158.974358,4418.974358,4200.512820,4241.538461,4474.358974,4146.666666,4619.487179,3981.025642,3937.435898
217,4357.435897,4507.692307,4491.282051,4238.974358,4467.692307,4158.461538,4414.871794,4201.025641,4239.487179,4472.307692,4151.794871,4613.846153,3971.794872,3934.871795
218,4358.461538,4512.820512,4494.358974,4242.564102,4472.820512,4163.589743,4416.410256,4200.512820,4235.897435,4470.256410,4152.820512,4615.897435,3971.794872,3937.435898
219,4367.692307,4518.974358,4492.820512,4244.102564,4480.512820,4165.128205,4421.025641,4198.461538,4236.410256,4468.717948,4147.692307,4620.512820,3978.461539,3940.000000
220,4367.179487,4518.461538,4491.282051,4240.512820,4481.025641,4163.076923,4424.102564,4198.461538,4238.974358,4467.179487,4143.589743,4620.000000,3982.564103,3943.589744
221,4358.974358,4516.923076,4497.435897,4240.512820,4477.948717,4164.615384,4425.128205,4209.230769,4246.666666,4472.820512,4143.076923,4618.974358,3977.948718,3944.615385
222,4360.512820,4517.435897,4498.461538,4240.000000,4477.435897,4167.179487,4424.102564,4216.410256,4254.358974,4480.000000,4154.358974,4622.051282,3974.871795,3942.564103
223,4370.769230,4520.000000,4491.794871,4242.051282,4475.897435,4165.641025,4417.948717,4209.230769,4249.743589,4475.384615,4171.282051,4623.076923,3981.025642,3947.179488
224,4372.820512,4520.512820,4488.717948,4249.230769,4470.256410,4162.051282,4412.307692,4198.974358,4238.461538,4464.102564,4165.128205,4617.435897,3986.666667,3949.743590
225,4368.717948,4518.974358,4490.769230,4249.230769,4468.205128,4158.974358,4417.435897,4194.871794,4235.384615,4464.615384,4154.871794,4612.820512,3982.564103,3945.128206
226,4369.230769,4525.128205,4492.307692,4248.205128,4472.820512,4158.974358,4425.641025,4191.794871,4238.461538,4472.820512,4165.128205,4617.948717,3984.615385,3944.102565
227,4372.307692,4527.179487,4491.794871,4249.743589,4474.871794,4162.051282,4427.692307,4188.205128,4239.487179,4475.384615,4168.205128,4622.564102,3992.307693,3949.230770
228,4373.333333,4518.974358,4496.410256,4246.666666,4472.820512,4161.538461,4425.128205,4188.717948,4241.538461,4474.871794,4160.512820,4621.025641,3985.641026,3951.282052
229,4377.948717,4519.487179,4501.538461,4248.717948,4473.846153,4160.512820,4427.179487,4194.358974,4242.564102,4480.000000,4163.589743,4622.564102,3979.487180,3951.282052
230,4378.461538,4528.717948,4497.435897,4251.794871,4475.384615,4162.051282,4428.205128,4196.410256,4240.000000,4484.615384,4165.641025,4624.102564,3987.692308,3948.205129
231,4369.230769,4529.743589,4489.230769,4240.000000,4468.717948,4158.974358,4425.641025,4189.743589,4238.974358,4478.461538,4163.589743,4622.051282,3988.205129,3946.666667
232,4363.589743,4523.076923,4488.205128,4229.230769,4461.538461,4152.307692,4425.128205,4182.051282,4240.512820,4469.743589,4160.000000,4620.000000,3978.974359,3945.128206
233,4368.205128,4521.538461,4490.769230,4238.461538,4463.589743,4154.871794,4427.692307,4186.666666,4242.051282,4466.666666,4151.794871,4623.076923,3982.051283,3944.102565
234,4371.282051,4521.538461,4490.256410,4242.051282,4467.179487,4162.051282,4431.282051,4191.282051,4240.000000,4465.641025,4149.743589,4622.051282,3983.589744,3942.051283
235,4358.461538,4513.333333,4484.102564,4231.794871,4461.025641,4154.358974,4428.205128,4183.076923,4230.256410,4460.512820,4157.435897,4608.717948,3965.641026,3933.333334
236,4352.307692,4510.256410,4480.000000,4235.384615,4453.846153,4147.179487,4425.128205,4175.897435,4227.179487,4458.461538,4164.615384,4604.102564,3958.461539,3931.282052
237,4369.743589,4526.153846,4489.230769,4249.743589,4461.538461,4157.948717,4429.230769,4185.128205,4237.435897,4471.282051,4175.897435,4615.897435,3986.153847,3942.564103
238,4383.076923,4540.000000,4503.589743,4250.769230,4468.717948,4165.641025,4432.820512,4191.282051,4241.025641,4477.948717,4181.025641,4623.076923,3999.487180,3949.743590
239,4375.384615,4532.307692,4501.025641,4245.128205,4465.128205,4160.512820,4427.692307,4182.051282,4233.846153,4469.743589,4172.307692,4620.000000,3978.461539,3944.102565
240,4369.743589,4527.179487,4495.384615,4247.692307,4467.179487,4159.487179,4426.666666,4185.641025,4236.923076,4470.769230,4174.871794,4622.051282,3970.769231,3941.538462
241,4377.435897,4532.820512,4504.102564,4251.794871,4471.794871,4168.205128,4438.461538,4198.461538,4249.743589,4481.538461,4179.487179,4629.743589,3986.666667,3947.179488
242,4380.512820,4534.871794,4506.153846,4250.256410,4468.205128,4172.307692,4442.564102,4193.846153,4253.333333,4480.512820,4170.256410,4627.692307,3988.717949,3950.256411
243,4374.871794,4531.794871,4498.974358,4244.102564,4467.692307,4168.205128,4432.307692,4183.589743,4246.153846,4471.794871,4177.948717,4621.025641,3982.564103,3948.717949
244,4373.333333,4530.769230,4501.025641,4242.051282,4472.820512,4163.589743,4425.128205,4185.641025,4241.538461,4476.410256,4193.333333,4622.051282,3990.256411,3948.717949
245,4376.410256,4531.794871,4509.230769,4250.256410,4467.692307,4161.538461,4422.051282,4188.205128,4243.076923,4487.179487,4175.897435,4627.692307,3991.794872,3951.794872
246,4378.974358,4532.820512,4507.179487,4258.461538,4465.641025,4160.512820,4418.974358,4186.153846,4245.641025,4486.153846,4158.974358,4629.743589,3984.102565,3951.282052
247,4381.025641,4538.974358,4506.666666,4256.923076,4477.435897,4165.128205,4422.051282,4190.769230,4248.717948,4485.128205,4178.974358,4631.794871,3987.692308,3949.743590
248,4381.025641,4538.974358,4508.205128,4250.256410,4478.461538,4169.743589,4428.205128,4198.461538,4252.820512,4491.282051,4190.769230,4637.948717,4001.538461,3953.333334
249,4377.948717,4531.794871,4505.128205,4246.666666,4469.743589,4171.282051,4428.717948,4202.051282,4255.897435,4496.410256,4183.589743,4638.461538,4005.641025,3956.923077
250,4376.410256,4530.256410,4505.641025,4251.282051,4470.256410,4172.820512,4433.846153,4203.076923,4257.948717,4494.358974,4185.128205,4630.256410,3991.794872,3950.256411
251,4375.897435,4532.820512,4507.692307,4258.461538,4476.410256,4173.333333,4443.076923,4203.589743,4255.897435,4486.153846,4184.615384,4627.692307,3984.615385,3941.025642
252,4373.333333,4531.282051,4507.179487,4255.384615,4477.435897,4171.282051,4444.102564,4202.564102,4251.282051,4480.512820,4176.923076,4634.358974,3990.769231,3945.641026
253,4370.769230,4526.153846,4505.641025,4245.641025,4472.307692,4166.666666,4439.487179,4198.461538,4249.743589,4483.076923,4180.512820,4634.871794,3991.794872,3952.307693
254,4370.769230,4522.564102,4505.128205,4243.076923,4469.743589,4162.051282,4437.435897,4196.410256,4251.282051,4491.282051,4181.538461,4628.717948,3985.128206,3949.230770
255,4372.307692,4524.615384,4505.641025,4244.102564,4468.717948,4163.076923,4442.564102,4198.461538,4253.846153,4493.846153,4173.333333,4631.794871,3980.512821,3945.128206
256,4375.897435,4531.282051,4509.743589,4245.128205,4472.307692,4168.717948,4449.230769,4200.000000,4254.358974,4494.871794,4176.923076,4639.487179,3986.153847,3950.256411
257,4376.410256,4529.230769,4512.307692,4252.820512,4475.897435,4171.282051,4447.692307,4200.000000,4253.846153,4492.820512,4180.000000,4635.384615,3993.333334,3952.307693
258,4371.794871,4525.128205,4508.205128,4249.743589,4474.358974,4172.307692,4442.051282,4204.102564,4252.820512,4488.717948,4173.846153,4628.205128,3990.769231,3945.641026
259,4374.358974,4532.307692,4511.282051,4241.538461,4474.358974,4175.384615,4448.717948,4213.333333,4259.487179,4494.358974,4182.564102,4635.384615,3990.769231,3948.717949
