,AF3,F7,F3,FC5,T7,P7,O1,O2,P8,T8,FC6,F4,F8,AF4
0,4392.307692,4521.025641,4520.000000,4295.384615,4508.205128,4212.307692,4455.384615,4227.692307,4229.230769,4480.000000,4206.666666,4656.410256,4003.589743,4033.846153
1,4394.358974,4526.153846,4521.025641,4286.666666,4513.333333,4217.948717,4460.000000,4231.794871,4234.871794,4483.589743,4217.948717,4657.948717,4005.641025,4035.384615
2,4394.871794,4523.076923,4519.487179,4286.153846,4506.153846,4221.025641,4461.025641,4236.410256,4236.923076,4492.307692,4219.487179,4657.435897,4005.128205,4034.358974
3,4404.615384,4530.256410,4528.205128,4304.102564,4506.666666,4225.128205,4464.615384,4243.076923,4242.051282,4498.461538,4224.102564,4665.641025,4011.282051,4046.153846
4,4415.384615,4542.564102,4541.025641,4306.666666,4512.307692,4228.205128,4468.717948,4250.256410,4251.794871,4502.564102,4235.384615,4677.948717,4020.512820,4055.897435
5,4416.923076,4540.000000,4540.512820,4292.307692,4509.743589,4228.717948,4472.307692,4254.358974,4259.487179,4511.794871,4236.923076,4681.538461,4023.589743,4057.435897
6,4416.410256,4533.333333,4536.923076,4291.794871,4512.820512,4232.307692,4473.846153,4254.358974,4258.974358,4512.820512,4238.461538,4680.000000,4025.641025,4056.923076
7,4413.333333,4533.846153,4538.974358,4302.564102,4520.512820,4231.794871,4471.794871,4253.846153,4252.820512,4500.512820,4239.487179,4677.435897,4024.102564,4051.794871
8,4409.230769,4534.871794,4541.025641,4309.743589,4522.051282,4229.743589,4472.820512,4260.512820,4258.461538,4508.717948,4238.974358,4678.461538,4019.487179,4050.256410
9,4414.358974,4540.000000,4540.512820,4315.897435,4525.641025,4240.512820,4480.512820,4268.205128,4271.794871,4530.769230,4247.179487,4684.102564,4024.615384,4061.025641
10,4424.102564,4549.743589,4543.589743,4320.000000,4530.769230,4248.717948,4484.615384,4263.589743,4267.179487,4524.102564,4251.794871,4688.717948,4037.435897,4065.641025
11,4424.615384,4549.743589,4546.153846,4320.000000,4524.102564,4240.000000,4478.974358,4254.871794,4251.794871,4508.205128,4244.102564,4686.666666,4039.487179,4058.974358
12,4415.384615,4542.051282,4543.589743,4315.897435,4511.794871,4229.230769,4473.333333,4249.230769,4251.794871,4511.282051,4234.358974,4680.000000,4028.717948,4056.923076
13,4404.102564,4533.846153,4534.358974,4304.102564,4512.820512,4229.230769,4470.769230,4246.153846,4256.923076,4515.897435,4231.282051,4673.846153,4014.871794,4051.794871
14,4397.435897,4524.615384,4526.153846,4292.820512,4516.923076,4226.153846,4466.153846,4247.179487,4252.820512,4509.230769,4231.794871,4667.692307,4012.820512,4042.564102
15,4396.923076,4520.000000,4523.589743,4288.717948,4507.179487,4217.435897,4461.538461,4247.692307,4247.692307,4503.076923,4231.282051,4667.179487,4014.358974,4039.487179
16,4396.923076,4517.948717,4522.051282,4283.589743,4497.435897,4213.846153,4460.512820,4246.153846,4249.743589,4502.051282,4228.717948,4669.743589,4009.230769,4041.538461
17,4393.333333,4508.717948,4520.512820,4278.461538,4496.410256,4218.461538,4460.512820,4248.205128,4253.846153,4504.102564,4228.205128,4670.256410,4006.153846,4038.461538
18,4392.820512,4509.230769,4523.589743,4284.102564,4500.000000,4227.179487,4464.615384,4249.743589,4256.923076,4505.641025,4230.769230,4671.282051,4010.256410,4040.000000
19,4394.358974,4523.076923,4521.025641,4289.230769,4507.692307,4226.153846,4467.692307,4244.102564,4255.897435,4507.179487,4229.743589,4669.230769,4011.282051,4043.589743
20,4391.794871,4523.589743,4509.230769,4286.153846,4510.769230,4219.487179,4459.487179,4238.461538,4245.641025,4503.589743,4226.153846,4658.974358,4005.641025,4034.358974
21,4389.743589,4516.410256,4506.666666,4292.307692,4507.692307,4224.102564,4454.871794,4240.000000,4242.051282,4495.384615,4226.153846,4652.820512,4001.538461,4027.692307
22,4395.897435,4525.641025,4518.974358,4302.564102,4508.717948,4233.846153,4467.179487,4245.128205,4254.871794,4501.538461,4235.384615,4664.102564,4009.230769,4041.025641
23,4399.487179,4532.820512,4525.128205,4293.846153,4511.794871,4232.820512,4472.307692,4248.205128,4262.051282,4514.358974,4246.153846,4674.871794,4022.564102,4054.871794
24,4395.897435,4522.564102,4521.025641,4284.102564,4510.256410,4224.102564,4462.564102,4247.179487,4254.871794,4508.717948,4241.538461,4671.282051,4023.076923,4047.692307
25,4393.333333,4517.435897,4520.512820,4286.666666,4504.615384,4225.128205,4465.128205,4248.205128,4252.820512,4496.410256,4235.897435,4667.179487,4014.358974,4037.948717
26,4391.282051,4516.410256,4522.051282,4284.102564,4502.051282,4228.717948,4472.820512,4247.692307,4254.358974,4498.461538,4234.358974,4664.615384,4009.743589,4037.948717
27,4390.256410,4512.307692,4518.461538,4281.025641,4502.564102,4226.153846,4467.179487,4247.692307,4252.307692,4506.666666,4228.205128,4660.000000,4008.205128,4040.512820
28,4398.974358,4515.897435,4522.564102,4289.743589,4505.641025,4227.692307,4467.179487,4255.897435,4260.000000,4509.230769,4232.307692,4667.179487,4015.384615,4050.769230
29,4406.666666,4523.589743,4531.794871,4294.871794,4509.230769,4235.384615,4474.871794,4260.512820,4270.769230,4513.846153,4246.666666,4681.025641,4028.205128,4059.487179
30,4404.615384,4524.102564,4528.717948,4292.820512,4507.692307,4235.384615,4466.666666,4253.333333,4266.666666,4521.538461,4248.205128,4676.410256,4024.615384,4053.333333
31,4397.435897,4517.948717,4521.025641,4290.256410,4504.615384,4227.179487,4455.897435,4243.589743,4256.410256,4517.435897,4237.435897,4662.564102,4014.871794,4046.666666
32,4391.794871,4514.358974,4515.897435,4288.717948,4507.179487,4223.589743,4457.435897,4235.897435,4250.256410,4500.512820,4231.794871,4660.000000,4012.307692,4045.641025
33,4387.692307,4514.358974,4513.333333,4291.794871,4509.230769,4225.128205,4458.461538,4233.333333,4244.615384,4494.358974,4230.256410,4660.512820,4004.615384,4037.948717
34,4388.205128,4522.564102,4515.897435,4296.923076,4504.615384,4231.794871,4456.923076,4235.897435,4246.153846,4502.564102,4224.102564,4654.871794,3996.410257,4031.794871
35,4396.923076,4524.615384,4521.538461,4295.897435,4507.179487,4234.871794,4462.051282,4239.487179,4250.769230,4500.512820,4219.487179,4656.410256,3998.974359,4041.538461
36,4402.564102,4518.974358,4522.564102,4294.871794,4515.384615,4231.282051,4469.743589,4242.051282,4252.307692,4496.410256,4228.205128,4666.666666,4006.153846,4053.333333
37,4404.615384,4523.076923,4523.076923,4292.307692,4515.384615,4234.358974,4474.358974,4248.205128,4260.000000,4510.256410,4242.564102,4674.358974,4011.794871,4055.897435
38,4403.589743,4530.256410,4524.102564,4285.641025,4512.820512,4237.948717,4472.820512,4255.384615,4270.256410,4520.512820,4243.589743,4673.333333,4013.846153,4054.358974
39,4404.615384,4527.179487,4521.538461,4288.717948,4514.871794,4236.410256,4468.717948,4258.461538,4272.820512,4523.589743,4244.615384,4671.282051,4016.410256,4055.897435
40,4407.692307,4523.589743,4521.538461,4296.923076,4517.435897,4240.512820,4468.717948,4262.564102,4275.897435,4527.692307,4254.871794,4672.820512,4025.641025,4058.461538
41,4404.615384,4522.564102,4521.538461,4294.871794,4514.871794,4246.153846,4472.307692,4262.564102,4277.435897,4520.512820,4256.410256,4672.820512,4032.307692,4056.410256
42,4399.487179,4519.487179,4517.948717,4294.871794,4514.358974,4245.641025,4474.358974,4258.461538,4271.282051,4515.384615,4250.256410,4670.769230,4026.666666,4054.358974
43,4402.564102,4524.615384,4517.435897,4298.974358,4516.923076,4247.179487,4474.358974,4257.435897,4272.307692,4524.102564,4251.794871,4671.282051,4022.051282,4056.923076
44,4410.769230,4533.846153,4522.051282,4301.538461,4522.051282,4248.717948,4472.307692,4260.512820,4277.435897,4526.153846,4258.461538,4674.358974,4026.153846,4063.076923
45,4407.692307,4529.743589,4520.512820,4299.487179,4526.666666,4238.461538,4463.589743,4253.846153,4273.333333,4518.461538,4255.384615,4671.794871,4026.666666,4059.487179
46,4395.384615,4518.974358,4513.333333,4293.846153,4520.000000,4228.205128,4456.410256,4242.564102,4265.641025,4517.435897,4243.076923,4664.615384,4021.025641,4050.256410
47,4398.461538,4521.025641,4515.384615,4298.461538,4508.717948,4232.307692,4459.487179,4246.666666,4266.153846,4522.051282,4243.589743,4666.666666,4023.076923,4051.282051
48,4410.769230,4534.358974,4524.102564,4301.025641,4512.307692,4240.512820,4462.564102,4252.307692,4269.743589,4527.692307,4256.410256,4677.948717,4031.282051,4061.538461
49,4412.820512,4536.410256,4530.769230,4292.820512,4520.000000,4239.487179,4458.974358,4246.666666,4270.769230,4526.666666,4254.871794,4681.025641,4028.717948,4064.615384
50,4410.769230,4528.717948,4535.897435,4298.461538,4519.487179,4234.871794,4457.948717,4243.589743,4269.230769,4515.384615,4251.282051,4677.435897,4024.102564,4062.051282
51,4414.358974,4530.256410,4538.461538,4313.846153,4523.076923,4236.410256,4459.487179,4244.102564,4263.076923,4508.717948,4260.512820,4682.051282,4026.666666,4065.641025
52,4420.000000,4541.538461,4538.461538,4316.410256,4528.205128,4242.564102,4465.128205,4245.641025,4260.512820,4518.461538,4267.179487,4688.717948,4027.692307,4072.820512
53,4424.102564,4549.743589,4541.538461,4320.000000,4528.717948,4250.256410,4477.435897,4256.410256,4272.820512,4534.871794,4268.205128,4689.743589,4027.692307,4073.846153
54,4427.179487,4548.717948,4543.076923,4323.076923,4531.282051,4255.897435,4488.717948,4267.179487,4289.743589,4539.487179,4270.769230,4690.769230,4031.794871,4072.820512
55,4425.128205,4543.076923,4541.025641,4312.820512,4533.333333,4255.384615,4492.307692,4270.769230,4294.871794,4534.871794,4271.794871,4692.307692,4037.948717,4074.871794
56,4417.948717,4536.410256,4539.487179,4303.589743,4528.717948,4250.256410,4492.307692,4277.435897,4293.333333,4535.897435,4271.282051,4689.743589,4038.974358,4070.769230
57,4406.666666,4526.666666,4532.820512,4304.102564,4523.076923,4246.153846,4486.666666,4277.435897,4291.282051,4533.333333,4264.615384,4680.000000,4029.230769,4055.897435
58,4394.358974,4517.948717,4517.435897,4297.435897,4523.589743,4242.564102,4475.384615,4257.435897,4281.538461,4517.948717,4246.666666,4665.128205,4011.282051,4045.128205
59,4390.256410,4515.384615,4507.692307,4283.589743,4525.128205,4240.512820,4469.743589,4243.076923,4267.179487,4511.794871,4237.435897,4653.846153,3999.487180,4042.564102
60,4392.820512,4516.410256,4514.358974,4278.974358,4526.153846,4245.128205,4473.846153,4247.692307,4262.564102,4517.948717,4240.000000,4654.871794,3998.461539,4041.538461
61,4393.333333,4517.948717,4522.051282,4285.641025,4531.282051,4248.205128,4476.410256,4250.769230,4268.717948,4513.846153,4236.923076,4657.435897,4004.615384,4037.948717
62,4392.307692,4518.974358,4518.974358,4289.743589,4535.384615,4244.615384,4476.410256,4246.153846,4273.846153,4501.538461,4224.615384,4655.384615,4007.179487,4034.871794
63,4392.820512,4517.435897,4516.410256,4288.717948,4531.282051,4241.025641,4477.435897,4246.153846,4267.692307,4502.051282,4218.974358,4653.846153,4000.000000,4033.333333
64,4393.846153,4518.461538,4522.051282,4288.205128,4528.205128,4241.538461,4475.897435,4245.641025,4261.025641,4509.230769,4223.589743,4656.923076,3993.333334,4031.794871
65,4391.282051,4517.948717,4518.974358,4283.076923,4530.769230,4236.410256,4474.358974,4240.512820,4265.128205,4506.153846,4224.102564,4658.974358,3995.384616,4027.179487
66,4387.179487,4508.205128,4512.820512,4275.897435,4524.615384,4228.717948,4474.871794,4242.051282,4268.205128,4500.512820,4221.025641,4655.384615,3999.487180,4022.051282
67,4389.230769,4503.589743,4517.435897,4275.384615,4517.948717,4228.205128,4474.358974,4247.692307,4263.076923,4502.051282,4222.564102,4658.461538,4002.564102,4023.589743
68,4396.410256,4512.820512,4522.564102,4276.410256,4518.974358,4233.333333,4482.051282,4255.384615,4270.769230,4512.307692,4230.769230,4670.769230,4010.769230,4035.384615
69,4395.897435,4515.384615,4528.205128,4278.974358,4520.000000,4232.307692,4490.256410,4269.230769,4287.179487,4522.564102,4238.974358,4679.487179,4018.461538,4045.128205
70,4395.384615,4511.794871,4535.384615,4282.564102,4523.076923,4226.666666,4484.102564,4273.846153,4283.589743,4520.512820,4234.871794,4681.538461,4016.923076,4043.589743
71,4405.641025,4517.948717,4533.846153,4283.589743,4527.179487,4225.128205,4477.435897,4267.179487,4273.333333,4511.794871,4223.589743,4682.051282,4013.333333,4040.000000
72,4404.102564,4521.538461,4525.641025,4280.512820,4526.153846,4224.102564,4472.820512,4254.358974,4270.256410,4503.589743,4218.461538,4675.384615,4009.743589,4034.871794
73,4387.179487,4515.897435,4518.461538,4276.410256,4523.076923,4218.461538,4467.692307,4244.102564,4261.025641,4500.512820,4212.307692,4660.000000,4000.512820,4026.153846
74,4375.897435,4510.256410,4510.256410,4271.282051,4518.461538,4214.358974,4465.128205,4238.461538,4249.230769,4496.923076,4197.948717,4646.666666,3992.307693,4014.871794
75,4375.384615,4509.230769,4504.615384,4266.153846,4514.871794,4217.435897,4463.076923,4236.923076,4249.230769,4490.769230,4196.410256,4646.666666,3988.717949,4005.128205
76,4377.948717,4512.820512,4508.205128,4274.358974,4519.487179,4221.538461,4461.025641,4241.538461,4252.820512,4491.794871,4209.230769,4655.897435,3992.307693,4009.230769
77,4380.512820,4517.948717,4508.717948,4284.102564,4522.051282,4215.897435,4459.487179,4244.102564,4253.333333,4501.025641,4213.846153,4658.974358,4002.051282,4021.025641
78,4379.487179,4513.333333,4505.641025,4274.358974,4514.871794,4206.666666,4456.410256,4238.461538,4253.333333,4502.564102,4208.717948,4652.820512,4003.076923,4021.025641
79,4376.410256,4504.102564,4506.153846,4264.615384,4511.282051,4205.128205,4452.820512,4231.794871,4246.153846,4493.846153,4200.000000,4651.282051,3997.948718,4013.846153
80,4377.435897,4505.128205,4507.692307,4269.743589,4512.307692,4205.641025,4451.794871,4234.871794,4240.000000,4489.743589,4198.461538,4654.871794,4002.564102,4015.897435
81,4377.948717,4508.205128,4508.717948,4268.717948,4510.769230,4204.102564,4450.256410,4237.948717,4240.512820,4495.384615,4204.615384,4654.871794,4005.128205,4020.512820
82,4381.538461,4511.794871,4513.333333,4268.205128,4510.769230,4205.128205,4454.871794,4242.564102,4245.641025,4504.615384,4207.179487,4658.461538,4004.102564,4025.128205
83,4388.205128,4515.897435,4521.025641,4280.512820,4513.333333,4206.153846,4462.564102,4251.794871,4251.282051,4504.615384,4209.743589,4663.589743,4008.205128,4028.205128
84,4390.256410,4517.948717,4522.051282,4283.589743,4516.923076,4206.666666,4461.025641,4249.230769,4249.743589,4497.435897,4220.000000,4663.589743,4007.179487,4028.205128
85,4389.230769,4517.435897,4522.564102,4274.358974,4513.846153,4208.205128,4460.512820,4242.564102,4247.692307,4502.051282,4220.512820,4662.564102,4006.153846,4032.307692
86,4388.205128,4509.230769,4521.538461,4268.205128,4500.000000,4203.076923,4458.974358,4243.076923,4248.205128,4501.538461,4208.717948,4665.641025,4011.794871,4032.820512
87,4383.076923,4501.538461,4510.256410,4265.641025,4496.410256,4193.333333,4449.230769,4242.051282,4243.076923,4483.589743,4206.666666,4663.076923,4004.102564,4025.128205
88,4376.923076,4503.076923,4503.076923,4266.153846,4508.205128,4194.358974,4443.076923,4235.897435,4234.871794,4486.666666,4208.717948,4655.384615,3993.333334,4021.025641
89,4378.974358,4510.769230,4507.692307,4270.769230,4508.205128,4199.487179,4444.102564,4231.282051,4233.846153,4502.051282,4198.974358,4656.923076,4000.000000,4023.589743
90,4383.589743,4513.333333,4510.769230,4271.794871,4502.051282,4198.461538,4444.102564,4229.743589,4237.435897,4493.846153,4197.435897,4662.564102,4004.102564,4028.717948
91,4384.102564,4513.333333,4509.230769,4270.256410,4508.717948,4198.974358,4444.102564,4229.230769,4235.384615,4482.051282,4204.102564,4661.538461,3997.435898,4033.846153
92,4382.564102,4515.384615,4508.717948,4271.794871,4512.307692,4197.948717,4441.025641,4228.205128,4227.692307,4483.076923,4199.487179,4657.435897,3998.461539,4032.820512
93,4379.487179,4515.384615,4507.179487,4272.307692,4504.615384,4190.256410,4432.307692,4222.564102,4223.589743,4480.512820,4197.948717,4656.410256,4000.000000,4024.615384
94,4374.358974,4507.692307,4507.179487,4267.179487,4501.538461,4189.230769,4432.820512,4220.000000,4226.666666,4480.000000,4204.615384,4656.410256,3990.256411,4021.538461
95,4374.358974,4503.589743,4507.692307,4261.025641,4499.487179,4195.384615,4442.051282,4225.641025,4231.282051,4491.282051,4206.666666,4657.435897,3992.307693,4026.666666
96,4382.564102,4509.230769,4508.717948,4265.641025,4495.897435,4197.435897,4446.153846,4233.846153,4240.000000,4500.000000,4210.256410,4661.025641,4008.717948,4034.871794
97,4383.589743,4508.205128,4508.717948,4271.282051,4498.974358,4197.435897,4446.153846,4237.435897,4244.615384,4492.820512,4212.820512,4657.948717,4004.615384,4032.307692
98,4380.000000,4504.615384,4506.153846,4269.743589,4500.000000,4200.000000,4447.179487,4237.948717,4239.487179,4491.282051,4203.076923,4652.820512,3991.282052,4024.615384
99,4386.666666,4514.358974,4511.282051,4271.794871,4500.512820,4199.487179,4445.641025,4238.461538,4241.025641,4504.615384,4204.102564,4661.025641,4001.538461,4031.794871
100,4394.358974,4525.641025,4521.538461,4279.487179,4509.743589,4200.512820,4444.615384,4236.410256,4245.641025,4505.128205,4223.589743,4670.769230,4015.384615,4043.076923
101,4393.846153,4525.128205,4521.025641,4284.102564,4514.871794,4202.564102,4444.102564,4232.820512,4243.589743,4495.897435,4228.717948,4667.179487,4013.333333,4044.102564
102,4395.384615,4520.512820,4519.487179,4282.564102,4505.641025,4198.974358,4444.102564,4237.948717,4243.589743,4503.076923,4215.897435,4663.076923,4013.333333,4043.589743
103,4397.948717,4522.564102,4525.641025,4283.589743,4504.102564,4198.974358,4446.666666,4242.051282,4246.153846,4502.564102,4210.256410,4666.666666,4015.897435,4043.589743
104,4390.769230,4524.102564,4519.487179,4283.076923,4509.230769,4203.076923,4441.538461,4229.230769,4237.435897,4481.025641,4213.846153,4663.076923,4007.692307,4035.897435
105,4378.461538,4521.538461,4505.641025,4277.435897,4507.179487,4198.974358,4430.769230,4211.282051,4224.615384,4475.897435,4202.564102,4650.256410,3992.307693,4022.564102
106,4376.923076,4520.000000,4505.641025,4277.948717,4506.666666,4189.230769,4424.102564,4207.179487,4220.512820,4488.717948,4191.282051,4645.641025,3983.589744,4015.384615
107,4384.615384,4526.153846,4509.230769,4286.666666,4508.205128,4191.282051,4424.102564,4216.923076,4226.666666,4491.282051,4201.538461,4652.820512,3985.641026,4022.051282
108,4387.179487,4528.205128,4511.282051,4289.230769,4509.743589,4198.461538,4432.820512,4228.717948,4233.846153,4484.615384,4210.769230,4656.923076,3990.769231,4030.769230
109,4388.205128,4528.205128,4518.974358,4281.538461,4507.692307,4202.564102,4444.102564,4236.923076,4237.948717,4484.615384,4207.692307,4655.384615,3994.358975,4027.692307
110,4391.282051,4532.307692,4523.589743,4280.000000,4506.153846,4207.692307,4449.230769,4243.076923,4243.589743,4492.307692,4208.205128,4655.897435,4002.051282,4025.128205
111,4389.230769,4529.743589,4517.948717,4283.076923,4507.179487,4208.717948,4446.666666,4243.589743,4245.128205,4499.487179,4207.692307,4654.358974,4006.666666,4031.282051
112,4387.179487,4522.564102,4517.948717,4279.487179,4509.230769,4205.128205,4444.615384,4236.923076,4243.589743,4501.538461,4207.179487,4652.307692,4000.000000,4032.820512
113,4386.666666,4516.410256,4523.589743,4274.358974,4504.615384,4203.076923,4442.051282,4230.769230,4244.615384,4496.410256,4213.333333,4653.333333,3992.820513,4028.205128
114,4381.025641,4515.384615,4516.410256,4273.846153,4499.487179,4203.076923,4438.461538,4228.205128,4238.974358,4483.076923,4209.743589,4651.282051,3991.794872,4026.153846
115,4380.000000,4515.897435,4512.307692,4275.897435,4502.051282,4196.923076,4433.333333,4221.538461,4227.179487,4477.948717,4201.538461,4648.717948,3993.846154,4027.179487
116,4385.128205,4514.871794,4515.897435,4275.897435,4497.948717,4189.743589,4428.717948,4216.410256,4227.692307,4493.846153,4210.769230,4648.717948,3992.820513,4024.102564
117,4388.717948,4514.871794,4513.846153,4277.948717,4494.358974,4189.230769,4432.307692,4219.487179,4232.820512,4497.435897,4214.871794,4648.717948,3988.205129,4024.615384
118,4392.820512,4521.538461,4514.871794,4281.025641,4499.487179,4197.948717,4438.461538,4221.538461,4228.717948,4481.538461,4204.615384,4651.282051,3990.256411,4030.769230
119,4392.307692,4530.256410,4521.025641,4283.589743,4505.641025,4206.153846,4443.589743,4224.615384,4229.230769,4477.948717,4202.051282,4656.410256,3998.461539,4033.333333
120,4377.435897,4521.025641,4513.333333,4277.948717,4506.666666,4200.512820,4443.076923,4225.641025,4229.743589,4476.923076,4196.923076,4647.692307,3991.282052,4022.051282
121,4369.230769,4507.179487,4501.025641,4267.692307,4499.487179,4194.871794,4436.923076,4219.487179,4221.025641,4468.717948,4185.641025,4633.333333,3972.820513,4008.717948
122,4380.000000,4512.820512,4507.692307,4277.948717,4494.871794,4203.076923,4440.000000,4218.461538,4221.538461,4475.384615,4194.871794,4640.000000,3975.897436,4013.333333
123,4392.307692,4525.641025,4518.974358,4292.820512,4500.000000,4214.358974,4448.717948,4224.102564,4230.256410,4488.717948,4214.358974,4654.358974,3992.307693,4029.743589
124,4389.230769,4524.615384,4514.871794,4281.538461,4507.179487,4210.256410,4444.615384,4221.538461,4226.666666,4484.102564,4212.307692,4651.794871,3987.692308,4030.256410
125,4378.461538,4517.435897,4505.641025,4266.153846,4497.435897,4198.461538,4434.871794,4211.282051,4218.974358,4473.846153,4196.923076,4640.512820,3968.717949,4015.384615
126,4377.948717,4516.923076,4503.076923,4273.846153,4489.230769,4196.410256,4436.410256,4212.820512,4226.153846,4473.846153,4195.384615,4640.512820,3970.769231,4013.846153
127,4387.179487,4516.410256,4508.205128,4282.051282,4500.512820,4202.564102,4445.128205,4225.641025,4237.948717,4482.564102,4206.153846,4649.743589,3992.307693,4026.153846
128,4388.717948,4515.384615,4514.871794,4276.410256,4504.615384,4207.692307,4451.282051,4236.410256,4246.153846,4492.820512,4219.487179,4658.461538,3999.487180,4030.769230
129,4386.153846,4522.051282,4518.974358,4273.333333,4496.410256,4206.153846,4452.307692,4240.512820,4252.820512,4501.025641,4222.051282,4660.000000,3994.358975,4032.307692
130,4385.641025,4523.589743,4518.974358,4274.358974,4496.410256,4201.025641,4446.153846,4236.410256,4250.769230,4501.538461,4215.897435,4654.358974,3993.846154,4032.307692
131,4382.051282,4514.871794,4517.948717,4269.743589,4496.923076,4196.410256,4436.410256,4228.717948,4242.564102,4492.820512,4216.410256,4649.230769,3992.307693,4027.692307
132,4382.564102,4509.230769,4520.512820,4268.717948,4489.230769,4194.358974,4432.820512,4223.589743,4237.435897,4488.717948,4220.000000,4648.717948,3984.615385,4027.692307
133,4388.205128,4515.384615,4523.076923,4276.923076,4493.333333,4195.897435,4436.923076,4226.666666,4240.512820,4491.282051,4216.923076,4652.307692,3986.153847,4038.974358
134,4391.282051,4526.666666,4524.102564,4285.128205,4508.205128,4203.076923,4446.666666,4234.358974,4249.743589,4496.410256,4216.923076,4658.974358,3997.948718,4046.153846
135,4391.282051,4525.641025,4523.589743,4285.128205,4509.230769,4211.794871,4451.282051,4236.923076,4254.358974,4502.051282,4225.641025,4660.000000,3996.410257,4040.512820
136,4388.205128,4513.846153,4518.974358,4278.461538,4500.512820,4210.256410,4443.589743,4227.179487,4246.666666,4496.410256,4225.128205,4651.794871,3986.153847,4031.794871
137,4384.102564,4513.333333,4514.358974,4273.333333,4498.461538,4210.256410,4440.000000,4221.538461,4237.948717,4487.179487,4215.384615,4647.179487,3986.153847,4031.794871
138,4377.948717,4517.948717,4507.692307,4271.794871,4502.051282,4212.307692,4440.000000,4222.564102,4235.897435,4482.051282,4209.230769,4646.666666,3984.102565,4031.282051
139,4374.358974,4513.333333,4507.179487,4271.282051,4501.538461,4208.205128,4434.871794,4217.948717,4234.358974,4477.435897,4211.282051,4643.076923,3972.307693,4022.564102
140,4380.512820,4512.820512,4515.897435,4272.820512,4502.051282,4206.153846,4435.384615,4219.487179,4237.435897,4481.538461,4215.897435,4643.589743,3977.948718,4024.102564
141,4387.692307,4520.512820,4524.102564,4275.384615,4505.128205,4214.871794,4444.102564,4231.282051,4247.179487,4496.923076,4215.897435,4646.666666,3993.846154,4035.897435
142,4384.102564,4521.025641,4519.487179,4277.435897,4503.589743,4217.948717,4440.000000,4228.205128,4243.589743,4498.974358,4214.871794,4644.615384,3988.717949,4032.820512
143,4376.410256,4513.846153,4510.256410,4275.897435,4501.025641,4208.717948,4429.230769,4212.307692,4229.230769,4480.512820,4211.794871,4637.948717,3977.948718,4021.538461
144,4375.897435,4509.743589,4509.230769,4271.282051,4501.538461,4200.512820,4429.230769,4207.179487,4225.128205,4473.846153,4206.153846,4634.358974,3978.974359,4020.000000
145,4375.384615,4510.769230,4508.205128,4269.743589,4503.589743,4202.051282,4429.743589,4209.743589,4231.794871,4481.025641,4203.076923,4632.307692,3977.948718,4020.512820
146,4375.897435,4518.974358,4509.743589,4277.435897,4503.589743,4207.692307,4432.820512,4211.794871,4235.384615,4485.641025,4207.179487,4631.794871,3974.871795,4022.051282
147,4384.102564,4525.128205,4520.512820,4289.230769,4504.102564,4211.794871,4442.051282,4217.435897,4237.948717,4486.666666,4214.871794,4637.435897,3983.589744,4029.230769
148,4388.717948,4523.589743,4522.564102,4283.076923,4504.615384,4212.820512,4443.589743,4221.025641,4240.000000,4487.692307,4215.384615,4643.076923,3986.153847,4031.794871
149,4383.589743,4520.512820,4509.743589,4269.230769,4501.025641,4210.256410,4434.871794,4215.384615,4240.000000,4490.256410,4211.282051,4643.589743,3977.435898,4026.666666
150,4377.435897,4512.820512,4503.589743,4266.666666,4496.923076,4204.615384,4430.256410,4210.769230,4235.384615,4484.615384,4204.615384,4636.410256,3972.307693,4023.076923
151,4371.282051,4503.076923,4506.153846,4267.179487,4496.923076,4200.512820,4428.717948,4207.692307,4224.615384,4472.307692,4197.435897,4628.717948,3970.256411,4021.538461
152,4369.743589,4504.102564,4504.102564,4270.769230,4495.384615,4200.000000,4427.179487,4207.179487,4222.564102,4470.256410,4201.538461,4632.307692,3970.769231,4023.076923
153,4378.461538,4514.871794,4509.743589,4276.410256,4493.333333,4206.153846,4434.358974,4215.384615,4235.897435,4487.692307,4213.846153,4644.615384,3980.512821,4027.692307
154,4387.692307,4518.461538,4522.051282,4272.307692,4499.487179,4216.410256,4445.128205,4224.102564,4245.128205,4503.076923,4218.974358,4650.256410,3989.743590,4034.871794
155,4388.717948,4516.923076,4522.564102,4273.846153,4508.205128,4221.025641,4449.230769,4226.153846,4246.666666,4500.512820,4219.487179,4650.256410,3987.692308,4043.589743
156,4383.076923,4515.897435,4513.846153,4281.025641,4506.153846,4216.410256,4444.102564,4223.076923,4244.615384,4496.410256,4220.512820,4650.769230,3980.512821,4040.512820
157,4374.871794,4509.230769,4507.179487,4273.846153,4498.461538,4209.743589,4438.461538,4220.000000,4241.538461,4492.307692,4214.871794,4646.153846,3976.410257,4027.179487
158,4373.333333,4508.205128,4507.179487,4265.641025,4497.435897,4210.256410,4435.897435,4214.871794,4242.564102,4489.743589,4207.179487,4642.051282,3978.974359,4029.230769
159,4377.948717,4515.384615,4507.692307,4267.179487,4498.461538,4210.769230,4433.333333,4214.871794,4242.564102,4494.358974,4207.179487,4646.666666,3981.025642,4038.461538
160,4378.974358,4514.871794,4506.666666,4268.205128,4499.487179,4208.205128,4433.846153,4216.923076,4237.948717,4495.384615,4202.051282,4646.666666,3977.435898,4031.282051
161,4380.000000,4514.358974,4511.794871,4273.333333,4508.205128,4213.333333,4440.000000,4220.512820,4242.564102,4492.820512,4201.538461,4645.641025,3979.487180,4028.717948
162,4388.717948,4524.615384,4523.589743,4286.666666,4525.128205,4221.025641,4447.179487,4233.333333,4258.461538,4497.435897,4218.974358,4656.923076,3991.282052,4045.128205
163,4393.846153,4526.666666,4529.743589,4286.666666,4529.743589,4221.538461,4445.641025,4235.384615,4262.051282,4500.512820,4226.666666,4662.564102,3996.923077,4050.256410
164,4389.743589,4517.948717,4524.102564,4271.282051,4517.435897,4213.333333,4439.487179,4219.487179,4250.769230,4495.897435,4213.846153,4654.871794,3987.179488,4035.384615
165,4388.205128,4519.487179,4521.538461,4265.128205,4511.282051,4209.230769,4438.974358,4213.846153,4248.717948,4499.487179,4209.230769,4654.358974,3982.051283,4027.692307
166,4392.307692,4518.461538,4524.615384,4270.256410,4514.358974,4208.205128,4440.512820,4226.153846,4256.410256,4502.051282,4214.358974,4661.538461,3988.717949,4034.871794
167,4392.820512,4510.769230,4525.641025,4272.820512,4512.307692,4204.615384,4442.051282,4229.743589,4257.435897,4496.923076,4210.256410,4662.564102,3993.333334,4042.051282
168,4392.820512,4515.897435,4526.666666,4272.307692,4512.307692,4208.205128,4445.641025,4229.230769,4255.384615,4496.923076,4207.692307,4663.076923,3991.282052,4041.538461
169,4393.333333,4524.615384,4526.666666,4274.358974,4518.461538,4210.769230,4447.692307,4232.820512,4256.923076,4497.435897,4206.153846,4662.051282,3991.282052,4034.871794
170,4386.153846,4518.461538,4522.564102,4272.820512,4512.820512,4201.538461,4441.538461,4225.641025,4253.333333,4494.358974,4197.435897,4653.333333,3988.205129,4026.666666
171,4380.000000,4512.307692,4521.538461,4267.692307,4500.000000,4193.846153,4436.923076,4219.487179,4247.692307,4497.948717,4191.794871,4648.205128,3983.076924,4024.615384
172,4381.025641,4518.974358,4524.615384,4264.615384,4506.153846,4195.897435,4438.461538,4220.000000,4243.589743,4493.846153,4192.820512,4649.230769,3983.076924,4027.179487
173,4382.051282,4525.641025,4523.589743,4269.743589,4511.794871,4196.923076,4440.000000,4217.435897,4237.435897,4480.512820,4194.358974,4649.230769,3985.641026,4024.102564
174,4386.666666,4530.256410,4526.153846,4284.615384,4503.589743,4198.461538,4443.589743,4221.538461,4240.000000,4484.615384,4197.948717,4656.410256,3992.820513,4026.153846
175,4388.205128,4530.769230,4524.615384,4283.589743,4498.974358,4200.000000,4441.538461,4227.179487,4244.102564,4492.307692,4193.846153,4660.000000,3993.333334,4029.743589
176,4380.000000,4521.538461,4512.820512,4264.615384,4490.256410,4187.692307,4429.230769,4215.897435,4231.794871,4482.051282,4183.076923,4648.205128,3982.051283,4023.076923
177,4377.948717,4520.000000,4512.307692,4266.666666,4484.102564,4181.538461,4423.076923,4207.692307,4226.153846,4478.974358,4186.666666,4646.153846,3981.025642,4022.051282
178,4389.743589,4530.256410,4523.589743,4285.641025,4492.307692,4194.871794,4434.358974,4220.000000,4238.974358,4490.256410,4198.974358,4658.461538,3996.410257,4033.846153
179,4393.846153,4533.846153,4526.153846,4284.615384,4494.871794,4200.000000,4439.487179,4227.179487,4242.564102,4487.179487,4203.076923,4662.564102,4001.538461,4038.461538
180,4388.717948,4525.641025,4522.564102,4272.820512,4481.025641,4189.743589,4431.794871,4221.025641,4234.358974,4475.897435,4202.051282,4660.000000,3993.333334,4032.820512
181,4389.743589,4521.025641,4524.615384,4273.846153,4477.435897,4189.743589,4431.794871,4224.102564,4238.461538,4485.128205,4204.102564,4664.102564,3992.307693,4035.897435
182,4394.871794,4522.564102,4525.641025,4276.923076,4484.615384,4195.384615,4438.461538,4231.794871,4246.153846,4501.538461,4203.076923,4664.102564,3997.435898,4040.000000
183,4395.384615,4524.615384,4521.025641,4278.461538,4485.128205,4194.871794,4441.025641,4229.743589,4243.076923,4499.487179,4195.897435,4660.512820,4002.051282,4036.923076
184,4392.307692,4526.666666,4528.205128,4284.102564,4486.153846,4196.410256,4442.564102,4228.717948,4240.512820,4492.307692,4197.948717,4664.615384,4004.102564,4035.897435
185,4396.410256,4528.717948,4535.384615,4285.641025,4488.205128,4195.384615,4446.153846,4233.333333,4244.102564,4495.897435,4210.256410,4668.717948,4005.128205,4039.487179
186,4402.051282,4533.333333,4528.717948,4281.025641,4487.692307,4192.820512,4442.051282,4228.205128,4244.102564,4491.794871,4212.307692,4666.153846,4006.153846,4044.615384
187,4398.461538,4534.358974,4525.641025,4283.076923,4485.128205,4194.871794,4439.487179,4224.102564,4239.487179,4484.615384,4203.076923,4665.641025,4003.589743,4045.641025
188,4396.923076,4531.282051,4533.846153,4284.102564,4485.128205,4197.948717,4443.589743,4231.794871,4242.564102,4495.897435,4201.538461,4666.666666,4000.000000,4042.051282
189,4400.000000,4529.230769,4530.769230,4278.461538,4490.769230,4195.384615,4446.153846,4234.871794,4247.692307,4503.589743,4203.076923,4665.128205,4002.051282,4040.512820
190,4400.000000,4528.717948,4523.076923,4283.589743,4493.846153,4194.871794,4446.666666,4230.769230,4243.589743,4492.307692,4204.615384,4664.615384,4005.641025,4044.102564
191,4393.333333,4522.051282,4524.615384,4287.179487,4479.487179,4187.692307,4442.051282,4226.153846,4238.974358,4489.230769,4203.076923,4660.000000,3999.487180,4038.461538
192,4392.307692,4518.974358,4525.128205,4275.897435,4469.743589,4182.051282,4437.948717,4226.153846,4238.974358,4497.948717,4197.948717,4655.897435,3994.871795,4033.846153
193,4397.435897,4524.615384,4522.564102,4268.205128,4479.487179,4187.692307,4442.564102,4232.307692,4240.512820,4502.051282,4201.025641,4660.512820,4001.538461,4041.538461
194,4392.820512,4523.076923,4523.076923,4271.794871,4477.948717,4185.641025,4444.102564,4235.384615,4239.487179,4498.461538,4201.538461,4663.076923,4003.076923,4039.487179
195,4384.102564,4516.410256,4524.615384,4272.307692,4470.256410,4181.538461,4437.948717,4231.794871,4235.384615,4489.743589,4194.358974,4658.974358,3996.923077,4029.743589
196,4382.564102,4517.435897,4518.974358,4269.230769,4477.435897,4185.128205,4440.512820,4230.256410,4228.205128,4484.615384,4192.307692,4653.333333,3991.794872,4029.743589
197,4382.564102,4515.384615,4510.256410,4269.743589,4473.846153,4184.615384,4440.000000,4225.641025,4222.051282,4480.512820,4192.820512,4648.717948,3987.692308,4031.282051
198,4380.512820,4509.743589,4513.846153,4269.743589,4461.538461,4180.512820,4429.743589,4217.948717,4226.666666,4481.025641,4188.717948,4651.282051,3985.128206,4030.256410
199,4386.153846,4515.384615,4521.538461,4264.102564,4466.666666,4182.051282,4433.846153,4223.589743,4236.923076,4491.794871,4193.333333,4658.461538,3990.769231,4034.871794
200,4391.282051,4519.487179,4514.358974,4261.538461,4474.358974,4185.641025,4442.051282,4230.769230,4238.461538,4498.974358,4200.512820,4657.435897,3995.897436,4038.461538
201,4388.205128,4513.333333,4507.179487,4267.692307,4474.358974,4184.615384,4438.974358,4228.717948,4234.871794,4496.410256,4199.487179,4654.871794,3994.871795,4040.000000
202,4386.666666,4513.333333,4510.769230,4273.333333,4480.512820,4184.615384,4435.384615,4229.230769,4237.948717,4491.794871,4196.923076,4657.948717,3992.307693,4040.512820
203,4382.051282,4514.358974,4510.769230,4269.743589,4475.897435,4182.564102,4433.846153,4228.205128,4234.871794,4486.153846,4189.230769,4653.333333,3985.128206,4029.230769
204,4373.333333,4507.179487,4505.641025,4261.538461,4460.000000,4178.461538,4427.692307,4215.897435,4217.948717,4475.897435,4180.000000,4642.051282,3974.358975,4018.461538
205,4374.871794,4502.051282,4504.615384,4258.974358,4462.051282,4181.538461,4425.641025,4210.256410,4210.256410,4476.410256,4180.512820,4639.487179,3973.333334,4024.615384
206,4382.051282,4508.717948,4506.666666,4263.589743,4471.282051,4185.128205,4429.230769,4220.512820,4224.102564,4484.615384,4189.743589,4645.128205,3981.025642,4031.794871
207,4384.102564,4515.384615,4510.256410,4270.769230,4469.230769,4185.128205,4432.307692,4231.282051,4238.461538,4488.717948,4198.461538,4649.230769,3987.179488,4030.769230
208,4383.076923,4514.871794,4509.743589,4267.692307,4474.358974,4185.641025,4431.794871,4229.743589,4242.564102,4488.717948,4199.487179,4648.205128,3988.205129,4028.205128
209,4376.923076,4507.692307,4505.641025,4256.923076,4478.974358,4185.641025,4427.179487,4222.051282,4235.897435,4487.692307,4188.205128,4643.589743,3981.538462,4025.128205
210,4370.256410,4501.025641,4504.615384,4254.358974,4466.666666,4178.974358,4424.102564,4214.871794,4227.692307,4488.205128,4180.000000,4641.538461,3972.820513,4022.051282
211,4373.333333,4500.000000,4506.153846,4262.051282,4458.974358,4173.846153,4424.102564,4210.256410,4224.615384,4484.102564,4186.666666,4644.102564,3976.923077,4024.102564
212,4377.948717,4502.564102,4507.692307,4265.128205,4465.641025,4178.461538,4426.153846,4211.282051,4227.179487,4480.512820,4196.410256,4645.128205,3988.205129,4029.230769
213,4377.435897,4506.153846,4508.205128,4264.102564,4470.769230,4183.076923,4426.666666,4216.923076,4229.230769,4488.205128,4199.487179,4644.615384,3986.153847,4030.256410
214,4380.000000,4510.769230,4508.717948,4266.153846,4479.487179,4185.128205,4423.589743,4219.487179,4229.230769,4492.307692,4196.923076,4646.666666,3979.487180,4031.794871
215,4382.051282,4513.846153,4507.692307,4265.128205,4482.051282,4182.564102,4418.461538,4215.897435,4229.743589,4489.230769,4194.871794,4648.717948,3985.641026,4030.769230
216,4380.512820,4512.820512,4505.641025,4263.589743,4465.641025,4174.871794,4413.846153,4213.333333,4230.256410,4491.794871,4198.461538,4647.692307,3996.410257,4031.282051
217,4381.538461,4512.307692,4505.128205,4264.615384,4460.000000,4174.871794,4417.948717,4212.820512,4229.743589,4491.794871,4203.589743,4647.692307,3994.871795,4037.435897
218,4382.564102,4511.794871,4505.128205,4266.666666,4473.846153,4183.589743,4427.692307,4213.846153,4229.230769,4487.692307,4199.487179,4648.205128,3987.692308,4039.487179
219,4382.051282,4512.820512,4506.666666,4270.256410,4475.897435,4187.692307,4431.282051,4221.538461,4238.461538,4494.871794,4198.461538,4649.230769,3989.743590,4036.410256
220,4381.538461,4514.871794,4507.692307,4265.641025,4470.256410,4185.641025,4428.205128,4225.641025,4242.051282,4501.025641,4202.564102,4649.743589,3990.256411,4034.358974
221,4380.512820,4514.358974,4507.179487,4258.461538,4477.435897,4186.153846,4429.230769,4221.538461,4230.256410,4495.897435,4198.974358,4647.179487,3984.102565,4033.846153
222,4378.974358,4510.256410,4507.179487,4263.076923,4480.512820,4183.589743,4429.230769,4215.384615,4221.025641,4486.153846,4193.333333,4645.641025,3980.512821,4033.333333
223,4378.461538,4510.256410,4509.230769,4266.153846,4469.230769,4182.051282,4425.128205,4208.717948,4222.051282,4478.461538,4190.769230,4646.153846,3981.025642,4033.333333
224,4378.461538,4509.230769,4508.717948,4259.487179,4465.128205,4185.128205,4426.153846,4207.692307,4224.102564,4481.538461,4188.205128,4644.615384,3978.461539,4031.282051
225,4376.923076,4501.538461,4506.666666,4260.000000,4469.230769,4182.564102,4426.666666,4209.743589,4221.538461,4487.179487,4187.692307,4641.025641,3974.358975,4029.230769
226,4383.589743,4504.102564,4512.307692,4269.743589,4471.794871,4181.538461,4426.666666,4213.846153,4226.153846,4489.743589,4194.871794,4646.666666,3986.153847,4041.025641
227,4394.358974,4517.435897,4522.051282,4273.333333,4478.461538,4189.230769,4427.179487,4219.487179,4235.897435,4500.000000,4209.743589,4658.461538,4006.666666,4057.435897
228,4395.384615,4518.974358,4525.641025,4269.743589,4485.641025,4190.769230,4428.717948,4221.538461,4236.923076,4507.179487,4216.923076,4660.512820,4008.205128,4056.923076
229,4390.769230,4513.333333,4515.384615,4267.692307,4477.435897,4186.153846,4428.205128,4217.435897,4232.307692,4498.461538,4211.282051,4657.435897,3997.948718,4047.692307
230,4392.307692,4517.948717,4510.256410,4268.717948,4469.230769,4187.692307,4428.205128,4217.435897,4235.897435,4492.307692,4208.717948,4656.923076,3997.948718,4049.230769
231,4393.846153,4520.000000,4515.384615,4270.769230,4471.794871,4189.230769,4429.230769,4222.051282,4242.051282,4497.435897,4211.282051,4652.307692,3999.487180,4051.282051
232,4388.205128,4513.333333,4510.256410,4271.794871,4474.358974,4188.717948,4428.717948,4224.615384,4240.000000,4502.051282,4208.205128,4645.128205,3991.282052,4044.102564
233,4387.179487,4512.307692,4507.692307,4268.205128,4478.461538,4190.769230,4428.717948,4227.179487,4242.051282,4504.615384,4206.153846,4646.666666,3992.307693,4042.564102
234,4392.307692,4514.358974,4516.410256,4267.179487,4485.128205,4193.846153,4429.230769,4226.666666,4250.769230,4500.512820,4210.769230,4651.282051,3999.487180,4049.230769
235,4393.846153,4514.871794,4517.948717,4269.230769,4480.000000,4194.871794,4433.333333,4221.025641,4247.692307,4493.846153,4209.743589,4649.230769,3992.307693,4052.307692
236,4390.769230,4515.897435,4515.897435,4270.769230,4475.384615,4197.948717,4440.512820,4221.025641,4239.487179,4501.538461,4205.128205,4647.179487,3988.717949,4052.307692
237,4392.307692,4515.384615,4521.025641,4270.256410,4484.102564,4204.102564,4446.153846,4229.230769,4242.564102,4510.256410,4209.743589,4650.769230,4000.000000,4052.307692
238,4391.282051,4510.769230,4516.923076,4262.051282,4480.512820,4198.974358,4439.487179,4228.717948,4243.589743,4498.974358,4212.307692,4649.230769,4002.051282,4047.179487
239,4384.102564,4508.205128,4506.666666,4255.384615,4472.307692,4190.256410,4429.230769,4221.538461,4238.461538,4491.794871,4206.153846,4645.128205,3991.794872,4042.051282
240,4383.589743,4507.179487,4508.717948,4262.051282,4483.076923,4193.333333,4433.333333,4224.102564,4241.025641,4499.487179,4205.641025,4646.153846,3987.179488,4042.564102
241,4386.666666,4505.641025,4509.743589,4263.076923,4484.615384,4197.435897,4435.384615,4227.692307,4244.615384,4497.435897,4211.794871,4647.179487,3989.230770,4042.051282
242,4382.564102,4503.076923,4505.128205,4251.794871,4470.769230,4191.282051,4429.230769,4222.564102,4239.487179,4489.743589,4202.564102,4642.564102,3989.230770,4041.538461
243,4378.461538,4504.102564,4505.641025,4249.230769,4471.282051,4192.307692,4429.230769,4220.512820,4234.871794,4492.820512,4190.256410,4639.487179,3989.230770,4041.025641
244,4382.051282,4508.205128,4507.692307,4258.974358,4483.589743,4201.538461,4435.384615,4224.102564,4236.410256,4493.333333,4205.641025,4641.025641,3990.256411,4043.076923
245,4383.589743,4507.179487,4508.205128,4260.512820,4486.153846,4202.051282,4433.333333,4219.487179,4234.358974,4489.230769,4219.487179,4642.564102,3989.230770,4043.076923
246,4382.564102,4504.615384,4506.153846,4255.384615,4487.692307,4195.897435,4427.179487,4211.282051,4228.717948,4493.333333,4208.717948,4642.564102,3986.666667,4043.589743
247,4381.025641,4503.076923,4504.615384,4255.897435,4485.128205,4192.820512,4426.666666,4210.256410,4224.615384,4494.358974,4198.461538,4635.384615,3984.102565,4042.051282
248,4376.410256,4501.025641,4503.076923,4254.358974,4474.358974,4193.333333,4425.128205,4212.307692,4225.128205,4481.025641,4200.512820,4629.230769,3984.102565,4037.435897
249,4381.538461,4507.179487,4506.666666,4253.333333,4475.897435,4198.461538,4428.717948,4217.435897,4233.333333,4477.948717,4211.282051,4642.051282,3991.282052,4042.051282
250,4398.461538,4520.512820,4519.487179,4255.897435,4490.256410,4204.615384,4439.487179,4226.666666,4244.615384,4493.333333,4225.641025,4660.000000,4004.102564,4055.384615
251,4397.948717,4523.589743,4522.051282,4256.923076,4491.282051,4204.102564,4442.564102,4232.820512,4249.230769,4502.564102,4223.076923,4656.923076,4003.589743,4058.974358
252,4380.512820,4509.743589,4508.717948,4251.282051,4478.974358,4196.410256,4431.282051,4224.615384,4239.487179,4497.948717,4205.128205,4642.051282,3986.666667,4046.666666
253,4374.871794,4500.000000,4503.076923,4249.230769,4480.000000,4194.358974,4425.128205,4212.820512,4227.692307,4487.179487,4201.025641,4637.435897,3977.435898,4038.461538
254,4380.000000,4504.102564,4505.641025,4252.307692,4486.153846,4200.000000,4427.692307,4212.820512,4228.717948,4480.000000,4206.153846,4639.487179,3981.025642,4038.974358
255,4383.076923,4508.717948,4508.205128,4249.230769,4481.538461,4201.025641,4433.333333,4220.512820,4238.461538,4489.230769,4206.153846,4640.000000,3986.153847,4044.102564
256,4384.102564,4507.692307,4513.846153,4248.205128,4478.461538,4201.538461,4440.512820,4228.205128,4250.256410,4507.692307,4211.282051,4645.128205,3990.769231,4052.307692
257,4381.025641,4505.641025,4514.358974,4249.230769,4481.025641,4203.076923,4442.564102,4235.384615,4254.358974,4510.769230,4220.512820,4644.615384,3994.871795,4051.282051
258,4376.923076,4504.102564,4505.128205,4245.128205,4480.000000,4200.512820,4437.948717,4233.846153,4250.256410,4498.461538,4217.435897,4635.897435,3990.256411,4039.487179
259,4376.923076,4501.025641,4502.564102,4244.102564,4476.923076,4201.025641,4435.897435,4226.666666,4244.102564,4491.794871,4206.666666,4634.358974,3985.641026,4035.897435
