,AF3,F7,F3,FC5,T7,P7,O1,O2,P8,T8,FC6,F4,F8,AF4
0,4358.974358,4516.410256,4490.256410,4221.025641,4489.230769,4164.102564,4469.230769,4097.435897,4185.128205,4535.897435,4237.948717,4670.769230,3991.282052,4093.846153
1,4354.871794,4501.538461,4488.205128,4214.358974,4476.410256,4160.000000,4466.153846,4083.589743,4180.000000,4509.230769,4224.615384,4664.102564,3976.410257,4091.282051
2,4352.820512,4494.358974,4493.333333,4203.076923,4463.076923,4155.384615,4465.641025,4074.871794,4165.641025,4485.641025,4225.641025,4666.666666,3980.000000,4091.794871
3,4347.692307,4489.743589,4489.230769,4205.128205,4467.179487,4153.333333,4464.615384,4077.948717,4163.589743,4496.923076,4233.846153,4671.282051,3986.153847,4092.820512
4,4349.230769,4488.205128,4489.230769,4218.974358,4490.256410,4161.538461,4471.794871,4088.205128,4174.358974,4505.641025,4235.384615,4676.923076,3971.282052,4091.794871
5,4355.384615,4499.487179,4498.461538,4218.974358,4493.333333,4168.205128,4478.974358,4096.410256,4179.487179,4496.410256,4227.179487,4682.051282,3965.128206,4090.769230
6,4351.794871,4500.512820,4494.871794,4210.769230,4468.717948,4156.923076,4466.153846,4086.153846,4172.307692,4501.538461,4217.435897,4675.897435,3980.512821,4087.692307
7,4349.230769,4490.256410,4488.205128,4216.410256,4464.102564,4145.641025,4453.846153,4071.794871,4167.692307,4508.717948,4224.102564,4668.205128,3985.128206,4089.230769
8,4362.564102,4500.000000,4500.512820,4227.692307,4486.153846,4151.794871,4459.487179,4076.923076,4174.358974,4501.025641,4243.076923,4678.461538,3982.564103,4098.974358
9,4367.692307,4514.358974,4504.615384,4225.128205,4486.666666,4158.461538,4464.102564,4083.076923,4178.461538,4501.025641,4247.692307,4685.128205,3988.717949,4100.000000
10,4358.974358,4507.179487,4495.897435,4220.512820,4473.846153,4156.923076,4462.564102,4080.512820,4178.461538,4514.871794,4236.410256,4676.410256,3987.692308,4090.256410
11,4356.410256,4494.358974,4495.897435,4225.128205,4470.769230,4152.307692,4460.512820,4082.564102,4179.487179,4512.820512,4226.153846,4671.282051,3981.538462,4083.589743
12,4358.461538,4491.282051,4497.435897,4229.743589,4468.717948,4148.205128,4460.000000,4083.589743,4177.435897,4495.897435,4225.641025,4672.820512,3986.666667,4084.102564
13,4355.897435,4493.846153,4493.333333,4222.564102,4470.256410,4151.794871,4463.076923,4078.461538,4174.871794,4488.717948,4235.897435,4672.820512,3987.692308,4089.743589
14,4355.384615,4500.000000,4489.743589,4211.794871,4474.358974,4157.435897,4464.615384,4079.487179,4177.948717,4490.769230,4241.538461,4672.307692,3982.051283,4094.871794
15,4359.487179,4505.128205,4489.743589,4214.871794,4474.358974,4157.435897,4461.025641,4083.076923,4179.487179,4505.641025,4234.871794,4673.846153,3989.743590,4093.846153
16,4358.461538,4503.076923,4488.717948,4224.615384,4476.923076,4155.897435,4460.000000,4081.025641,4177.948717,4521.025641,4229.743589,4671.282051,3991.794872,4086.666666
17,4357.948717,4502.051282,4488.205128,4226.666666,4487.179487,4159.487179,4462.564102,4082.051282,4182.051282,4526.666666,4236.923076,4670.769230,3984.102565,4087.179487
18,4361.025641,4500.000000,4488.205128,4227.692307,4486.153846,4161.538461,4464.615384,4085.641025,4184.615384,4525.641025,4248.717948,4672.820512,3985.641026,4093.333333
19,4355.384615,4488.205128,4485.641025,4226.153846,4473.333333,4156.410256,4465.128205,4086.153846,4181.025641,4499.487179,4246.666666,4670.769230,3988.205129,4089.743589
20,4350.769230,4490.769230,4482.564102,4216.410256,4476.923076,4156.923076,4464.615384,4087.692307,4181.025641,4480.000000,4236.410256,4665.641025,3983.589744,4078.461538
21,4351.282051,4508.717948,4476.923076,4210.769230,4481.538461,4157.435897,4463.076923,4087.692307,4181.538461,4510.769230,4225.641025,4660.000000,3984.615385,4074.871794
22,4346.666666,4505.128205,4470.769230,4211.282051,4467.692307,4153.333333,4460.512820,4079.487179,4176.923076,4530.769230,4214.871794,4656.923076,3981.538462,4077.948717
23,4344.615384,4482.564102,4470.769230,4214.871794,4464.615384,4152.820512,4457.948717,4069.230769,4170.769230,4495.384615,4215.897435,4654.871794,3968.205129,4074.871794
24,4349.743589,4481.025641,4470.769230,4222.051282,4477.948717,4153.333333,4456.410256,4066.666666,4167.179487,4473.846153,4225.128205,4651.282051,3963.589744,4068.717948
25,4342.564102,4484.615384,4462.564102,4214.358974,4476.410256,4150.769230,4456.923076,4065.128205,4162.564102,4485.641025,4223.589743,4646.153846,3973.333334,4062.564102
26,4336.410256,4482.564102,4464.102564,4205.128205,4480.000000,4157.948717,4464.102564,4068.205128,4165.641025,4495.384615,4220.000000,4648.717948,3984.102565,4065.128205
27,4347.692307,4493.846153,4475.897435,4213.846153,4491.794871,4164.615384,4470.769230,4076.923076,4176.923076,4509.743589,4224.102564,4659.487179,3982.564103,4078.974358
28,4350.256410,4499.487179,4473.846153,4217.948717,4468.717948,4154.871794,4465.641025,4075.897435,4176.923076,4506.153846,4225.128205,4660.000000,3969.743590,4080.000000
29,4348.717948,4485.641025,4468.205128,4215.384615,4446.153846,4148.205128,4457.435897,4068.717948,4165.641025,4484.615384,4224.102564,4655.384615,3972.307693,4070.256410
30,4355.897435,4482.051282,4473.333333,4219.487179,4464.615384,4149.743589,4458.974358,4067.179487,4162.051282,4484.102564,4222.564102,4654.358974,3981.538462,4069.230769
31,4355.897435,4498.461538,4474.358974,4216.923076,4487.692307,4147.179487,4460.000000,4067.692307,4164.615384,4483.076923,4216.923076,4654.871794,3971.794872,4072.820512
32,4350.256410,4503.076923,4469.743589,4217.435897,4490.256410,4148.205128,4457.435897,4065.128205,4163.076923,4468.205128,4211.794871,4652.307692,3963.076924,4070.256410
33,4344.102564,4486.153846,4466.666666,4223.076923,4469.230769,4146.153846,4451.282051,4061.025641,4159.487179,4467.692307,4200.512820,4644.102564,3963.589744,4061.538461
34,4331.794871,4473.846153,4457.948717,4213.846153,4441.025641,4138.974358,4444.102564,4052.820512,4158.461538,4469.743589,4194.358974,4634.358974,3953.333334,4053.846153
35,4329.743589,4476.923076,4453.846153,4202.051282,4444.615384,4138.461538,4444.615384,4050.769230,4160.000000,4467.179487,4204.102564,4634.358974,3952.307693,4055.384615
36,4344.102564,4487.692307,4462.564102,4210.256410,4477.435897,4147.692307,4455.897435,4061.025641,4166.666666,4480.000000,4215.897435,4643.589743,3966.153847,4064.102564
37,4349.743589,4494.871794,4466.666666,4222.051282,4485.641025,4156.410256,4461.538461,4067.692307,4172.307692,4478.461538,4211.794871,4649.743589,3962.564103,4067.692307
38,4348.205128,4493.333333,4466.666666,4218.461538,4463.076923,4153.846153,4456.410256,4065.641025,4170.769230,4460.000000,4202.564102,4648.205128,3954.871795,4064.102564
39,4351.282051,4489.230769,4471.794871,4211.794871,4457.948717,4148.717948,4458.461538,4067.179487,4172.820512,4471.794871,4212.820512,4649.230769,3969.743590,4068.717948
40,4350.769230,4486.153846,4477.948717,4219.487179,4467.692307,4152.307692,4467.179487,4076.923076,4183.076923,4497.435897,4226.153846,4654.871794,3982.051283,4076.410256
41,4350.256410,4486.666666,4482.051282,4228.205128,4473.333333,4158.974358,4467.692307,4084.102564,4184.615384,4492.307692,4223.076923,4655.384615,3974.871795,4075.897435
42,4351.794871,4490.769230,4482.564102,4221.538461,4477.948717,4160.000000,4467.179487,4084.102564,4180.512820,4477.948717,4216.410256,4651.794871,3965.128206,4070.256410
43,4349.230769,4489.743589,4480.512820,4217.435897,4469.743589,4158.461538,4469.230769,4081.025641,4184.615384,4487.179487,4212.820512,4651.794871,3962.051283,4066.153846
44,4349.743589,4487.692307,4482.051282,4225.641025,4461.538461,4159.487179,4468.717948,4081.538461,4192.820512,4499.487179,4214.358974,4654.871794,3966.666667,4067.692307
45,4355.384615,4494.871794,4487.179487,4227.692307,4474.358974,4163.589743,4469.230769,4087.179487,4196.923076,4498.974358,4222.051282,4660.000000,3972.307693,4072.820512
46,4350.769230,4497.948717,4487.179487,4226.666666,4474.871794,4162.564102,4469.230769,4086.666666,4194.358974,4491.794871,4226.153846,4657.948717,3968.205129,4072.307692
47,4344.102564,4493.846153,4482.564102,4233.846153,4463.076923,4155.384615,4466.153846,4077.435897,4188.205128,4482.564102,4218.974358,4653.333333,3962.051283,4067.692307
48,4354.358974,4500.512820,4480.000000,4236.410256,4478.974358,4158.461538,4466.666666,4073.333333,4184.102564,4483.076923,4218.461538,4657.435897,3967.692308,4070.769230
49,4363.076923,4501.538461,4480.000000,4227.692307,4490.769230,4163.589743,4463.589743,4074.871794,4181.538461,4498.461538,4224.102564,4663.076923,3972.307693,4072.307692
50,4356.923076,4495.897435,4484.615384,4230.769230,4479.487179,4158.974358,4456.410256,4075.384615,4180.512820,4500.000000,4224.615384,4662.564102,3973.846154,4070.769230
51,4361.538461,4506.153846,4490.769230,4242.564102,4470.769230,4157.948717,4457.948717,4074.871794,4180.000000,4480.512820,4227.692307,4666.666666,3982.051283,4078.974358
52,4371.794871,4515.897435,4487.692307,4236.410256,4462.051282,4157.948717,4458.461538,4069.743589,4175.897435,4472.820512,4224.615384,4667.179487,3980.000000,4081.025641
53,4361.538461,4507.692307,4481.538461,4229.743589,4460.000000,4155.897435,4455.897435,4064.615384,4170.769230,4485.128205,4205.128205,4654.358974,3959.487180,4068.717948
54,4347.179487,4490.769230,4476.923076,4236.923076,4469.743589,4160.000000,4461.025641,4066.666666,4174.358974,4488.205128,4195.897435,4647.692307,3948.205129,4060.000000
55,4353.846153,4487.692307,4476.410256,4243.076923,4469.230769,4166.153846,4467.692307,4076.923076,4183.076923,4473.333333,4212.820512,4654.358974,3956.923077,4064.615384
56,4364.102564,4504.102564,4482.564102,4238.974358,4466.153846,4167.179487,4472.820512,4089.230769,4190.769230,4473.333333,4230.769230,4662.051282,3967.179488,4074.871794
57,4363.076923,4512.307692,4486.153846,4229.230769,4467.179487,4165.128205,4473.333333,4091.282051,4195.897435,4494.871794,4228.205128,4662.564102,3970.256411,4078.974358
58,4357.435897,4500.000000,4482.564102,4227.179487,4465.641025,4162.564102,4469.743589,4085.128205,4197.435897,4503.076923,4216.410256,4659.487179,3971.282052,4073.846153
59,4351.282051,4494.358974,4477.435897,4232.307692,4473.333333,4165.128205,4468.717948,4084.615384,4198.974358,4495.384615,4217.948717,4656.923076,3969.230770,4068.717948
60,4348.205128,4499.487179,4476.923076,4230.256410,4475.384615,4164.102564,4466.666666,4080.000000,4197.948717,4493.333333,4224.615384,4653.846153,3967.692308,4068.205128
61,4348.205128,4497.948717,4475.897435,4222.564102,4451.282051,4155.384615,4458.974358,4071.282051,4193.846153,4495.897435,4225.641025,4652.307692,3973.846154,4072.307692
62,4346.153846,4491.282051,4473.846153,4220.000000,4439.487179,4153.333333,4453.846153,4069.743589,4190.769230,4499.487179,4221.538461,4652.820512,3980.000000,4072.820512
63,4347.692307,4488.717948,4475.897435,4223.076923,4458.974358,4160.000000,4458.461538,4073.846153,4192.307692,4498.974358,4216.923076,4653.846153,3980.512821,4070.256410
64,4354.358974,4493.846153,4482.564102,4227.692307,4475.897435,4162.051282,4463.589743,4076.410256,4191.282051,4484.102564,4223.076923,4656.923076,3973.333334,4074.871794
65,4353.846153,4500.000000,4486.153846,4228.205128,4469.230769,4159.487179,4463.076923,4077.435897,4186.666666,4476.410256,4227.692307,4661.025641,3967.692308,4078.461538
66,4345.641025,4497.948717,4481.025641,4224.615384,4453.333333,4155.897435,4459.487179,4073.846153,4187.692307,4490.769230,4223.076923,4657.435897,3975.384616,4071.794871
67,4345.128205,4490.769230,4474.358974,4224.102564,4444.102564,4148.717948,4457.435897,4071.794871,4191.282051,4491.282051,4219.487179,4650.256410,3978.974359,4067.179487
68,4352.307692,4490.256410,4476.410256,4226.153846,4449.230769,4145.128205,4457.435897,4073.846153,4188.205128,4480.512820,4220.512820,4653.846153,3973.333334,4072.307692
69,4356.923076,4500.512820,4486.666666,4233.333333,4463.076923,4151.794871,4457.948717,4074.358974,4184.615384,4492.820512,4221.025641,4663.589743,3975.384616,4081.025641
70,4356.923076,4509.743589,4491.794871,4242.051282,4466.153846,4160.000000,4459.487179,4072.307692,4189.743589,4504.615384,4219.487179,4665.128205,3980.512821,4085.128205
71,4353.333333,4504.615384,4485.128205,4241.538461,4448.205128,4155.384615,4457.435897,4071.794871,4189.743589,4486.153846,4220.000000,4660.512820,3972.820513,4080.512820
72,4347.692307,4493.846153,4482.051282,4233.846153,4442.051282,4148.205128,4453.333333,4070.769230,4181.025641,4472.820512,4221.538461,4658.461538,3963.076924,4073.333333
73,4347.179487,4496.923076,4488.717948,4228.205128,4466.153846,4156.923076,4457.948717,4073.846153,4183.076923,4487.179487,4225.641025,4660.000000,3961.538462,4072.820512
74,4353.846153,4502.051282,4490.256410,4230.256410,4475.384615,4164.615384,4462.051282,4074.871794,4191.282051,4501.025641,4217.948717,4661.025641,3965.641026,4075.384615
75,4356.923076,4491.794871,4484.102564,4237.948717,4458.461538,4155.897435,4457.948717,4072.820512,4190.769230,4496.410256,4211.794871,4664.615384,3971.794872,4075.384615
76,4352.307692,4486.153846,4484.102564,4234.358974,4449.743589,4149.230769,4454.358974,4074.358974,4187.179487,4487.692307,4220.512820,4666.153846,3971.282052,4073.333333
77,4346.666666,4498.461538,4483.076923,4214.358974,4436.410256,4149.743589,4453.333333,4075.384615,4179.487179,4477.948717,4220.512820,4656.410256,3964.102565,4068.205128
78,4345.641025,4501.025641,4476.923076,4206.153846,4425.641025,4146.153846,4451.282051,4069.230769,4170.256410,4480.512820,4211.282051,4648.205128,3962.051283,4062.564102
79,4347.692307,4491.794871,4478.974358,4217.435897,4451.794871,4151.794871,4457.435897,4074.871794,4180.000000,4502.051282,4214.871794,4655.384615,3972.820513,4067.179487
80,4356.410256,4500.000000,4491.794871,4223.076923,4479.487179,4166.153846,4470.769230,4093.333333,4194.871794,4510.256410,4227.179487,4667.692307,3982.564103,4081.025641
81,4366.666666,4508.717948,4498.461538,4221.538461,4474.358974,4169.743589,4472.820512,4094.358974,4188.717948,4499.487179,4235.384615,4671.282051,3975.384616,4085.128205
82,4362.051282,4499.487179,4492.820512,4224.102564,4458.974358,4164.102564,4464.615384,4082.564102,4177.435897,4498.461538,4231.794871,4669.230769,3964.102565,4074.358974
83,4350.256410,4494.358974,4487.692307,4215.897435,4452.307692,4160.512820,4461.025641,4082.051282,4177.948717,4499.487179,4220.000000,4664.102564,3970.769231,4068.717948
84,4350.256410,4494.871794,4480.000000,4196.410256,4458.461538,4164.102564,4464.102564,4086.666666,4182.051282,4486.153846,4222.051282,4658.974358,3980.000000,4071.794871
85,4346.153846,4487.692307,4472.820512,4196.923076,4458.461538,4162.051282,4466.666666,4080.000000,4176.923076,4482.051282,4228.205128,4653.333333,3967.692308,4069.743589
86,4333.333333,4486.666666,4471.794871,4209.743589,4444.615384,4152.307692,4465.128205,4072.307692,4162.564102,4490.256410,4220.000000,4644.615384,3952.307693,4061.025641
87,4339.487179,4495.897435,4472.820512,4208.205128,4455.384615,4151.794871,4463.076923,4077.948717,4165.128205,4500.512820,4213.333333,4649.743589,3961.025642,4063.076923
88,4350.769230,4490.256410,4474.871794,4196.923076,4468.205128,4154.871794,4460.000000,4080.000000,4174.871794,4501.025641,4214.358974,4660.000000,3969.743590,4069.230769
89,4343.076923,4477.948717,4475.384615,4187.179487,4442.564102,4146.153846,4456.410256,4071.282051,4166.153846,4477.435897,4213.846153,4654.358974,3952.820513,4065.128205
90,4340.512820,4482.051282,4474.358974,4188.717948,4437.948717,4144.615384,4456.410256,4071.282051,4157.435897,4466.666666,4216.923076,4651.282051,3944.102565,4065.128205
91,4343.589743,4492.820512,4474.358974,4201.025641,4471.282051,4156.410256,4460.000000,4080.512820,4166.666666,4487.692307,4218.461538,4656.923076,3960.000000,4068.205128
92,4335.384615,4487.692307,4473.846153,4201.538461,4462.564102,4155.897435,4457.948717,4078.974358,4167.692307,4500.000000,4208.205128,4650.256410,3963.589744,4060.512820
93,4331.794871,4472.307692,4471.794871,4189.743589,4425.641025,4146.153846,4453.846153,4069.230769,4159.487179,4489.743589,4202.564102,4639.487179,3947.692308,4053.333333
94,4344.615384,4476.410256,4475.384615,4193.846153,4433.846153,4147.179487,4452.820512,4068.717948,4162.051282,4480.000000,4209.743589,4647.692307,3949.230770,4061.538461
95,4352.307692,4496.410256,4484.102564,4201.538461,4458.974358,4148.205128,4451.282051,4073.333333,4163.589743,4477.948717,4217.435897,4661.538461,3965.128206,4071.282051
96,4351.282051,4503.076923,4485.128205,4197.948717,4460.512820,4147.692307,4453.333333,4079.487179,4167.692307,4492.820512,4225.128205,4664.102564,3969.230770,4073.333333
97,4351.282051,4491.794871,4478.974358,4204.615384,4461.025641,4155.897435,4458.461538,4084.615384,4178.974358,4509.743589,4230.256410,4663.589743,3962.564103,4076.923076
98,4343.076923,4485.128205,4474.358974,4209.743589,4462.051282,4156.410256,4455.384615,4078.461538,4174.871794,4490.256410,4226.153846,4660.000000,3960.512821,4072.820512
99,4335.897435,4482.051282,4472.820512,4196.923076,4452.820512,4148.717948,4449.230769,4071.794871,4161.538461,4478.974358,4214.358974,4651.794871,3967.179488,4062.051282
100,4344.102564,4486.153846,4476.410256,4195.384615,4452.307692,4154.358974,4455.384615,4077.948717,4166.666666,4499.487179,4213.333333,4653.846153,3969.230770,4066.666666
101,4355.897435,4501.538461,4482.051282,4206.666666,4456.923076,4162.564102,4461.025641,4082.051282,4174.871794,4502.051282,4224.102564,4663.589743,3960.000000,4077.435897
102,4353.846153,4502.051282,4479.487179,4203.589743,4448.717948,4154.871794,4453.846153,4076.923076,4165.128205,4489.230769,4221.538461,4660.000000,3954.358975,4069.230769
103,4344.615384,4482.564102,4472.307692,4193.846153,4439.487179,4146.153846,4447.179487,4071.282051,4156.923076,4486.153846,4207.692307,4650.769230,3960.512821,4060.000000
104,4341.025641,4471.282051,4475.897435,4189.230769,4442.051282,4147.179487,4446.153846,4068.205128,4158.461538,4487.179487,4204.615384,4650.256410,3962.564103,4064.102564
105,4344.102564,4482.564102,4482.051282,4189.230769,4454.358974,4154.358974,4449.743589,4071.794871,4163.076923,4498.461538,4214.358974,4652.820512,3959.487180,4067.692307
106,4350.256410,4500.000000,4478.974358,4202.051282,4467.692307,4161.025641,4454.871794,4081.025641,4166.666666,4501.538461,4223.589743,4654.871794,3968.205129,4069.743589
107,4352.307692,4499.487179,4478.461538,4219.487179,4462.051282,4156.410256,4455.384615,4081.025641,4167.692307,4482.051282,4225.641025,4658.461538,3975.384616,4074.871794
108,4345.128205,4477.435897,4477.948717,4212.307692,4438.461538,4146.153846,4445.641025,4070.256410,4164.615384,4483.589743,4213.333333,4653.333333,3961.538462,4069.743589
109,4338.974358,4471.282051,4475.384615,4192.307692,4446.666666,4148.205128,4441.538461,4069.743589,4167.692307,4507.179487,4207.692307,4648.205128,3952.820513,4063.076923
110,4346.153846,4495.384615,4482.051282,4190.769230,4469.230769,4159.487179,4449.230769,4081.538461,4178.974358,4505.128205,4218.461538,4653.846153,3967.692308,4069.743589
111,4350.256410,4505.641025,4485.128205,4201.538461,4451.794871,4161.025641,4452.307692,4085.641025,4183.589743,4496.410256,4220.512820,4658.461538,3971.794872,4075.897435
112,4348.717948,4495.384615,4482.564102,4216.410256,4443.076923,4158.974358,4455.384615,4081.025641,4180.512820,4504.102564,4217.435897,4659.487179,3962.564103,4079.487179
113,4358.974358,4499.487179,4489.743589,4224.615384,4476.410256,4167.179487,4462.564102,4084.615384,4180.512820,4505.128205,4219.487179,4663.076923,3974.871795,4082.564102
114,4364.102564,4508.205128,4492.307692,4213.333333,4479.487179,4167.692307,4460.512820,4086.666666,4180.512820,4498.461538,4214.871794,4662.564102,3986.666667,4081.538461
115,4352.820512,4499.487179,4482.564102,4204.102564,4448.205128,4157.435897,4452.307692,4076.923076,4173.846153,4497.948717,4214.871794,4656.923076,3973.333334,4078.974358
116,4350.256410,4494.358974,4482.051282,4214.358974,4452.307692,4158.461538,4452.820512,4076.410256,4171.282051,4502.564102,4226.153846,4655.897435,3966.666667,4081.025641
117,4355.897435,4502.051282,4490.256410,4225.128205,4475.384615,4164.615384,4459.487179,4088.205128,4181.538461,4508.717948,4228.717948,4660.512820,3976.410257,4084.102564
118,4355.384615,4504.615384,4491.282051,4221.025641,4476.410256,4165.641025,4464.615384,4092.820512,4190.769230,4524.102564,4221.538461,4664.615384,3983.076924,4085.128205
119,4358.461538,4498.461538,4487.692307,4212.307692,4460.000000,4162.051282,4461.025641,4087.179487,4185.641025,4518.461538,4217.435897,4663.589743,3981.025642,4083.589743
120,4357.948717,4493.333333,4484.102564,4214.871794,4440.512820,4153.333333,4448.205128,4082.564102,4175.384615,4485.128205,4217.435897,4660.000000,3976.923077,4081.025641
121,4352.820512,4494.871794,4486.666666,4220.512820,4442.051282,4152.307692,4446.666666,4080.000000,4173.846153,4485.128205,4225.641025,4663.076923,3980.512821,4087.692307
122,4361.025641,4506.666666,4495.384615,4218.974358,4471.794871,4162.051282,4460.000000,4084.615384,4179.487179,4515.897435,4235.897435,4669.230769,3985.641026,4098.461538
123,4370.769230,4515.897435,4493.846153,4224.615384,4488.205128,4169.230769,4464.615384,4092.820512,4182.564102,4524.102564,4232.820512,4672.820512,3976.410257,4097.948717
124,4361.025641,4503.076923,4489.230769,4232.307692,4470.769230,4165.128205,4458.974358,4089.743589,4178.461538,4513.333333,4217.948717,4666.153846,3964.102565,4086.153846
125,4354.358974,4490.256410,4489.230769,4226.666666,4460.000000,4159.487179,4458.461538,4084.102564,4172.820512,4501.538461,4213.333333,4657.948717,3972.307693,4080.512820
126,4362.564102,4507.692307,4490.769230,4215.384615,4465.128205,4160.512820,4461.025641,4089.230769,4176.923076,4491.794871,4227.692307,4662.051282,3991.794872,4090.769230
127,4365.128205,4520.512820,4492.307692,4211.794871,4456.923076,4161.538461,4458.461538,4092.820512,4183.589743,4506.666666,4235.384615,4669.743589,3995.897436,4099.487179
128,4361.025641,4504.102564,4489.230769,4215.897435,4449.230769,4156.923076,4456.923076,4090.256410,4183.589743,4525.128205,4229.743589,4668.205128,3980.512821,4093.846153
129,4362.051282,4495.384615,4487.179487,4221.538461,4458.461538,4154.871794,4462.051282,4095.384615,4187.179487,4508.205128,4230.769230,4669.743589,3978.974359,4091.282051
130,4368.717948,4505.128205,4491.282051,4223.076923,4465.641025,4164.102564,4467.179487,4102.564102,4194.358974,4501.025641,4237.948717,4680.000000,4001.025641,4102.564102
131,4366.666666,4503.589743,4493.846153,4228.205128,4465.128205,4168.205128,4467.692307,4100.000000,4197.948717,4528.717948,4237.948717,4677.948717,4005.128205,4105.128205
132,4356.410256,4493.846153,4487.179487,4230.256410,4467.179487,4162.051282,4463.589743,4091.282051,4191.794871,4528.717948,4235.897435,4666.666666,3980.512821,4095.384615
133,4357.948717,4497.435897,4490.256410,4225.641025,4473.333333,4165.128205,4466.153846,4088.717948,4186.153846,4501.025641,4240.000000,4666.153846,3974.358975,4094.871794
134,4368.717948,4510.769230,4497.435897,4227.179487,4469.230769,4168.205128,4468.205128,4090.769230,4185.128205,4503.589743,4234.871794,4672.307692,3988.717949,4102.564102
135,4371.282051,4518.461538,4498.974358,4228.717948,4456.923076,4158.974358,4461.538461,4089.743589,4188.717948,4528.205128,4219.487179,4671.282051,3991.282052,4105.641025
136,4375.897435,4515.384615,4505.641025,4225.641025,4469.230769,4157.948717,4461.538461,4094.871794,4193.333333,4530.256410,4224.615384,4673.333333,3994.358975,4109.230769
137,4385.128205,4514.358974,4515.384615,4237.435897,4491.282051,4173.333333,4471.794871,4103.076923,4194.871794,4518.974358,4249.230769,4683.589743,4004.615384,4115.384615
138,4380.512820,4521.025641,4518.974358,4258.461538,4475.384615,4180.512820,4479.487179,4103.589743,4200.000000,4517.435897,4254.871794,4688.717948,4004.102564,4117.435897
139,4374.358974,4523.076923,4518.461538,4254.358974,4447.692307,4173.846153,4477.435897,4101.025641,4202.564102,4511.282051,4241.538461,4685.641025,3993.846154,4117.948717
140,4373.333333,4515.897435,4511.282051,4227.692307,4454.358974,4168.205128,4468.717948,4093.333333,4190.256410,4505.128205,4229.230769,4676.410256,3985.641026,4112.820512
141,4368.205128,4510.769230,4502.564102,4219.487179,4469.230769,4166.666666,4462.564102,4084.102564,4179.487179,4516.923076,4226.153846,4669.743589,3987.692308,4104.102564
142,4375.384615,4513.846153,4505.641025,4247.692307,4483.589743,4174.358974,4469.230769,4088.717948,4190.256410,4524.102564,4231.282051,4677.435897,3998.461539,4108.205128
143,4383.076923,4516.410256,4514.358974,4264.615384,4494.871794,4183.076923,4478.974358,4100.000000,4199.487179,4507.692307,4237.948717,4685.641025,4001.538461,4117.435897
144,4365.641025,4504.615384,4505.128205,4242.051282,4471.282051,4171.794871,4473.846153,4093.333333,4188.717948,4493.846153,4240.000000,4678.461538,3987.179488,4110.256410
145,4354.871794,4501.025641,4494.358974,4221.025641,4449.230769,4161.538461,4465.128205,4085.128205,4180.512820,4496.923076,4229.230769,4666.666666,3981.025642,4099.487179
146,4362.564102,4513.846153,4495.384615,4221.025641,4462.051282,4172.307692,4465.641025,4088.717948,4181.025641,4504.102564,4211.794871,4661.025641,3988.205129,4095.384615
147,4362.051282,4512.820512,4494.871794,4228.717948,4477.435897,4180.512820,4469.230769,4087.692307,4182.051282,4508.205128,4211.282051,4661.538461,3987.179488,4092.820512
148,4363.589743,4504.102564,4497.435897,4238.461538,4471.794871,4175.384615,4467.692307,4083.076923,4182.051282,4508.717948,4228.205128,4669.230769,3977.435898,4095.897435
149,4367.179487,4507.692307,4502.051282,4243.076923,4449.230769,4165.128205,4460.000000,4078.461538,4176.410256,4501.538461,4229.743589,4666.666666,3963.076924,4096.923076
150,4358.974358,4512.307692,4497.435897,4238.974358,4441.538461,4156.923076,4453.333333,4072.820512,4171.282051,4495.384615,4216.410256,4657.435897,3952.820513,4094.871794
151,4364.615384,4517.948717,4501.538461,4241.538461,4478.974358,4163.076923,4461.025641,4081.025641,4179.487179,4500.512820,4217.948717,4667.179487,3964.102565,4106.666666
152,4383.589743,4523.589743,4515.384615,4252.820512,4508.205128,4176.923076,4472.307692,4099.487179,4192.820512,4513.333333,4232.307692,4685.641025,3981.025642,4122.051282
153,4387.692307,4524.615384,4515.897435,4252.307692,4484.615384,4176.923076,4472.307692,4102.051282,4195.384615,4526.666666,4245.128205,4688.205128,3976.410257,4122.564102
154,4380.512820,4525.128205,4507.179487,4244.615384,4468.205128,4167.692307,4471.282051,4093.333333,4192.820512,4522.564102,4242.051282,4682.564102,3961.538462,4118.974358
155,4371.282051,4518.461538,4500.000000,4238.461538,4466.153846,4163.076923,4468.205128,4086.153846,4184.102564,4495.897435,4227.179487,4676.923076,3956.923077,4111.794871
156,4364.615384,4509.743589,4497.948717,4241.025641,4453.333333,4163.589743,4462.051282,4081.538461,4175.897435,4482.564102,4222.564102,4669.743589,3961.025642,4102.564102
157,4364.102564,4515.384615,4500.000000,4246.666666,4464.102564,4167.179487,4464.102564,4084.102564,4181.538461,4510.256410,4225.128205,4667.692307,3965.641026,4105.641025
158,4363.589743,4518.461538,4497.948717,4243.076923,4491.794871,4173.333333,4467.179487,4087.692307,4189.743589,4528.717948,4224.102564,4667.692307,3964.102565,4107.692307
159,4363.589743,4510.256410,4493.333333,4239.487179,4487.692307,4175.384615,4465.641025,4085.128205,4188.717948,4507.179487,4224.102564,4666.666666,3957.948718,4100.000000
160,4370.256410,4511.282051,4496.410256,4236.923076,4462.051282,4168.717948,4466.666666,4086.153846,4187.179487,4494.358974,4229.230769,4666.153846,3953.846154,4098.461538
161,4370.769230,4516.923076,4497.948717,4228.717948,4456.923076,4162.051282,4465.128205,4088.205128,4187.692307,4510.256410,4224.102564,4665.128205,3952.307693,4099.487179
162,4366.153846,4514.358974,4501.538461,4237.435897,4474.871794,4169.743589,4463.076923,4089.230769,4191.794871,4516.923076,4216.410256,4671.282051,3962.051283,4101.538461
163,4375.897435,4514.871794,4512.820512,4262.051282,4492.820512,4180.000000,4473.846153,4096.923076,4199.487179,4508.205128,4229.743589,4682.564102,3975.384616,4114.358974
164,4385.128205,4521.025641,4512.820512,4263.076923,4489.230769,4177.948717,4481.538461,4099.487179,4200.512820,4511.794871,4243.076923,4685.128205,3971.282052,4119.487179
165,4373.333333,4520.512820,4506.666666,4242.051282,4462.051282,4166.666666,4470.769230,4090.256410,4193.333333,4517.435897,4230.256410,4675.384615,3953.333334,4102.564102
166,4362.564102,4512.307692,4506.153846,4235.897435,4447.179487,4163.076923,4462.051282,4087.179487,4191.794871,4510.769230,4214.871794,4666.153846,3950.256411,4090.769230
167,4370.256410,4509.743589,4505.641025,4244.102564,4465.128205,4169.743589,4466.153846,4090.256410,4194.358974,4506.666666,4222.051282,4670.256410,3964.615385,4095.897435
168,4375.897435,4514.358974,4505.641025,4248.717948,4482.051282,4174.358974,4473.333333,4089.743589,4195.897435,4502.564102,4233.333333,4681.538461,3972.820513,4103.076923
169,4375.897435,4523.076923,4513.333333,4255.384615,4481.025641,4177.435897,4478.461538,4094.358974,4204.102564,4508.205128,4237.948717,4685.641025,3976.923077,4111.794871
170,4384.102564,4533.846153,4521.025641,4265.641025,4483.589743,4181.025641,4481.025641,4104.615384,4213.333333,4531.794871,4241.538461,4684.102564,3984.102565,4116.410256
171,4387.692307,4532.820512,4518.461538,4262.051282,4486.153846,4178.461538,4480.512820,4102.564102,4211.794871,4538.461538,4232.820512,4683.589743,3978.461539,4108.717948
172,4380.000000,4523.589743,4515.384615,4242.564102,4478.974358,4176.923076,4478.461538,4096.923076,4209.230769,4528.205128,4221.025641,4681.025641,3965.641026,4104.615384
173,4373.333333,4519.487179,4510.769230,4237.435897,4466.666666,4175.897435,4476.923076,4095.384615,4205.128205,4514.871794,4222.564102,4673.846153,3966.153847,4108.205128
174,4369.743589,4515.897435,4503.589743,4248.717948,4452.820512,4167.692307,4472.307692,4087.692307,4190.769230,4493.333333,4221.538461,4670.256410,3969.743590,4103.589743
175,4369.230769,4511.282051,4501.025641,4256.410256,4461.025641,4165.641025,4470.769230,4082.051282,4186.666666,4487.179487,4217.948717,4676.410256,3964.615385,4096.923076
176,4378.974358,4517.435897,4500.000000,4261.538461,4486.666666,4173.333333,4473.333333,4089.230769,4198.461538,4511.794871,4227.692307,4685.128205,3966.666667,4103.076923
177,4390.256410,4535.897435,4493.333333,4261.538461,4489.230769,4174.871794,4473.846153,4095.384615,4200.512820,4519.487179,4237.435897,4689.230769,3980.512821,4118.461538
178,4394.358974,4546.666666,4492.820512,4258.461538,4480.512820,4177.435897,4470.769230,4095.897435,4198.461538,4512.820512,4238.461538,4693.846153,3989.743590,4127.179487
179,4391.794871,4538.461538,4502.564102,4262.051282,4481.025641,4180.000000,4469.230769,4099.487179,4206.666666,4529.230769,4240.512820,4696.923076,3986.153847,4122.564102
180,4387.179487,4528.205128,4502.564102,4259.487179,4473.846153,4170.256410,4467.692307,4098.461538,4206.666666,4531.794871,4235.384615,4689.230769,3980.512821,4110.256410
181,4384.615384,4525.128205,4493.846153,4252.307692,4469.230769,4164.615384,4466.153846,4090.256410,4189.743589,4507.179487,4221.538461,4681.538461,3983.589744,4104.102564
182,4381.025641,4518.974358,4491.282051,4251.794871,4480.512820,4167.692307,4468.205128,4086.666666,4178.974358,4498.974358,4219.487179,4680.512820,3982.564103,4106.666666
183,4375.384615,4513.846153,4489.230769,4247.179487,4480.000000,4166.666666,4468.717948,4086.153846,4180.000000,4502.564102,4224.615384,4675.897435,3968.717949,4104.102564
184,4373.333333,4517.948717,4484.615384,4235.897435,4460.512820,4162.564102,4466.666666,4087.179487,4179.487179,4500.512820,4220.512820,4667.692307,3960.000000,4096.410256
185,4372.820512,4511.282051,4484.102564,4234.358974,4454.871794,4161.538461,4468.717948,4087.179487,4175.897435,4512.307692,4210.769230,4667.179487,3963.589744,4089.743589
186,4365.641025,4501.538461,4488.205128,4233.846153,4467.179487,4162.564102,4474.358974,4088.717948,4176.923076,4528.205128,4210.256410,4667.179487,3969.743590,4086.666666
187,4360.512820,4507.692307,4486.666666,4223.076923,4473.846153,4164.102564,4474.871794,4091.794871,4180.000000,4506.666666,4217.948717,4665.128205,3965.641026,4087.179487
188,4368.717948,4517.435897,4488.717948,4221.025641,4475.897435,4168.205128,4474.871794,4094.358974,4179.487179,4487.692307,4223.076923,4668.205128,3955.384616,4092.820512
189,4376.410256,4516.410256,4492.820512,4231.794871,4475.897435,4171.282051,4476.410256,4093.333333,4177.948717,4505.641025,4220.000000,4672.820512,3957.948718,4095.384615
190,4372.307692,4510.256410,4491.282051,4233.333333,4464.615384,4167.692307,4472.307692,4093.333333,4179.487179,4522.051282,4214.358974,4671.282051,3968.717949,4091.282051
191,4367.692307,4514.358974,4490.769230,4226.666666,4456.410256,4165.128205,4472.820512,4098.461538,4182.564102,4512.820512,4217.948717,4668.717948,3965.641026,4090.769230
192,4369.230769,4514.871794,4491.282051,4228.717948,4461.025641,4162.564102,4474.871794,4095.897435,4177.948717,4501.538461,4218.974358,4669.230769,3958.974359,4090.769230
193,4370.769230,4506.153846,4490.769230,4232.820512,4473.333333,4164.102564,4471.282051,4089.230769,4173.333333,4512.820512,4209.743589,4669.743589,3965.128206,4086.666666
194,4371.282051,4507.179487,4496.410256,4225.641025,4480.512820,4167.692307,4473.846153,4092.307692,4178.461538,4520.000000,4212.820512,4673.333333,3964.102565,4091.282051
195,4373.333333,4517.948717,4501.025641,4224.102564,4468.205128,4165.641025,4477.948717,4094.358974,4179.487179,4504.102564,4221.538461,4676.410256,3952.307693,4098.461538
196,4374.358974,4522.051282,4496.923076,4228.717948,4454.358974,4161.538461,4473.333333,4090.769230,4176.410256,4490.256410,4215.384615,4674.871794,3952.307693,4095.897435
197,4375.897435,4517.948717,4497.948717,4228.205128,4469.230769,4168.205128,4473.333333,4094.358974,4182.564102,4498.974358,4214.358974,4677.435897,3970.769231,4095.384615
198,4375.897435,4506.153846,4505.128205,4232.307692,4485.128205,4175.897435,4481.538461,4102.051282,4187.179487,4514.358974,4224.615384,4682.564102,3983.076924,4102.051282
199,4372.820512,4498.461538,4501.538461,4233.333333,4464.102564,4169.230769,4476.410256,4095.384615,4178.461538,4513.333333,4225.641025,4681.538461,3968.717949,4102.564102
200,4375.384615,4512.307692,4498.974358,4225.128205,4445.128205,4162.051282,4468.205128,4090.256410,4173.333333,4502.564102,4224.615384,4682.564102,3957.435898,4101.025641
201,4378.461538,4523.589743,4507.692307,4225.128205,4457.948717,4163.076923,4469.743589,4092.820512,4175.897435,4496.410256,4229.743589,4685.641025,3969.743590,4103.076923
202,4376.923076,4514.871794,4510.769230,4236.923076,4472.307692,4168.205128,4470.769230,4089.743589,4178.461538,4506.666666,4224.102564,4680.512820,3984.615385,4106.153846
203,4376.923076,4512.820512,4500.000000,4237.948717,4473.846153,4170.769230,4468.205128,4089.743589,4180.000000,4516.923076,4217.435897,4675.384615,3981.025642,4105.128205
204,4383.589743,4527.179487,4498.461538,4230.256410,4485.641025,4170.769230,4469.230769,4100.000000,4185.641025,4516.923076,4230.256410,4682.564102,3974.871795,4104.615384
205,4383.589743,4532.307692,4505.641025,4231.282051,4495.897435,4173.846153,4475.384615,4107.692307,4196.410256,4521.538461,4243.076923,4689.230769,3984.615385,4108.717948
206,4372.820512,4520.512820,4497.435897,4227.179487,4466.153846,4168.205128,4470.256410,4100.512820,4193.846153,4527.179487,4231.282051,4675.897435,3986.666667,4101.025641
207,4364.102564,4508.205128,4486.153846,4222.564102,4442.051282,4157.948717,4461.025641,4090.769230,4178.461538,4522.051282,4215.384615,4661.025641,3970.256411,4086.153846
208,4364.102564,4507.179487,4490.769230,4225.128205,4463.076923,4163.076923,4464.615384,4090.769230,4173.846153,4509.230769,4219.487179,4664.615384,3964.102565,4087.692307
209,4372.307692,4518.974358,4500.512820,4226.666666,4491.282051,4178.461538,4476.410256,4094.871794,4181.538461,4503.589743,4228.717948,4676.923076,3985.641026,4100.512820
210,4378.974358,4530.769230,4500.512820,4226.666666,4496.410256,4182.051282,4481.538461,4100.512820,4186.666666,4514.358974,4231.794871,4682.564102,3992.820513,4103.589743
211,4375.384615,4521.025641,4494.871794,4226.153846,4477.435897,4170.769230,4474.358974,4102.564102,4186.666666,4526.666666,4230.769230,4678.461538,3967.692308,4096.410256
212,4365.128205,4493.333333,4488.717948,4224.615384,4446.666666,4157.948717,4464.102564,4097.435897,4182.564102,4521.538461,4218.461538,4668.717948,3958.974359,4091.282051
213,4359.487179,4488.205128,4487.179487,4226.153846,4448.717948,4156.410256,4463.589743,4095.384615,4178.461538,4501.538461,4212.307692,4664.615384,3975.897436,4090.769230
214,4362.051282,4513.333333,4494.358974,4221.538461,4481.538461,4165.641025,4468.717948,4102.564102,4181.025641,4492.820512,4226.666666,4668.205128,3976.923077,4093.333333
215,4365.641025,4521.025641,4498.461538,4214.871794,4474.358974,4168.205128,4466.666666,4102.564102,4183.076923,4505.641025,4232.820512,4667.692307,3964.102565,4095.384615
216,4367.692307,4505.128205,4496.923076,4224.102564,4442.051282,4163.076923,4464.615384,4097.948717,4180.512820,4518.974358,4216.923076,4664.102564,3968.717949,4094.358974
217,4368.205128,4502.564102,4493.333333,4235.384615,4453.846153,4162.564102,4465.641025,4096.923076,4179.487179,4517.948717,4204.615384,4664.615384,3982.051283,4093.846153
218,4365.128205,4505.641025,4491.794871,4231.282051,4478.461538,4166.153846,4464.102564,4089.743589,4175.384615,4502.051282,4210.256410,4665.641025,3975.384616,4093.333333
219,4366.153846,4502.564102,4492.820512,4227.179487,4474.871794,4165.128205,4464.615384,4091.282051,4175.897435,4491.282051,4218.461538,4665.128205,3964.102565,4093.333333
220,4371.794871,4511.794871,4494.358974,4223.076923,4467.692307,4161.538461,4466.153846,4106.153846,4186.666666,4502.564102,4217.948717,4664.615384,3963.589744,4094.871794
221,4378.461538,4522.564102,4500.512820,4224.102564,4476.410256,4163.589743,4468.205128,4111.794871,4193.333333,4517.948717,4219.487179,4672.820512,3971.794872,4098.461538
222,4378.461538,4516.410256,4508.717948,4240.000000,4472.820512,4165.641025,4470.256410,4107.692307,4191.282051,4519.487179,4225.641025,4682.051282,3979.487180,4104.102564
223,4373.333333,4513.846153,4505.128205,4243.076923,4458.461538,4163.076923,4470.256410,4105.128205,4193.333333,4520.512820,4225.641025,4675.384615,3978.974359,4105.641025
224,4370.769230,4515.384615,4494.871794,4230.769230,4464.102564,4163.589743,4470.769230,4106.666666,4197.435897,4520.000000,4220.000000,4666.666666,3976.923077,4103.076923
225,4370.256410,4509.743589,4490.769230,4225.641025,4478.974358,4169.230769,4474.871794,4109.743589,4192.820512,4509.743589,4220.000000,4668.717948,3980.512821,4098.461538
226,4367.179487,4506.666666,4493.333333,4229.230769,4480.000000,4169.743589,4475.384615,4111.282051,4189.230769,4511.282051,4225.641025,4671.282051,3977.435898,4097.435897
227,4365.128205,4509.230769,4493.333333,4225.128205,4469.230769,4164.102564,4470.256410,4107.692307,4190.256410,4516.410256,4223.076923,4671.282051,3971.794872,4100.000000
228,4364.102564,4506.666666,4489.230769,4210.769230,4454.871794,4154.358974,4462.564102,4102.051282,4184.102564,4507.692307,4212.307692,4669.230769,3973.333334,4093.333333
229,4360.000000,4496.923076,4485.128205,4211.794871,4447.692307,4147.692307,4454.358974,4096.410256,4174.871794,4505.641025,4207.692307,4661.538461,3971.282052,4084.102564
230,4358.461538,4492.820512,4485.641025,4231.794871,4454.871794,4152.307692,4454.871794,4094.871794,4174.358974,4504.615384,4215.897435,4660.000000,3965.128206,4084.615384
231,4362.564102,4505.641025,4488.205128,4232.820512,4472.820512,4160.512820,4463.589743,4100.512820,4182.564102,4489.743589,4226.153846,4665.641025,3971.794872,4092.820512
232,4367.692307,4518.974358,4490.769230,4221.025641,4475.897435,4166.153846,4471.282051,4105.128205,4189.743589,4497.435897,4228.717948,4669.230769,3983.589744,4100.512820
233,4367.179487,4511.794871,4490.256410,4228.717948,4448.205128,4163.076923,4467.692307,4099.487179,4183.589743,4515.384615,4224.102564,4668.717948,3981.025642,4100.512820
234,4359.487179,4496.410256,4487.692307,4232.307692,4428.205128,4151.794871,4455.384615,4091.794871,4171.794871,4510.769230,4212.307692,4661.025641,3970.769231,4091.794871
235,4362.564102,4504.102564,4493.333333,4224.615384,4452.820512,4153.846153,4456.410256,4096.923076,4178.974358,4507.179487,4213.846153,4660.512820,3974.358975,4093.846153
236,4377.435897,4521.025641,4500.512820,4232.307692,4480.512820,4168.205128,4469.230769,4107.692307,4194.358974,4513.333333,4235.897435,4672.820512,3986.153847,4105.128205
237,4379.487179,4522.564102,4496.923076,4240.512820,4488.717948,4171.794871,4473.333333,4106.666666,4196.923076,4515.897435,4245.641025,4678.461538,3997.435898,4106.153846
238,4370.256410,4512.307692,4490.769230,4240.000000,4484.102564,4168.205128,4466.666666,4102.051282,4194.871794,4513.333333,4225.128205,4670.256410,3997.948718,4100.000000
239,4360.000000,4502.564102,4484.102564,4238.461538,4444.615384,4162.051282,4459.487179,4094.871794,4186.666666,4501.538461,4201.538461,4652.820512,3973.333334,4088.205128
240,4349.743589,4500.000000,4476.410256,4226.153846,4412.307692,4153.846153,4454.358974,4086.666666,4172.820512,4486.666666,4197.948717,4637.435897,3951.794872,4072.307692
241,4353.333333,4504.102564,4477.435897,4222.051282,4444.615384,4157.435897,4458.461538,4092.307692,4177.435897,4494.358974,4207.179487,4639.487179,3961.538462,4072.820512
242,4364.102564,4507.179487,4483.589743,4236.923076,4484.615384,4167.692307,4468.205128,4104.615384,4192.820512,4506.666666,4215.897435,4652.307692,3976.923077,4085.128205
243,4361.538461,4503.076923,4483.589743,4233.846153,4467.179487,4164.615384,4468.205128,4100.512820,4191.282051,4503.589743,4214.871794,4653.333333,3979.487180,4081.538461
244,4353.846153,4503.589743,4480.000000,4215.897435,4437.948717,4155.384615,4461.538461,4090.256410,4178.461538,4494.871794,4198.974358,4645.641025,3974.871795,4068.717948
245,4349.743589,4503.589743,4476.923076,4218.461538,4437.435897,4153.333333,4458.974358,4089.743589,4173.333333,4474.871794,4188.717948,4644.102564,3954.871795,4067.692307
246,4350.256410,4501.538461,4481.025641,4230.256410,4449.743589,4155.897435,4462.564102,4094.358974,4172.820512,4467.692307,4205.128205,4651.282051,3949.230770,4074.871794
247,4361.025641,4500.000000,4491.282051,4231.794871,4466.153846,4160.512820,4465.641025,4098.974358,4177.948717,4494.358974,4227.179487,4658.974358,3976.923077,4084.615384
248,4372.307692,4500.000000,4493.846153,4228.717948,4473.846153,4164.615384,4467.179487,4105.641025,4188.717948,4521.025641,4228.717948,4661.025641,3997.948718,4091.282051
249,4367.179487,4503.076923,4485.641025,4229.230769,4451.282051,4156.923076,4464.102564,4104.102564,4190.256410,4523.076923,4222.564102,4657.948717,3990.769231,4088.205128
250,4361.025641,4502.051282,4484.615384,4237.948717,4426.666666,4149.743589,4458.461538,4094.871794,4181.538461,4506.153846,4219.487179,4654.871794,3978.461539,4084.102564
251,4370.256410,4501.538461,4492.307692,4247.692307,4454.871794,4158.974358,4462.564102,4093.333333,4177.435897,4476.923076,4218.974358,4655.897435,3981.025642,4092.307692
252,4376.410256,4508.717948,4498.461538,4243.589743,4487.692307,4168.717948,4470.769230,4102.051282,4182.051282,4476.410256,4222.564102,4661.538461,3993.333334,4100.000000
253,4373.333333,4515.897435,4495.384615,4235.897435,4471.794871,4163.076923,4469.230769,4106.666666,4190.256410,4517.948717,4227.692307,4665.641025,4000.000000,4095.384615
254,4373.846153,4512.820512,4491.794871,4231.794871,4453.846153,4158.974358,4466.153846,4105.128205,4194.358974,4528.205128,4228.205128,4663.589743,3995.384616,4094.358974
255,4371.794871,4504.615384,4492.307692,4226.153846,4447.179487,4154.871794,4466.666666,4098.974358,4184.102564,4490.769230,4221.538461,4658.974358,3985.641026,4094.358974
256,4364.102564,4498.974358,4491.282051,4232.307692,4443.076923,4151.282051,4464.615384,4094.871794,4176.410256,4481.538461,4219.487179,4662.051282,3980.512821,4088.717948
257,4363.589743,4500.000000,4488.717948,4241.025641,4455.384615,4157.948717,4466.666666,4098.461538,4185.128205,4501.025641,4223.589743,4666.666666,3982.564103,4088.717948
258,4364.615384,4502.051282,4486.666666,4227.692307,4458.974358,4161.025641,4470.769230,4098.461538,4186.666666,4502.564102,4224.615384,4657.948717,3983.589744,4089.230769
259,4362.564102,4501.538461,4487.179487,4221.025641,4445.128205,4156.923076,4469.230769,4096.410256,4183.076923,4497.948717,4222.564102,4650.769230,3981.538462,4083.076923
