,AF3,F7,F3,FC5,T7,P7,O1,O2,P8,T8,FC6,F4,F8,AF4
0,4352.820512,4499.487179,4524.102564,4254.871794,4485.128205,4209.743589,4440.000000,4196.923076,4213.333333,4472.307692,4189.743589,4631.282051,3916.410257,4065.641025
1,4360.000000,4507.692307,4531.794871,4255.897435,4484.615384,4210.769230,4446.666666,4205.128205,4218.974358,4488.205128,4201.538461,4641.538461,3920.512821,4070.256410
2,4357.435897,4506.666666,4530.256410,4255.897435,4486.153846,4205.641025,4437.435897,4201.025641,4216.410256,4483.589743,4190.256410,4637.948717,3909.230770,4066.153846
3,4355.897435,4503.076923,4522.051282,4257.435897,4486.153846,4204.615384,4427.179487,4195.384615,4216.923076,4476.410256,4175.897435,4632.307692,3902.564103,4064.102564
4,4354.871794,4500.512820,4520.000000,4260.000000,4479.487179,4203.076923,4426.153846,4187.692307,4218.461538,4475.897435,4178.974358,4630.256410,3901.025642,4068.205128
5,4352.820512,4501.538461,4521.538461,4256.923076,4482.051282,4201.538461,4426.153846,4187.179487,4213.333333,4469.230769,4183.589743,4627.179487,3900.512821,4066.153846
6,4357.435897,4508.205128,4522.564102,4253.333333,4493.333333,4211.794871,4432.307692,4198.461538,4214.358974,4465.641025,4186.666666,4630.256410,3908.205129,4066.666666
7,4363.589743,4511.794871,4524.102564,4254.358974,4492.820512,4217.435897,4441.538461,4203.076923,4218.461538,4472.307692,4190.256410,4633.333333,3912.307693,4072.820512
8,4363.589743,4512.820512,4528.717948,4261.025641,4489.743589,4216.410256,4442.051282,4201.025641,4217.948717,4477.435897,4197.435897,4634.358974,3909.743590,4073.846153
9,4357.948717,4510.256410,4531.794871,4265.641025,4492.307692,4215.897435,4440.000000,4203.076923,4217.435897,4478.974358,4203.589743,4641.025641,3913.333334,4076.923076
10,4355.384615,4505.641025,4528.205128,4262.564102,4490.769230,4214.358974,4441.538461,4202.051282,4219.487179,4482.564102,4197.948717,4645.128205,3917.948718,4082.564102
11,4357.948717,4505.641025,4522.051282,4262.051282,4490.256410,4215.384615,4438.461538,4201.538461,4223.076923,4482.564102,4191.794871,4637.435897,3911.282052,4076.410256
12,4356.410256,4506.666666,4518.461538,4260.512820,4492.820512,4216.923076,4431.282051,4202.564102,4223.589743,4473.846153,4192.820512,4630.256410,3903.076924,4068.717948
13,4350.769230,4504.615384,4519.487179,4256.923076,4490.769230,4214.358974,4433.333333,4202.051282,4220.512820,4475.384615,4191.282051,4633.333333,3909.743590,4067.179487
14,4350.256410,4507.692307,4521.025641,4262.564102,4488.717948,4210.769230,4438.461538,4201.538461,4217.435897,4481.538461,4186.153846,4632.820512,3915.384616,4061.538461
15,4357.435897,4515.384615,4526.153846,4271.282051,4494.358974,4215.897435,4441.025641,4201.025641,4215.384615,4474.871794,4187.179487,4628.717948,3910.256411,4065.641025
16,4365.128205,4521.538461,4532.307692,4271.794871,4497.948717,4222.051282,4443.589743,4199.487179,4213.333333,4469.230769,4192.307692,4631.794871,3907.179488,4077.435897
17,4366.666666,4524.102564,4531.282051,4269.230769,4493.846153,4219.487179,4446.153846,4202.051282,4222.051282,4479.487179,4196.410256,4640.000000,3916.923077,4076.923076
18,4365.128205,4518.461538,4530.769230,4270.256410,4492.307692,4215.897435,4437.435897,4203.076923,4232.820512,4485.641025,4192.307692,4645.128205,3920.512821,4075.384615
19,4366.153846,4510.769230,4533.333333,4268.205128,4493.333333,4215.384615,4427.692307,4199.487179,4224.102564,4476.410256,4191.282051,4642.051282,3917.435898,4078.974358
20,4368.717948,4514.358974,4531.282051,4264.615384,4491.794871,4215.897435,4435.384615,4204.102564,4211.794871,4477.435897,4200.512820,4640.000000,3922.564103,4076.923076
21,4370.769230,4525.128205,4526.153846,4265.641025,4492.307692,4216.410256,4445.128205,4215.897435,4222.051282,4489.230769,4212.820512,4644.102564,3926.153847,4081.025641
22,4373.846153,4523.076923,4525.641025,4271.794871,4494.358974,4215.897435,4442.564102,4217.948717,4235.384615,4496.923076,4214.358974,4647.179487,3921.538462,4092.307692
23,4378.461538,4518.461538,4529.743589,4275.384615,4492.820512,4214.358974,4441.025641,4212.307692,4233.846153,4499.487179,4202.564102,4647.692307,3922.051283,4093.333333
24,4381.025641,4525.641025,4533.846153,4273.333333,4494.871794,4218.461538,4443.589743,4215.897435,4234.871794,4501.538461,4202.051282,4651.794871,3933.333334,4093.333333
25,4372.307692,4521.538461,4528.205128,4269.743589,4493.846153,4218.461538,4435.897435,4216.923076,4234.871794,4496.410256,4214.871794,4648.205128,3930.769231,4088.717948
26,4359.487179,4506.153846,4516.410256,4263.076923,4484.102564,4204.102564,4425.128205,4206.153846,4224.102564,4489.743589,4206.666666,4636.410256,3914.358975,4073.333333
27,4361.538461,4503.076923,4518.974358,4253.333333,4481.538461,4200.000000,4426.153846,4198.974358,4219.487179,4490.769230,4187.692307,4634.871794,3906.666667,4071.282051
28,4367.692307,4507.692307,4524.102564,4252.820512,4488.205128,4207.692307,4429.743589,4200.512820,4218.461538,4484.102564,4189.743589,4637.435897,3910.256411,4080.000000
29,4367.692307,4511.282051,4519.487179,4263.076923,4488.717948,4208.717948,4429.230769,4200.512820,4215.897435,4471.282051,4194.358974,4632.820512,3913.333334,4079.487179
30,4362.564102,4512.307692,4520.000000,4267.692307,4489.743589,4210.769230,4426.666666,4201.538461,4216.923076,4465.641025,4191.794871,4630.769230,3909.743590,4073.333333
31,4358.461538,4508.205128,4523.076923,4267.692307,4489.230769,4210.256410,4426.153846,4201.025641,4217.435897,4470.769230,4200.512820,4633.333333,3906.666667,4067.179487
32,4361.025641,4505.641025,4522.564102,4266.153846,4483.076923,4204.102564,4426.666666,4201.025641,4221.025641,4481.025641,4205.128205,4635.897435,3916.410257,4069.230769
33,4364.615384,4508.717948,4524.615384,4260.000000,4484.102564,4203.589743,4427.692307,4208.205128,4229.230769,4491.794871,4200.000000,4640.512820,3923.076924,4082.051282
34,4363.076923,4509.230769,4524.102564,4261.538461,4490.769230,4205.641025,4428.717948,4210.769230,4231.282051,4494.871794,4198.461538,4643.589743,3914.871795,4088.205128
35,4365.128205,4514.358974,4523.076923,4274.358974,4490.256410,4209.230769,4430.256410,4210.256410,4229.230769,4489.743589,4204.102564,4643.589743,3916.410257,4085.128205
36,4374.871794,4520.512820,4525.641025,4277.948717,4489.743589,4213.846153,4431.794871,4212.307692,4231.794871,4489.230769,4212.820512,4646.153846,3930.769231,4088.205128
37,4376.410256,4519.487179,4527.692307,4272.820512,4493.333333,4214.358974,4430.769230,4209.743589,4233.333333,4495.897435,4217.948717,4646.153846,3933.333334,4088.717948
38,4367.179487,4516.410256,4523.589743,4261.538461,4491.282051,4208.205128,4424.615384,4202.564102,4230.256410,4491.794871,4208.205128,4640.000000,3923.076924,4080.512820
39,4360.000000,4511.282051,4520.512820,4253.333333,4486.153846,4205.641025,4416.923076,4196.923076,4225.128205,4480.512820,4192.820512,4633.333333,3915.384616,4076.923076
40,4356.410256,4505.641025,4518.974358,4258.974358,4486.153846,4203.076923,4414.871794,4195.384615,4216.923076,4483.076923,4192.307692,4632.307692,3912.820513,4076.923076
41,4354.358974,4505.128205,4518.461538,4266.666666,4483.589743,4200.000000,4416.923076,4191.794871,4216.410256,4491.794871,4198.974358,4631.794871,3908.717949,4076.410256
42,4353.333333,4506.153846,4519.487179,4267.692307,4481.538461,4201.025641,4418.461538,4190.256410,4218.974358,4487.179487,4196.410256,4629.743589,3908.205129,4076.923076
43,4358.461538,4512.820512,4523.589743,4269.230769,4484.615384,4204.615384,4421.025641,4192.820512,4214.358974,4481.538461,4194.358974,4633.333333,3916.923077,4078.461538
44,4371.282051,4525.128205,4530.769230,4271.794871,4489.743589,4211.794871,4424.102564,4194.358974,4212.820512,4490.769230,4205.641025,4644.615384,3926.153847,4089.230769
45,4372.820512,4526.153846,4531.794871,4270.256410,4492.820512,4216.923076,4422.564102,4188.717948,4219.487179,4496.923076,4206.666666,4649.230769,3924.102565,4097.435897
46,4362.051282,4516.410256,4525.128205,4268.205128,4490.256410,4211.794871,4415.897435,4184.102564,4216.923076,4482.051282,4197.435897,4641.538461,3915.897436,4086.666666
47,4356.923076,4512.820512,4520.000000,4268.717948,4484.615384,4205.128205,4410.769230,4184.102564,4208.717948,4474.358974,4199.487179,4630.769230,3911.282052,4077.435897
48,4356.923076,4511.794871,4518.461538,4260.000000,4484.102564,4204.102564,4415.384615,4186.153846,4211.794871,4481.538461,4200.512820,4631.794871,3906.666667,4079.487179
49,4356.923076,4509.230769,4524.615384,4254.871794,4490.256410,4206.153846,4426.153846,4196.410256,4217.948717,4481.025641,4195.897435,4642.564102,3909.230770,4078.974358
50,4363.589743,4515.384615,4532.307692,4270.769230,4493.846153,4211.282051,4429.230769,4205.128205,4222.051282,4482.564102,4204.615384,4648.717948,3925.641026,4088.205128
51,4373.846153,4527.179487,4531.282051,4280.512820,4492.820512,4215.384615,4427.692307,4201.025641,4229.743589,4500.000000,4220.512820,4647.692307,3938.974359,4103.076923
52,4374.871794,4531.282051,4530.769230,4272.307692,4493.333333,4213.333333,4424.615384,4200.512820,4229.230769,4511.794871,4217.435897,4648.717948,3936.410257,4098.974358
53,4371.794871,4527.179487,4534.871794,4271.282051,4493.333333,4209.230769,4415.384615,4200.000000,4217.948717,4503.589743,4206.153846,4649.230769,3929.230770,4089.230769
54,4368.717948,4526.153846,4534.358974,4275.384615,4489.230769,4206.666666,4412.307692,4191.282051,4217.948717,4495.384615,4209.230769,4643.589743,3930.256411,4090.256410
55,4363.589743,4526.153846,4525.641025,4270.769230,4482.051282,4201.025641,4414.871794,4186.153846,4224.615384,4501.025641,4206.153846,4639.487179,3928.205129,4087.179487
56,4358.461538,4521.538461,4524.102564,4267.179487,4482.051282,4198.461538,4411.794871,4186.153846,4215.384615,4501.025641,4198.974358,4644.102564,3924.615385,4085.641025
57,4358.461538,4523.589743,4534.871794,4267.692307,4489.743589,4204.102564,4414.871794,4190.769230,4212.820512,4493.846153,4210.769230,4649.230769,3927.692308,4094.871794
58,4357.948717,4530.769230,4536.410256,4270.256410,4492.820512,4204.615384,4425.128205,4197.948717,4228.205128,4497.435897,4225.128205,4649.230769,3928.717949,4096.410256
59,4350.769230,4526.666666,4529.230769,4274.358974,4483.589743,4200.512820,4428.717948,4193.846153,4228.717948,4503.076923,4216.410256,4644.615384,3925.641026,4081.025641
60,4341.538461,4514.358974,4525.641025,4267.179487,4480.512820,4200.000000,4426.666666,4185.128205,4217.435897,4497.435897,4203.589743,4638.974358,3923.076924,4061.025641
61,4340.000000,4514.358974,4528.717948,4257.948717,4483.589743,4198.461538,4426.666666,4189.230769,4216.923076,4495.897435,4206.666666,4637.435897,3923.076924,4057.435897
62,4345.641025,4524.102564,4532.307692,4266.153846,4481.025641,4198.461538,4432.307692,4196.923076,4220.000000,4499.487179,4215.897435,4644.102564,3926.153847,4069.743589
63,4344.102564,4522.051282,4534.358974,4269.230769,4483.076923,4204.102564,4442.564102,4204.615384,4221.025641,4493.333333,4220.000000,4647.692307,3930.256411,4072.307692
64,4336.923076,4513.846153,4532.820512,4262.051282,4488.205128,4208.205128,4446.153846,4212.820512,4229.743589,4490.256410,4212.307692,4643.589743,3925.641026,4064.102564
65,4337.435897,4521.025641,4531.794871,4261.538461,4484.615384,4203.076923,4441.538461,4208.717948,4234.871794,4497.435897,4204.102564,4642.051282,3919.487180,4059.487179
66,4342.051282,4532.820512,4533.333333,4267.179487,4483.589743,4199.487179,4441.538461,4200.000000,4229.743589,4500.512820,4203.076923,4645.128205,3923.076924,4060.000000
67,4338.974358,4529.743589,4529.743589,4272.820512,4487.179487,4203.589743,4441.538461,4201.538461,4226.153846,4495.897435,4200.000000,4646.666666,3925.641026,4062.051282
68,4327.179487,4512.307692,4520.000000,4265.128205,4478.461538,4200.512820,4431.794871,4194.358974,4215.897435,4478.461538,4193.846153,4635.897435,3915.384616,4056.410256
69,4322.051282,4502.051282,4512.820512,4252.820512,4468.205128,4194.871794,4425.128205,4185.641025,4205.128205,4468.205128,4189.230769,4620.512820,3904.102565,4048.717948
70,4324.615384,4512.307692,4514.358974,4252.820512,4475.384615,4198.461538,4429.230769,4194.358974,4209.230769,4482.051282,4196.410256,4620.512820,3914.871795,4058.461538
71,4324.615384,4520.512820,4522.051282,4249.743589,4484.102564,4201.025641,4432.820512,4200.512820,4214.358974,4491.794871,4202.564102,4629.230769,3935.897436,4067.179487
72,4323.076923,4512.307692,4522.564102,4243.589743,4483.076923,4198.974358,4429.743589,4196.410256,4212.820512,4488.717948,4189.743589,4631.282051,3946.153847,4061.538461
73,4331.282051,4513.333333,4520.512820,4257.948717,4483.589743,4201.538461,4426.153846,4198.974358,4222.564102,4494.358974,4186.153846,4631.794871,3954.358975,4064.102564
74,4337.948717,4519.487179,4526.666666,4271.282051,4490.256410,4204.102564,4427.692307,4203.076923,4232.820512,4505.641025,4206.666666,4634.871794,3961.025642,4074.871794
75,4333.846153,4512.307692,4529.743589,4265.128205,4492.307692,4203.076923,4431.282051,4202.564102,4227.179487,4509.743589,4215.384615,4635.897435,3961.538462,4077.948717
76,4333.846153,4513.846153,4527.179487,4264.102564,4488.717948,4207.179487,4434.358974,4207.179487,4221.538461,4501.538461,4197.948717,4638.974358,3968.717949,4076.923076
77,4341.025641,4522.051282,4532.307692,4265.641025,4489.230769,4211.794871,4438.974358,4214.871794,4228.717948,4494.358974,4194.358974,4645.641025,3975.384616,4073.333333
78,4341.025641,4517.435897,4537.435897,4258.461538,4494.358974,4211.794871,4442.564102,4216.923076,4233.846153,4498.461538,4205.128205,4647.179487,3963.076924,4070.769230
79,4337.435897,4509.230769,4534.358974,4261.538461,4498.461538,4213.333333,4441.025641,4215.384615,4230.769230,4505.641025,4202.564102,4642.564102,3952.820513,4073.846153
80,4341.538461,4515.384615,4534.871794,4270.769230,4498.974358,4218.461538,4442.051282,4217.435897,4232.820512,4507.179487,4199.487179,4641.025641,3968.205129,4080.512820
81,4344.615384,4519.487179,4542.051282,4269.230769,4494.358974,4220.000000,4446.153846,4220.512820,4235.384615,4506.153846,4203.589743,4645.128205,3978.461539,4083.589743
82,4337.435897,4509.743589,4539.487179,4258.974358,4489.743589,4209.230769,4441.538461,4210.256410,4222.564102,4497.435897,4197.948717,4641.025641,3961.025642,4075.384615
83,4334.871794,4503.076923,4532.307692,4251.282051,4489.743589,4204.615384,4436.410256,4197.435897,4209.230769,4482.051282,4188.717948,4631.282051,3946.666667,4062.564102
84,4338.974358,4507.179487,4534.871794,4254.871794,4493.846153,4212.820512,4441.025641,4198.974358,4213.333333,4483.589743,4191.282051,4630.256410,3952.820513,4065.128205
85,4343.589743,4508.717948,4536.923076,4263.076923,4494.871794,4214.358974,4442.564102,4203.589743,4220.000000,4494.871794,4200.000000,4638.461538,3960.000000,4078.461538
86,4352.307692,4509.230769,4540.000000,4267.179487,4491.794871,4210.769230,4439.487179,4204.615384,4222.564102,4493.333333,4210.256410,4649.743589,3965.641026,4087.692307
87,4356.410256,4514.358974,4543.589743,4269.230769,4492.307692,4210.769230,4441.538461,4208.205128,4226.666666,4491.282051,4205.641025,4655.897435,3972.307693,4092.307692
88,4351.794871,4513.333333,4541.538461,4265.128205,4493.333333,4210.769230,4443.076923,4208.205128,4229.230769,4493.846153,4191.282051,4649.230769,3967.179488,4087.692307
89,4348.205128,4508.717948,4538.461538,4257.948717,4489.230769,4206.153846,4440.512820,4200.512820,4226.666666,4490.256410,4198.974358,4645.128205,3955.384616,4075.897435
90,4346.153846,4511.282051,4537.435897,4261.538461,4490.256410,4206.153846,4441.025641,4197.948717,4222.051282,4484.615384,4212.307692,4648.717948,3956.923077,4076.923076
91,4345.641025,4509.743589,4539.487179,4265.641025,4494.871794,4211.282051,4447.179487,4206.666666,4223.076923,4492.820512,4205.641025,4649.230769,3964.615385,4089.230769
92,4348.205128,4505.128205,4540.512820,4262.564102,4491.794871,4210.769230,4447.692307,4210.256410,4225.641025,4498.974358,4205.128205,4648.717948,3961.538462,4088.205128
93,4348.717948,4506.153846,4537.435897,4261.538461,4489.743589,4209.230769,4444.102564,4203.076923,4223.076923,4490.769230,4207.179487,4647.692307,3958.974359,4081.538461
94,4352.307692,4514.358974,4537.948717,4267.179487,4497.435897,4213.846153,4450.256410,4205.128205,4225.128205,4492.307692,4194.871794,4647.692307,3967.179488,4087.692307
95,4357.948717,4523.076923,4542.051282,4270.256410,4498.974358,4212.820512,4453.333333,4213.333333,4232.307692,4493.846153,4196.410256,4651.794871,3967.692308,4091.794871
96,4352.307692,4522.051282,4536.410256,4263.589743,4490.769230,4207.692307,4445.128205,4206.153846,4225.128205,4482.564102,4205.128205,4648.205128,3955.384616,4086.666666
97,4348.717948,4517.435897,4533.333333,4259.487179,4489.743589,4208.205128,4439.487179,4195.897435,4211.282051,4479.487179,4197.948717,4642.564102,3956.410257,4086.153846
98,4361.025641,4521.538461,4545.641025,4275.384615,4494.358974,4210.256410,4443.589743,4201.538461,4221.538461,4497.435897,4197.948717,4650.256410,3968.717949,4098.461538
99,4365.128205,4528.205128,4550.256410,4281.538461,4495.384615,4205.128205,4446.153846,4209.230769,4237.435897,4507.179487,4207.692307,4657.435897,3965.641026,4103.589743
100,4351.794871,4518.974358,4541.025641,4257.435897,4487.692307,4203.589743,4435.897435,4200.000000,4231.282051,4492.307692,4200.000000,4649.743589,3949.743590,4089.230769
101,4343.076923,4509.230769,4532.820512,4250.256410,4478.461538,4199.487179,4426.153846,4187.692307,4213.846153,4479.487179,4188.717948,4640.512820,3942.564103,4080.512820
102,4347.692307,4513.846153,4533.333333,4268.717948,4477.948717,4194.871794,4432.820512,4188.717948,4215.384615,4488.717948,4201.538461,4638.974358,3946.666667,4091.794871
103,4354.358974,4517.435897,4537.435897,4270.769230,4486.666666,4201.025641,4447.179487,4196.923076,4226.666666,4494.358974,4206.666666,4643.589743,3948.717949,4096.410256
104,4351.794871,4515.384615,4533.846153,4264.615384,4489.743589,4203.589743,4443.589743,4192.820512,4220.000000,4475.897435,4191.794871,4642.564102,3943.589744,4088.717948
105,4348.205128,4515.897435,4530.256410,4264.615384,4481.538461,4195.897435,4433.846153,4181.025641,4209.230769,4473.846153,4189.230769,4635.384615,3936.410257,4084.615384
106,4351.794871,4516.410256,4530.256410,4253.846153,4479.487179,4194.871794,4436.923076,4186.666666,4212.820512,4494.358974,4203.076923,4634.871794,3933.846154,4076.410256
107,4357.435897,4516.410256,4529.230769,4250.769230,4480.512820,4197.948717,4437.948717,4195.897435,4215.897435,4494.358974,4203.076923,4640.512820,3932.820513,4074.358974
108,4359.487179,4521.538461,4528.205128,4265.641025,4478.461538,4198.461538,4435.897435,4190.256410,4213.846153,4475.384615,4177.435897,4635.897435,3930.256411,4087.692307
109,4355.384615,4522.564102,4528.717948,4269.743589,4483.589743,4199.487179,4437.948717,4189.743589,4216.923076,4475.384615,4163.589743,4628.717948,3933.333334,4091.282051
110,4354.358974,4513.846153,4531.282051,4257.435897,4486.153846,4199.487179,4442.051282,4197.435897,4218.461538,4486.666666,4184.615384,4633.333333,3937.948718,4088.205128
111,4361.538461,4513.846153,4530.256410,4253.333333,4479.487179,4195.897435,4442.051282,4199.487179,4217.948717,4481.025641,4208.717948,4642.051282,3934.871795,4090.256410
112,4362.564102,4515.897435,4526.153846,4260.512820,4479.487179,4197.435897,4439.487179,4195.384615,4222.051282,4476.923076,4205.128205,4643.076923,3927.692308,4090.769230
113,4354.871794,4511.794871,4526.153846,4267.179487,4484.102564,4200.000000,4440.000000,4191.282051,4221.025641,4484.615384,4191.794871,4636.410256,3926.153847,4088.205128
114,4354.358974,4510.769230,4531.282051,4265.128205,4480.512820,4196.410256,4441.025641,4190.256410,4223.076923,4493.846153,4192.820512,4636.410256,3934.871795,4093.846153
115,4366.153846,4520.512820,4534.358974,4263.589743,4484.102564,4200.000000,4445.641025,4199.487179,4231.282051,4497.948717,4204.615384,4647.179487,3945.641026,4107.692307
116,4370.769230,4527.692307,4535.897435,4268.717948,4493.333333,4204.615384,4445.641025,4204.615384,4231.282051,4496.923076,4212.307692,4651.282051,3941.538462,4110.256410
117,4362.564102,4523.589743,4540.000000,4265.641025,4486.666666,4198.461538,4435.897435,4195.384615,4224.102564,4489.743589,4205.641025,4645.128205,3927.692308,4097.948717
118,4360.000000,4517.948717,4538.461538,4257.948717,4481.025641,4196.410256,4432.307692,4194.871794,4222.564102,4486.153846,4195.384615,4645.641025,3931.282052,4095.897435
119,4367.179487,4516.410256,4536.410256,4265.641025,4485.641025,4200.000000,4440.512820,4202.564102,4223.076923,4493.333333,4198.461538,4650.769230,3944.102565,4107.179487
120,4368.717948,4517.948717,4542.564102,4275.384615,4488.205128,4201.025641,4445.128205,4202.564102,4226.153846,4496.923076,4207.692307,4648.717948,3941.025642,4108.717948
121,4365.641025,4524.102564,4547.179487,4269.230769,4489.230769,4201.025641,4444.102564,4201.025641,4232.820512,4493.846153,4215.897435,4647.692307,3929.230770,4105.128205
122,4369.230769,4529.230769,4546.153846,4264.615384,4489.743589,4203.589743,4443.589743,4203.076923,4233.846153,4495.897435,4215.384615,4653.846153,3928.205129,4104.102564
123,4374.871794,4529.230769,4548.717948,4276.410256,4489.230769,4208.717948,4443.589743,4209.230769,4231.282051,4499.487179,4202.051282,4657.435897,3936.410257,4104.102564
124,4374.358974,4530.256410,4552.820512,4286.666666,4496.923076,4213.846153,4450.256410,4216.923076,4238.461538,4499.487179,4198.974358,4655.897435,3946.666667,4112.307692
125,4372.820512,4536.923076,4549.743589,4284.102564,4504.615384,4217.435897,4458.974358,4217.948717,4243.076923,4501.538461,4212.820512,4655.384615,3952.820513,4122.051282
126,4374.358974,4541.538461,4549.743589,4282.564102,4499.487179,4217.435897,4460.000000,4211.282051,4236.923076,4502.051282,4224.615384,4657.948717,3951.794872,4120.512820
127,4372.820512,4539.487179,4551.794871,4284.102564,4496.410256,4215.384615,4457.948717,4207.179487,4230.769230,4494.871794,4217.435897,4657.948717,3942.564103,4111.282051
128,4369.743589,4534.871794,4546.666666,4277.435897,4503.076923,4214.871794,4454.871794,4204.102564,4232.820512,4487.692307,4203.076923,4652.820512,3931.794872,4104.615384
129,4373.333333,4536.410256,4543.076923,4276.923076,4507.179487,4216.923076,4452.820512,4204.615384,4235.897435,4489.230769,4198.461538,4650.769230,3934.871795,4111.282051
130,4382.051282,4544.102564,4552.307692,4286.153846,4508.205128,4220.512820,4456.923076,4213.846153,4241.538461,4501.025641,4206.153846,4659.487179,3948.717949,4125.641025
131,4384.102564,4546.153846,4556.410256,4291.794871,4504.102564,4220.000000,4457.435897,4221.538461,4243.589743,4509.743589,4220.512820,4666.153846,3954.871795,4125.641025
132,4374.871794,4536.923076,4546.153846,4282.564102,4498.461538,4216.410256,4450.256410,4219.487179,4235.897435,4497.948717,4220.512820,4659.487179,3943.589744,4112.307692
133,4365.641025,4531.794871,4539.487179,4264.615384,4496.923076,4212.307692,4445.128205,4210.256410,4228.717948,4481.025641,4207.692307,4648.717948,3928.717949,4102.564102
134,4371.794871,4537.435897,4546.153846,4271.794871,4497.948717,4212.307692,4450.769230,4209.743589,4233.846153,4492.307692,4206.666666,4651.794871,3935.384616,4110.256410
135,4380.512820,4540.000000,4546.153846,4295.897435,4501.025641,4213.846153,4457.435897,4217.435897,4244.615384,4504.615384,4217.435897,4659.487179,3944.102565,4120.512820
136,4375.897435,4537.948717,4541.538461,4293.846153,4504.102564,4215.384615,4455.384615,4216.923076,4244.102564,4494.871794,4214.871794,4658.974358,3938.974359,4119.487179
137,4374.358974,4537.435897,4545.641025,4279.487179,4502.564102,4215.384615,4455.384615,4210.256410,4236.923076,4493.846153,4200.512820,4657.948717,3935.897436,4116.923076
138,4381.538461,4535.897435,4548.717948,4277.948717,4502.564102,4215.384615,4458.461538,4210.769230,4236.410256,4500.512820,4199.487179,4659.487179,3934.871795,4115.384615
139,4382.564102,4537.435897,4548.717948,4275.384615,4506.666666,4217.948717,4452.307692,4213.333333,4245.641025,4496.923076,4212.307692,4662.051282,3935.897436,4118.974358
140,4382.564102,4544.102564,4554.871794,4280.512820,4507.179487,4218.974358,4446.666666,4212.820512,4247.692307,4497.435897,4224.102564,4665.128205,3945.128206,4132.307692
141,4389.743589,4545.128205,4558.461538,4295.384615,4501.538461,4217.435897,4451.282051,4215.384615,4239.487179,4506.153846,4229.230769,4668.717948,3952.307693,4138.974358
142,4391.794871,4541.025641,4554.871794,4288.205128,4500.000000,4215.897435,4450.769230,4216.923076,4237.948717,4504.615384,4229.743589,4666.153846,3944.615385,4131.282051
143,4383.076923,4535.897435,4547.692307,4274.871794,4498.461538,4214.871794,4443.076923,4213.846153,4245.128205,4498.974358,4225.128205,4655.897435,3933.333334,4120.000000
144,4375.897435,4529.230769,4537.948717,4278.461538,4496.410256,4214.871794,4442.564102,4213.846153,4249.230769,4501.025641,4215.384615,4647.179487,3927.179488,4110.769230
145,4378.461538,4530.769230,4537.435897,4282.564102,4501.025641,4215.897435,4448.205128,4217.435897,4246.153846,4505.641025,4207.692307,4647.179487,3924.615385,4111.282051
146,4382.564102,4534.871794,4540.512820,4278.461538,4505.128205,4216.923076,4450.256410,4218.461538,4246.666666,4507.692307,4211.282051,4650.256410,3926.153847,4122.051282
147,4379.487179,4530.256410,4537.435897,4276.410256,4498.974358,4215.384615,4449.230769,4217.435897,4249.743589,4500.512820,4222.564102,4649.743589,3929.230770,4123.589743
148,4382.564102,4530.256410,4542.564102,4282.564102,4498.974358,4215.384615,4454.358974,4222.564102,4252.820512,4495.897435,4233.846153,4655.897435,3929.230770,4122.564102
149,4395.897435,4542.564102,4554.871794,4287.179487,4509.230769,4219.487179,4460.000000,4230.769230,4262.051282,4512.820512,4233.846153,4665.128205,3932.307693,4127.692307
150,4398.974358,4547.692307,4554.871794,4285.641025,4508.205128,4218.974358,4457.435897,4231.794871,4266.153846,4528.205128,4224.615384,4665.641025,3937.948718,4126.666666
151,4391.282051,4543.076923,4551.794871,4288.205128,4504.102564,4215.384615,4456.923076,4226.666666,4257.948717,4521.025641,4224.615384,4663.076923,3938.461539,4125.128205
152,4386.666666,4546.153846,4552.820512,4297.435897,4510.256410,4224.615384,4462.051282,4226.666666,4248.717948,4509.743589,4227.179487,4662.564102,3930.769231,4127.692307
153,4384.102564,4548.717948,4545.128205,4296.923076,4510.769230,4232.820512,4463.076923,4228.205128,4249.230769,4509.743589,4217.435897,4658.974358,3918.974359,4121.025641
154,4380.000000,4540.512820,4540.000000,4286.153846,4505.641025,4222.051282,4457.948717,4221.025641,4247.179487,4501.025641,4214.871794,4655.897435,3908.205129,4109.743589
155,4384.615384,4540.512820,4548.717948,4279.487179,4504.102564,4218.974358,4458.974358,4218.461538,4247.179487,4494.358974,4225.641025,4662.564102,3910.769231,4111.794871
156,4394.871794,4550.769230,4554.358974,4283.589743,4507.692307,4226.666666,4464.102564,4228.205128,4256.923076,4512.820512,4229.230769,4669.230769,3922.051283,4124.615384
157,4397.948717,4550.769230,4550.769230,4293.333333,4510.769230,4225.641025,4465.128205,4235.897435,4259.487179,4529.230769,4230.769230,4667.692307,3921.538462,4128.717948
158,4393.333333,4538.974358,4552.307692,4294.358974,4508.205128,4221.025641,4461.025641,4229.230769,4248.717948,4518.974358,4236.923076,4664.102564,3910.769231,4123.076923
159,4388.205128,4539.487179,4553.333333,4289.743589,4504.615384,4221.025641,4460.000000,4216.923076,4243.589743,4501.538461,4224.615384,4661.025641,3908.717949,4120.512820
160,4389.743589,4552.820512,4552.307692,4297.435897,4505.641025,4218.461538,4460.512820,4218.974358,4247.692307,4498.461538,4212.820512,4665.641025,3914.871795,4125.128205
161,4395.897435,4555.384615,4555.384615,4300.000000,4508.205128,4217.435897,4459.487179,4227.692307,4252.307692,4505.128205,4220.000000,4674.358974,3921.025642,4134.358974
162,4391.794871,4545.128205,4553.846153,4285.128205,4506.666666,4218.974358,4457.948717,4223.589743,4251.794871,4509.230769,4229.743589,4669.743589,3915.384616,4138.974358
163,4383.589743,4544.615384,4550.769230,4280.000000,4503.589743,4215.384615,4458.461538,4217.948717,4244.615384,4505.641025,4227.692307,4658.461538,3902.564103,4136.410256
164,4387.692307,4552.307692,4552.820512,4291.282051,4504.102564,4216.410256,4462.051282,4223.589743,4242.051282,4501.538461,4222.564102,4660.000000,3905.128206,4132.820512
165,4392.820512,4545.641025,4552.820512,4288.205128,4507.179487,4221.538461,4462.564102,4227.179487,4252.820512,4500.000000,4227.179487,4664.102564,3914.358975,4130.256410
166,4385.641025,4533.333333,4548.205128,4273.333333,4506.666666,4219.487179,4462.051282,4228.205128,4260.512820,4500.000000,4230.256410,4661.538461,3911.794872,4130.769230
167,4384.102564,4541.538461,4549.743589,4277.948717,4505.641025,4217.948717,4468.717948,4233.333333,4262.564102,4507.179487,4221.538461,4665.128205,3909.230770,4136.923076
168,4395.897435,4557.948717,4555.384615,4291.282051,4506.666666,4226.153846,4472.307692,4235.897435,4261.538461,4516.923076,4221.538461,4671.282051,3920.000000,4139.487179
169,4394.871794,4557.435897,4555.384615,4294.871794,4508.717948,4230.769230,4463.589743,4230.769230,4255.384615,4517.435897,4232.307692,4667.692307,3925.128206,4141.025641
170,4385.128205,4547.179487,4551.282051,4294.871794,4507.692307,4221.538461,4457.435897,4222.564102,4248.717948,4508.205128,4231.282051,4661.538461,3917.948718,4137.435897
171,4389.230769,4548.717948,4549.743589,4293.333333,4506.153846,4214.871794,4458.974358,4217.948717,4244.615384,4502.051282,4222.051282,4664.615384,3915.897436,4121.538461
172,4401.538461,4558.461538,4552.820512,4296.410256,4507.692307,4218.461538,4458.974358,4224.102564,4248.205128,4507.692307,4224.102564,4669.230769,3922.051283,4123.589743
173,4397.435897,4555.897435,4551.282051,4296.923076,4508.205128,4223.076923,4463.076923,4229.743589,4257.435897,4510.256410,4222.564102,4666.153846,3927.179488,4136.923076
174,4386.666666,4548.717948,4548.717948,4284.102564,4504.615384,4223.076923,4471.794871,4227.692307,4256.923076,4504.102564,4218.974358,4662.051282,3936.923077,4128.205128
175,4388.717948,4549.230769,4552.307692,4282.051282,4510.769230,4226.153846,4473.846153,4227.692307,4249.743589,4506.153846,4220.000000,4664.615384,3950.769231,4125.128205
176,4395.897435,4552.307692,4557.435897,4300.512820,4519.487179,4231.794871,4471.794871,4231.794871,4251.282051,4515.384615,4223.589743,4670.256410,3958.461539,4134.871794
177,4398.461538,4554.871794,4561.538461,4306.666666,4516.410256,4234.871794,4472.820512,4229.743589,4253.846153,4515.384615,4233.846153,4672.820512,3966.666667,4133.846153
178,4400.512820,4554.358974,4559.487179,4294.358974,4513.846153,4231.794871,4472.307692,4224.615384,4253.333333,4508.717948,4236.923076,4671.282051,3975.897436,4131.282051
179,4400.000000,4552.307692,4556.923076,4292.820512,4518.974358,4230.769230,4471.282051,4228.205128,4257.435897,4506.666666,4229.743589,4669.743589,3981.025642,4137.435897
180,4402.564102,4553.846153,4561.025641,4298.974358,4520.000000,4233.333333,4473.846153,4235.897435,4262.564102,4509.230769,4232.307692,4672.820512,3986.153847,4138.974358
181,4409.230769,4556.923076,4563.076923,4294.358974,4520.000000,4233.846153,4476.410256,4234.871794,4263.589743,4515.384615,4234.871794,4676.923076,3985.641026,4139.487179
182,4410.256410,4554.871794,4563.076923,4291.282051,4522.051282,4232.820512,4470.256410,4230.256410,4258.974358,4517.435897,4235.897435,4675.384615,3976.410257,4134.871794
183,4403.589743,4551.794871,4563.076923,4298.974358,4521.025641,4232.307692,4460.000000,4231.282051,4251.282051,4514.871794,4235.384615,4671.282051,3971.282052,4123.589743
184,4402.564102,4549.230769,4564.615384,4303.589743,4517.948717,4232.307692,4459.487179,4231.794871,4250.769230,4507.179487,4222.564102,4669.743589,3976.410257,4126.153846
185,4398.461538,4541.538461,4564.102564,4290.256410,4512.307692,4227.179487,4461.025641,4227.692307,4252.820512,4496.410256,4213.333333,4669.743589,3971.794872,4126.153846
186,4388.205128,4532.820512,4559.487179,4275.897435,4504.102564,4220.512820,4458.461538,4220.000000,4247.692307,4495.384615,4224.615384,4666.666666,3957.948718,4113.333333
187,4390.769230,4534.358974,4553.333333,4284.102564,4505.641025,4223.589743,4465.641025,4216.923076,4245.128205,4504.615384,4233.846153,4667.179487,3959.487180,4115.897435
188,4400.512820,4540.512820,4553.846153,4296.923076,4510.769230,4232.820512,4478.461538,4224.615384,4251.282051,4507.692307,4231.794871,4673.333333,3972.820513,4126.153846
189,4398.461538,4536.923076,4556.923076,4290.256410,4509.230769,4230.769230,4478.974358,4228.205128,4246.666666,4502.051282,4227.179487,4671.794871,3971.794872,4118.974358
190,4389.230769,4524.615384,4550.769230,4277.435897,4506.153846,4220.000000,4472.307692,4218.461538,4233.846153,4495.384615,4211.282051,4658.974358,3961.538462,4107.692307
191,4385.128205,4524.102564,4547.179487,4276.923076,4505.128205,4219.487179,4470.256410,4210.256410,4236.410256,4489.230769,4196.410256,4652.307692,3956.410257,4105.128205
192,4391.282051,4535.897435,4553.333333,4278.974358,4505.641025,4223.076923,4472.820512,4214.358974,4245.128205,4488.205128,4209.743589,4657.435897,3954.358975,4107.179487
193,4399.487179,4540.512820,4554.871794,4277.948717,4507.692307,4223.076923,4472.307692,4218.461538,4243.076923,4489.230769,4229.230769,4657.435897,3957.948718,4111.282051
194,4397.948717,4537.948717,4546.153846,4284.102564,4505.641025,4220.000000,4463.589743,4212.307692,4240.512820,4491.282051,4222.051282,4653.333333,3961.025642,4111.794871
195,4389.743589,4537.948717,4543.589743,4292.307692,4506.153846,4224.102564,4462.051282,4206.153846,4240.512820,4496.410256,4209.743589,4653.846153,3957.948718,4110.256410
196,4392.307692,4537.948717,4552.820512,4295.897435,4513.846153,4231.282051,4471.794871,4207.179487,4235.384615,4494.871794,4216.923076,4656.923076,3963.076924,4116.923076
197,4398.461538,4537.948717,4555.897435,4293.846153,4514.871794,4229.743589,4472.307692,4213.333333,4236.923076,4493.333333,4221.538461,4658.461538,3969.230770,4122.564102
198,4397.948717,4538.974358,4552.307692,4287.179487,4508.717948,4225.128205,4469.743589,4215.897435,4248.717948,4504.102564,4216.923076,4663.076923,3964.102565,4115.384615
199,4400.000000,4539.487179,4554.358974,4284.615384,4506.153846,4227.692307,4475.384615,4219.487179,4256.923076,4521.025641,4226.666666,4670.769230,3967.179488,4113.333333
200,4402.051282,4538.974358,4555.897435,4291.282051,4509.230769,4232.820512,4476.923076,4221.538461,4256.923076,4517.435897,4233.846153,4669.743589,3975.384616,4120.512820
201,4397.948717,4539.487179,4549.230769,4294.871794,4513.846153,4233.333333,4473.333333,4216.410256,4248.717948,4505.128205,4222.051282,4662.564102,3970.769231,4122.564102
202,4396.410256,4542.051282,4547.179487,4283.076923,4512.307692,4228.717948,4476.923076,4213.846153,4246.153846,4509.743589,4222.051282,4663.076923,3969.743590,4119.487179
203,4393.333333,4541.538461,4547.179487,4276.923076,4507.179487,4223.076923,4476.410256,4215.897435,4251.282051,4515.384615,4233.846153,4664.615384,3973.846154,4110.769230
204,4387.692307,4538.974358,4545.128205,4287.692307,4513.333333,4225.128205,4472.820512,4215.384615,4248.205128,4507.692307,4234.871794,4662.051282,3972.307693,4106.153846
205,4386.666666,4537.435897,4546.666666,4294.871794,4519.487179,4233.846153,4480.512820,4217.948717,4243.589743,4503.076923,4232.307692,4663.076923,3969.230770,4117.948717
206,4384.615384,4541.025641,4552.820512,4291.794871,4515.384615,4233.846153,4491.794871,4226.666666,4252.820512,4513.333333,4231.794871,4669.230769,3969.743590,4126.666666
207,4384.615384,4548.717948,4557.435897,4292.820512,4516.410256,4229.743589,4493.333333,4233.333333,4263.589743,4520.512820,4228.717948,4673.846153,3971.794872,4122.564102
208,4390.769230,4547.179487,4554.358974,4292.307692,4517.435897,4234.358974,4490.256410,4233.846153,4261.025641,4516.923076,4229.743589,4672.820512,3967.692308,4124.615384
209,4383.589743,4536.923076,4545.641025,4276.410256,4508.717948,4231.794871,4489.230769,4228.717948,4252.820512,4512.820512,4233.846153,4666.153846,3957.948718,4123.076923
210,4371.794871,4533.846153,4545.641025,4268.717948,4504.102564,4220.512820,4490.256410,4221.025641,4251.794871,4512.820512,4226.666666,4664.102564,3953.333334,4109.230769
211,4376.923076,4538.461538,4548.205128,4280.512820,4511.282051,4221.025641,4492.307692,4223.589743,4259.487179,4508.205128,4217.435897,4666.666666,3956.923077,4109.743589
212,4385.641025,4536.410256,4545.641025,4288.205128,4516.923076,4231.282051,4491.282051,4231.282051,4257.435897,4500.000000,4223.589743,4665.128205,3956.923077,4122.051282
213,4382.564102,4537.948717,4547.692307,4289.743589,4516.410256,4234.871794,4489.743589,4232.307692,4249.743589,4511.282051,4236.923076,4666.153846,3958.461539,4122.564102
214,4381.025641,4549.743589,4553.333333,4294.358974,4520.512820,4234.358974,4492.820512,4228.717948,4253.333333,4526.153846,4240.512820,4670.769230,3972.307693,4118.974358
215,4382.564102,4551.794871,4550.256410,4297.948717,4524.615384,4233.846153,4488.717948,4223.076923,4256.410256,4520.512820,4229.743589,4669.230769,3970.769231,4123.076923
216,4382.564102,4547.179487,4547.692307,4294.871794,4516.923076,4233.333333,4482.051282,4216.410256,4252.307692,4508.717948,4213.846153,4662.564102,3947.692308,4121.538461
217,4382.564102,4549.230769,4547.692307,4294.358974,4506.666666,4228.717948,4482.051282,4212.820512,4247.692307,4505.641025,4207.692307,4657.948717,3944.615385,4111.794871
218,4377.435897,4550.256410,4541.025641,4294.871794,4507.692307,4221.025641,4481.025641,4214.871794,4243.076923,4506.153846,4217.948717,4657.435897,3960.512821,4109.230769
219,4371.794871,4544.615384,4534.358974,4290.256410,4509.230769,4223.589743,4475.897435,4214.871794,4237.948717,4504.102564,4222.051282,4654.358974,3953.846154,4108.717948
220,4370.769230,4538.974358,4538.461538,4285.641025,4507.179487,4227.179487,4473.333333,4209.230769,4241.025641,4503.589743,4209.743589,4648.717948,3935.897436,4103.589743
221,4374.871794,4547.692307,4545.128205,4283.076923,4508.205128,4225.641025,4477.435897,4212.307692,4250.769230,4507.179487,4207.179487,4651.794871,3938.974359,4107.692307
222,4374.871794,4552.820512,4547.179487,4281.538461,4508.717948,4226.666666,4478.461538,4217.948717,4249.230769,4506.666666,4215.897435,4659.487179,3945.128206,4111.282051
223,4366.153846,4540.512820,4542.051282,4278.461538,4505.128205,4221.025641,4472.820512,4209.230769,4235.897435,4496.410256,4215.897435,4658.461538,3934.871795,4105.641025
224,4366.153846,4537.948717,4540.512820,4283.589743,4504.102564,4218.461538,4476.410256,4207.179487,4232.307692,4492.307692,4213.846153,4658.974358,3931.794872,4107.179487
225,4375.384615,4550.256410,4549.743589,4290.256410,4510.769230,4230.256410,4490.256410,4222.051282,4247.692307,4502.564102,4221.538461,4667.692307,3936.923077,4112.307692
226,4372.820512,4547.179487,4551.282051,4285.128205,4511.794871,4230.769230,4487.692307,4224.615384,4257.435897,4510.256410,4224.102564,4665.128205,3933.846154,4108.717948
227,4364.615384,4532.820512,4541.538461,4281.538461,4505.641025,4214.871794,4473.846153,4213.846153,4250.256410,4509.743589,4214.871794,4655.384615,3931.282052,4104.615384
228,4362.564102,4528.205128,4537.435897,4286.153846,4505.128205,4216.410256,4475.384615,4215.384615,4246.153846,4502.564102,4209.230769,4654.358974,3935.384616,4105.128205
229,4362.051282,4524.615384,4537.435897,4286.153846,4506.153846,4222.564102,4480.000000,4218.461538,4247.692307,4494.871794,4211.282051,4652.307692,3931.794872,4105.128205
230,4358.974358,4527.692307,4531.794871,4277.435897,4502.564102,4213.846153,4475.384615,4213.333333,4245.641025,4497.435897,4207.692307,4645.641025,3922.564103,4099.487179
231,4361.538461,4541.025641,4532.307692,4277.948717,4505.128205,4218.461538,4475.897435,4215.897435,4249.230769,4510.256410,4208.205128,4648.717948,3930.256411,4097.948717
232,4364.615384,4544.102564,4542.051282,4284.615384,4510.256410,4232.820512,4479.487179,4218.974358,4256.410256,4512.307692,4215.384615,4654.871794,3935.897436,4106.153846
233,4360.000000,4531.282051,4539.487179,4276.410256,4507.179487,4228.205128,4474.871794,4207.692307,4252.820512,4502.051282,4205.128205,4649.743589,3926.666667,4107.692307
234,4356.410256,4526.153846,4535.897435,4271.282051,4503.589743,4215.384615,4471.282051,4203.589743,4243.076923,4501.538461,4198.974358,4647.179487,3924.102565,4100.000000
235,4358.974358,4534.871794,4538.974358,4285.641025,4505.128205,4217.948717,4469.230769,4210.769230,4242.051282,4506.153846,4215.384615,4649.743589,3926.666667,4100.512820
236,4359.487179,4535.384615,4537.948717,4290.769230,4506.666666,4223.076923,4467.692307,4208.717948,4248.717948,4505.641025,4213.333333,4649.743589,3928.205129,4108.205128
237,4359.487179,4527.179487,4536.923076,4277.948717,4506.666666,4220.000000,4467.179487,4206.153846,4253.333333,4509.743589,4200.000000,4652.307692,3936.923077,4111.282051
238,4362.051282,4532.820512,4540.000000,4272.307692,4503.589743,4215.897435,4463.589743,4215.384615,4256.923076,4511.794871,4213.846153,4657.948717,3946.153847,4109.230769
239,4361.025641,4542.051282,4539.487179,4280.000000,4500.000000,4218.461538,4464.615384,4217.435897,4253.846153,4509.743589,4232.307692,4656.410256,3944.615385,4108.717948
240,4361.025641,4538.974358,4538.974358,4286.153846,4503.589743,4223.589743,4472.307692,4211.282051,4243.076923,4510.256410,4229.743589,4653.846153,3933.333334,4106.666666
241,4366.666666,4537.435897,4548.717948,4284.102564,4508.717948,4224.102564,4476.410256,4216.410256,4249.230769,4513.846153,4221.025641,4660.000000,3929.230770,4107.692307
242,4367.179487,4540.512820,4553.333333,4282.564102,4507.692307,4223.076923,4473.846153,4224.102564,4264.615384,4514.871794,4221.538461,4666.153846,3940.000000,4117.435897
243,4364.102564,4533.333333,4548.717948,4284.102564,4506.153846,4224.102564,4473.333333,4216.923076,4258.974358,4513.846153,4224.615384,4663.589743,3948.205129,4124.102564
244,4364.102564,4527.692307,4546.153846,4281.025641,4506.666666,4220.512820,4475.384615,4210.769230,4248.205128,4510.256410,4221.025641,4656.923076,3943.076924,4114.871794
245,4365.641025,4535.384615,4544.102564,4279.487179,4505.128205,4214.871794,4471.794871,4213.333333,4253.333333,4505.128205,4218.974358,4654.358974,3940.000000,4106.153846
246,4366.153846,4538.461538,4538.974358,4284.615384,4504.615384,4217.948717,4464.102564,4208.717948,4249.230769,4503.589743,4214.871794,4652.307692,3937.435898,4104.615384
247,4361.538461,4527.692307,4532.820512,4278.461538,4504.615384,4219.487179,4457.435897,4204.102564,4236.410256,4500.512820,4201.538461,4645.641025,3930.769231,4101.025641
248,4361.538461,4529.743589,4535.897435,4274.358974,4505.128205,4216.923076,4464.102564,4213.846153,4246.153846,4504.102564,4208.717948,4648.205128,3937.435898,4110.769230
249,4368.717948,4541.538461,4544.615384,4285.641025,4508.205128,4221.025641,4475.897435,4221.538461,4257.435897,4512.820512,4234.871794,4660.000000,3949.230770,4125.641025
250,4367.692307,4540.000000,4542.564102,4282.051282,4507.179487,4221.025641,4473.333333,4214.358974,4248.205128,4508.205128,4226.153846,4657.948717,3942.564103,4115.384615
251,4364.102564,4532.820512,4536.410256,4273.333333,4502.564102,4218.461538,4470.769230,4212.307692,4245.641025,4502.564102,4200.000000,4651.282051,3931.282052,4101.538461
252,4366.666666,4530.256410,4535.384615,4283.076923,4506.153846,4218.974358,4474.358974,4214.871794,4251.794871,4508.717948,4205.128205,4655.897435,3928.717949,4108.205128
253,4363.589743,4523.589743,4533.333333,4283.076923,4506.666666,4218.974358,4469.230769,4206.666666,4243.076923,4505.128205,4213.333333,4651.794871,3924.102565,4109.230769
254,4352.820512,4517.435897,4525.128205,4264.102564,4495.384615,4214.871794,4458.974358,4199.487179,4231.794871,4489.743589,4206.153846,4638.974358,3919.487180,4098.974358
255,4356.410256,4523.589743,4525.641025,4264.102564,4492.820512,4213.333333,4460.512820,4200.512820,4230.256410,4488.205128,4209.230769,4640.512820,3923.076924,4100.512820
256,4372.820512,4532.820512,4537.435897,4283.076923,4503.076923,4217.435897,4462.564102,4202.051282,4232.820512,4501.538461,4220.512820,4652.307692,3929.230770,4112.307692
257,4376.923076,4533.846153,4543.589743,4284.615384,4506.666666,4218.461538,4458.974358,4204.102564,4240.000000,4506.153846,4218.461538,4652.820512,3933.846154,4117.948717
258,4368.205128,4533.333333,4542.564102,4275.897435,4498.974358,4215.897435,4460.512820,4208.717948,4250.256410,4508.205128,4211.794871,4649.743589,3941.025642,4121.025641
259,4368.717948,4532.307692,4540.000000,4280.512820,4496.410256,4216.923076,4464.102564,4211.282051,4249.743589,4511.794871,4218.974358,4652.820512,3944.615385,4120.000000
