,AF3,F7,F3,FC5,T7,P7,O1,O2,P8,T8,FC6,F4,F8,AF4
0,4392.820512,4535.384615,4538.461538,4256.923076,4497.948717,4194.358974,4442.051282,4210.769230,4246.153846,4515.897435,4224.615384,4659.487179,4008.205128,4070.769230
1,4389.743589,4533.846153,4540.000000,4263.076923,4501.025641,4193.333333,4436.923076,4208.205128,4242.564102,4514.871794,4230.769230,4654.358974,4012.820512,4073.333333
2,4384.102564,4528.205128,4537.435897,4251.794871,4501.025641,4191.282051,4433.333333,4202.564102,4235.384615,4509.230769,4221.538461,4649.230769,4006.153846,4070.769230
3,4384.615384,4520.512820,4535.384615,4243.076923,4500.512820,4192.820512,4434.358974,4200.512820,4237.948717,4510.769230,4209.230769,4651.794871,3995.897436,4066.153846
4,4384.615384,4521.025641,4535.384615,4243.076923,4502.564102,4196.410256,4435.897435,4205.128205,4242.051282,4513.846153,4212.307692,4650.769230,3992.307693,4065.128205
5,4381.538461,4526.666666,4534.871794,4245.128205,4505.128205,4196.923076,4437.435897,4208.205128,4234.871794,4507.692307,4215.384615,4646.153846,3988.717949,4064.102564
6,4378.974358,4522.564102,4528.717948,4250.769230,4501.538461,4191.794871,4436.923076,4204.615384,4224.615384,4502.564102,4203.589743,4642.564102,3982.051283,4060.000000
7,4373.846153,4513.846153,4521.025641,4248.205128,4495.897435,4187.692307,4429.230769,4194.871794,4220.000000,4495.897435,4192.307692,4635.897435,3976.410257,4052.307692
8,4369.230769,4511.282051,4524.615384,4242.051282,4495.384615,4188.205128,4428.205128,4191.794871,4220.512820,4486.153846,4191.794871,4636.923076,3975.384616,4047.179487
9,4377.948717,4515.897435,4536.923076,4248.717948,4500.000000,4192.307692,4441.025641,4203.076923,4225.641025,4492.307692,4202.564102,4650.256410,3981.025642,4055.384615
10,4385.641025,4523.076923,4540.000000,4250.769230,4500.512820,4191.282051,4445.128205,4212.307692,4231.794871,4500.512820,4217.435897,4657.948717,3985.641026,4064.615384
11,4375.897435,4521.538461,4529.743589,4240.000000,4498.461538,4190.256410,4440.000000,4210.256410,4232.307692,4494.358974,4210.769230,4651.282051,3985.128206,4058.974358
12,4361.538461,4508.717948,4518.461538,4231.282051,4492.820512,4184.615384,4440.512820,4203.589743,4230.256410,4490.256410,4190.769230,4638.974358,3977.948718,4044.102564
13,4361.025641,4500.512820,4514.871794,4228.717948,4486.666666,4178.461538,4438.461538,4197.948717,4227.692307,4490.769230,4190.256410,4630.769230,3969.230770,4038.461538
14,4370.256410,4504.615384,4518.461538,4230.769230,4490.256410,4183.076923,4432.307692,4201.025641,4222.564102,4483.076923,4203.589743,4634.871794,3967.692308,4042.564102
15,4377.435897,4512.307692,4521.538461,4233.333333,4496.923076,4187.179487,4435.897435,4204.615384,4222.051282,4486.666666,4207.179487,4638.974358,3976.923077,4043.589743
16,4380.512820,4515.897435,4521.538461,4232.307692,4496.410256,4185.128205,4446.153846,4203.076923,4229.743589,4500.512820,4206.666666,4638.974358,3985.641026,4047.179487
17,4384.102564,4520.512820,4519.487179,4237.435897,4496.923076,4189.230769,4446.153846,4206.153846,4235.384615,4502.051282,4213.333333,4643.589743,3988.717949,4054.871794
18,4382.051282,4518.461538,4511.794871,4243.589743,4498.974358,4193.333333,4440.512820,4209.743589,4235.897435,4494.358974,4213.333333,4641.538461,3982.051283,4049.230769
19,4374.871794,4512.820512,4506.153846,4235.897435,4494.358974,4185.641025,4441.025641,4205.128205,4232.820512,4496.410256,4200.512820,4634.871794,3971.282052,4040.000000
20,4374.871794,4515.897435,4511.282051,4235.384615,4489.743589,4181.538461,4444.102564,4205.128205,4229.743589,4503.589743,4202.564102,4639.487179,3971.794872,4046.153846
21,4373.846153,4520.512820,4506.153846,4238.461538,4487.179487,4182.051282,4437.435897,4203.076923,4224.615384,4501.025641,4217.435897,4642.564102,3975.897436,4046.153846
22,4362.564102,4509.743589,4487.692307,4223.589743,4481.538461,4174.358974,4427.692307,4187.692307,4216.410256,4492.307692,4211.794871,4631.794871,3964.615385,4028.205128
23,4358.461538,4498.974358,4483.076923,4215.897435,4481.025641,4173.333333,4433.333333,4185.641025,4213.846153,4486.153846,4195.384615,4625.641025,3950.256411,4020.512820
24,4366.666666,4506.153846,4490.769230,4224.615384,4486.153846,4178.974358,4446.153846,4197.948717,4218.974358,4481.538461,4190.769230,4633.846153,3954.871795,4026.666666
25,4369.743589,4509.743589,4487.692307,4227.692307,4486.666666,4181.025641,4447.179487,4198.461538,4223.589743,4482.564102,4194.871794,4639.487179,3962.564103,4031.282051
26,4363.076923,4501.025641,4476.923076,4227.692307,4483.076923,4178.461538,4442.564102,4195.384615,4225.128205,4494.871794,4205.128205,4638.461538,3957.948718,4027.692307
27,4361.025641,4499.487179,4476.923076,4225.128205,4482.051282,4177.435897,4444.102564,4205.128205,4227.692307,4506.153846,4215.897435,4638.461538,3959.487180,4026.153846
28,4366.153846,4503.589743,4486.666666,4220.512820,4483.589743,4178.974358,4449.230769,4211.794871,4226.666666,4501.025641,4216.410256,4639.487179,3969.230770,4032.307692
29,4368.205128,4507.692307,4492.820512,4227.179487,4489.743589,4185.641025,4451.282051,4205.641025,4221.025641,4495.384615,4206.666666,4641.025641,3968.717949,4036.410256
30,4360.000000,4509.230769,4485.128205,4232.307692,4494.358974,4187.179487,4448.717948,4196.923076,4212.307692,4492.820512,4185.641025,4633.333333,3956.923077,4027.179487
31,4352.307692,4501.025641,4473.333333,4225.128205,4489.230769,4181.538461,4442.051282,4188.205128,4207.179487,4482.564102,4172.307692,4620.000000,3947.179488,4013.846153
32,4355.897435,4494.358974,4471.282051,4230.769230,4484.615384,4183.076923,4442.564102,4188.717948,4213.333333,4483.589743,4188.717948,4621.538461,3947.692308,4014.871794
33,4363.076923,4506.666666,4476.410256,4237.435897,4488.205128,4188.205128,4451.282051,4201.025641,4221.538461,4499.487179,4213.846153,4635.384615,3958.461539,4022.564102
34,4361.538461,4515.897435,4474.871794,4222.564102,4488.205128,4182.564102,4453.333333,4206.153846,4222.564102,4495.897435,4209.230769,4636.410256,3956.923077,4021.025641
35,4356.923076,4509.743589,4471.282051,4218.461538,4478.461538,4172.820512,4443.589743,4197.435897,4215.897435,4482.051282,4184.615384,4623.589743,3944.102565,4012.820512
36,4362.051282,4507.179487,4473.846153,4236.923076,4478.974358,4175.897435,4442.564102,4194.871794,4210.769230,4488.717948,4180.000000,4622.051282,3949.743590,4014.871794
37,4369.230769,4512.307692,4477.435897,4243.589743,4493.333333,4188.205128,4456.410256,4206.153846,4217.948717,4501.538461,4200.000000,4633.846153,3965.641026,4024.615384
38,4370.769230,4520.000000,4476.923076,4237.435897,4495.384615,4193.333333,4461.538461,4210.769230,4223.589743,4503.076923,4212.307692,4637.435897,3960.000000,4026.666666
39,4370.256410,4521.538461,4476.410256,4235.384615,4489.230769,4190.769230,4456.923076,4207.179487,4224.615384,4502.564102,4208.717948,4634.871794,3950.256411,4030.769230
40,4370.769230,4515.384615,4476.923076,4230.256410,4491.794871,4187.692307,4454.871794,4204.615384,4231.794871,4502.564102,4203.076923,4636.410256,3957.435898,4038.461538
41,4370.256410,4511.282051,4474.358974,4225.128205,4493.333333,4189.230769,4451.282051,4200.512820,4230.769230,4497.435897,4198.974358,4634.358974,3956.923077,4034.358974
42,4369.743589,4512.820512,4474.358974,4230.769230,4488.205128,4190.256410,4442.564102,4197.435897,4214.871794,4492.820512,4196.410256,4627.179487,3946.153847,4026.153846
43,4376.923076,4517.435897,4485.128205,4242.051282,4487.692307,4186.666666,4448.717948,4203.076923,4216.410256,4499.487179,4205.641025,4633.333333,3954.358975,4034.358974
44,4384.615384,4521.025641,4497.435897,4246.153846,4491.282051,4184.615384,4455.897435,4208.717948,4234.871794,4507.692307,4217.948717,4643.076923,3968.717949,4041.025641
45,4377.948717,4514.871794,4494.358974,4238.461538,4488.717948,4186.153846,4446.666666,4201.538461,4230.256410,4497.435897,4208.717948,4635.897435,3955.384616,4026.666666
46,4369.230769,4511.794871,4489.230769,4231.794871,4485.641025,4183.076923,4446.666666,4193.333333,4209.743589,4484.102564,4193.333333,4626.153846,3941.538462,4017.435897
47,4372.307692,4515.897435,4500.000000,4235.384615,4484.615384,4181.025641,4455.897435,4196.410256,4211.282051,4491.794871,4197.948717,4628.717948,3954.871795,4023.076923
48,4375.897435,4515.897435,4512.307692,4234.871794,4487.692307,4184.615384,4455.897435,4200.512820,4226.153846,4504.615384,4204.615384,4630.256410,3965.641026,4024.615384
49,4371.794871,4510.769230,4509.743589,4229.230769,4486.153846,4183.589743,4450.256410,4196.923076,4220.000000,4498.461538,4195.897435,4625.128205,3958.461539,4022.051282
50,4368.717948,4512.307692,4508.717948,4230.769230,4480.000000,4178.461538,4448.717948,4190.769230,4205.641025,4483.589743,4193.333333,4624.102564,3957.948718,4026.153846
51,4371.794871,4516.410256,4518.974358,4238.461538,4483.076923,4180.512820,4445.128205,4189.743589,4207.692307,4481.538461,4202.051282,4631.282051,3970.256411,4032.820512
52,4373.846153,4515.897435,4524.102564,4240.000000,4487.692307,4185.641025,4445.641025,4188.717948,4211.794871,4489.743589,4205.128205,4636.410256,3975.897436,4037.948717
53,4372.820512,4511.282051,4523.589743,4234.358974,4485.128205,4186.666666,4446.666666,4189.743589,4207.692307,4490.256410,4206.666666,4633.333333,3982.564103,4044.615384
54,4367.179487,4504.102564,4520.512820,4230.769230,4480.512820,4182.051282,4442.564102,4194.358974,4209.743589,4484.102564,4201.025641,4625.641025,3993.846154,4049.743589
55,4355.897435,4501.025641,4511.282051,4228.717948,4479.487179,4176.410256,4444.102564,4191.794871,4210.256410,4480.512820,4182.564102,4616.410256,3988.717949,4045.641025
56,4349.230769,4499.487179,4503.076923,4222.051282,4479.487179,4177.435897,4444.102564,4186.666666,4205.128205,4480.000000,4171.794871,4608.205128,3974.871795,4041.025641
57,4355.897435,4501.538461,4505.128205,4225.128205,4483.076923,4182.564102,4441.025641,4193.333333,4211.794871,4484.102564,4180.512820,4612.820512,3982.564103,4045.641025
58,4361.538461,4509.230769,4509.743589,4236.410256,4485.641025,4184.102564,4448.717948,4200.512820,4223.076923,4489.743589,4193.846153,4622.564102,3997.435898,4053.846153
59,4358.461538,4505.641025,4508.205128,4233.846153,4482.051282,4181.025641,4456.410256,4195.897435,4216.923076,4487.179487,4187.692307,4620.000000,3992.307693,4052.307692
60,4351.282051,4493.846153,4504.615384,4221.538461,4480.000000,4180.512820,4451.282051,4189.230769,4206.153846,4478.974358,4160.512820,4612.820512,3981.025642,4047.692307
61,4346.666666,4490.256410,4504.615384,4216.923076,4482.051282,4183.076923,4449.743589,4190.769230,4210.256410,4480.000000,4152.820512,4613.333333,3980.000000,4050.769230
62,4353.846153,4500.512820,4513.333333,4222.564102,4488.717948,4185.641025,4458.461538,4196.923076,4217.948717,4493.333333,4182.564102,4617.435897,3983.076924,4054.358974
63,4367.179487,4510.769230,4523.589743,4233.846153,4492.820512,4189.230769,4463.589743,4202.564102,4220.512820,4498.461538,4204.615384,4624.615384,3993.846154,4057.948717
64,4370.769230,4509.230769,4526.153846,4243.076923,4490.769230,4192.820512,4465.128205,4206.666666,4226.666666,4490.769230,4193.846153,4631.794871,4007.692307,4061.538461
65,4364.615384,4498.974358,4523.076923,4239.487179,4488.205128,4190.769230,4465.641025,4205.641025,4228.717948,4494.358974,4187.179487,4627.692307,4000.000000,4060.512820
66,4357.948717,4494.871794,4521.538461,4223.076923,4483.589743,4184.102564,4462.564102,4197.435897,4215.897435,4500.000000,4190.769230,4619.487179,3980.000000,4055.384615
67,4354.871794,4496.410256,4520.000000,4211.282051,4474.358974,4174.358974,4452.820512,4188.717948,4207.692307,4489.230769,4180.512820,4617.435897,3976.410257,4048.205128
68,4356.410256,4496.923076,4520.512820,4220.000000,4467.179487,4167.692307,4444.102564,4192.820512,4213.333333,4480.000000,4174.871794,4622.564102,3986.666667,4045.128205
69,4357.435897,4498.461538,4522.051282,4229.230769,4469.230769,4168.717948,4448.205128,4197.948717,4216.923076,4487.179487,4186.153846,4629.743589,3986.153847,4048.717948
70,4352.307692,4493.846153,4518.461538,4222.564102,4472.820512,4169.230769,4455.897435,4194.871794,4212.820512,4489.230769,4190.769230,4626.666666,3978.461539,4051.794871
71,4352.820512,4483.589743,4517.435897,4216.410256,4471.794871,4170.256410,4455.897435,4192.307692,4210.769230,4486.153846,4191.282051,4621.025641,3976.410257,4049.230769
72,4360.512820,4491.282051,4523.076923,4216.923076,4473.846153,4175.897435,4457.948717,4196.923076,4211.794871,4492.820512,4192.307692,4626.666666,3983.589744,4048.717948
73,4361.025641,4503.589743,4525.641025,4218.974358,4476.410256,4177.435897,4460.512820,4202.564102,4218.974358,4496.923076,4180.000000,4634.871794,3994.358975,4052.307692
74,4352.820512,4492.307692,4523.076923,4225.641025,4471.794871,4170.256410,4456.923076,4201.538461,4225.641025,4494.358974,4176.923076,4632.307692,3991.282052,4048.717948
75,4350.769230,4484.102564,4523.076923,4230.256410,4471.794871,4171.282051,4456.923076,4198.461538,4220.000000,4496.410256,4195.897435,4626.153846,3979.487180,4044.102564
76,4353.846153,4496.410256,4523.589743,4228.205128,4480.000000,4176.923076,4460.512820,4192.820512,4213.333333,4496.923076,4202.564102,4623.589743,3977.948718,4045.128205
77,4347.179487,4495.384615,4518.974358,4220.000000,4475.384615,4171.282051,4456.923076,4181.538461,4210.769230,4486.666666,4188.717948,4620.512820,3980.000000,4042.051282
78,4341.025641,4478.461538,4514.358974,4208.717948,4462.051282,4162.051282,4453.333333,4175.897435,4203.589743,4477.948717,4175.384615,4615.897435,3973.333334,4029.743589
79,4345.641025,4479.487179,4516.923076,4207.692307,4463.589743,4165.128205,4456.923076,4183.589743,4198.461538,4476.923076,4171.794871,4613.333333,3967.179488,4025.128205
80,4347.179487,4488.205128,4522.051282,4221.025641,4470.769230,4168.205128,4459.487179,4188.717948,4201.538461,4477.435897,4180.000000,4618.974358,3960.512821,4031.794871
81,4338.974358,4481.025641,4516.923076,4223.076923,4470.256410,4163.076923,4454.358974,4179.487179,4203.076923,4478.461538,4183.589743,4617.435897,3950.256411,4028.717948
82,4335.897435,4479.487179,4507.692307,4215.384615,4469.230769,4165.128205,4449.743589,4176.923076,4200.512820,4469.743589,4174.358974,4608.717948,3953.846154,4020.000000
83,4343.076923,4492.307692,4512.307692,4217.435897,4476.923076,4174.358974,4450.256410,4187.179487,4202.564102,4464.102564,4169.743589,4610.256410,3960.000000,4022.051282
84,4347.179487,4493.333333,4521.538461,4218.974358,4486.666666,4177.948717,4453.333333,4188.205128,4203.076923,4469.230769,4171.282051,4615.384615,3954.871795,4025.128205
85,4344.615384,4487.179487,4519.487179,4214.358974,4486.153846,4174.358974,4452.820512,4183.589743,4202.051282,4474.358974,4171.282051,4612.820512,3954.358975,4018.974358
86,4343.589743,4491.794871,4512.307692,4217.948717,4483.589743,4176.410256,4447.179487,4187.692307,4204.615384,4476.923076,4178.974358,4609.230769,3960.512821,4017.435897
87,4342.564102,4493.333333,4509.743589,4223.076923,4486.153846,4178.461538,4442.051282,4186.153846,4202.564102,4480.512820,4187.179487,4607.179487,3955.384616,4017.948717
88,4334.871794,4487.179487,4507.692307,4220.000000,4489.230769,4174.358974,4438.974358,4180.000000,4203.076923,4479.487179,4181.025641,4602.051282,3947.692308,4012.307692
89,4331.794871,4484.102564,4504.615384,4216.923076,4485.641025,4171.794871,4437.948717,4180.512820,4206.666666,4477.948717,4165.641025,4601.025641,3950.256411,4011.794871
90,4339.487179,4486.153846,4510.256410,4213.846153,4485.128205,4180.000000,4442.051282,4184.102564,4214.871794,4483.076923,4161.025641,4607.179487,3958.461539,4018.461538
91,4346.153846,4492.820512,4518.974358,4213.846153,4496.410256,4188.205128,4447.692307,4187.179487,4220.512820,4488.205128,4171.282051,4615.384615,3965.641026,4024.102564
92,4348.205128,4498.974358,4522.051282,4222.051282,4502.051282,4183.589743,4442.564102,4189.743589,4216.410256,4490.256410,4180.000000,4621.538461,3968.717949,4032.307692
93,4353.333333,4495.897435,4520.512820,4229.743589,4497.435897,4181.538461,4438.974358,4189.230769,4211.794871,4492.307692,4183.076923,4628.717948,3973.846154,4042.564102
94,4357.948717,4496.410256,4523.589743,4229.743589,4499.487179,4186.153846,4445.641025,4191.282051,4221.025641,4493.333333,4182.051282,4633.333333,3979.487180,4041.025641
95,4355.384615,4497.948717,4525.641025,4227.179487,4505.641025,4187.179487,4451.282051,4197.435897,4230.256410,4497.435897,4182.051282,4630.256410,3973.333334,4033.333333
96,4346.153846,4491.794871,4520.512820,4223.589743,4501.025641,4185.128205,4448.717948,4198.974358,4225.641025,4501.538461,4186.666666,4623.076923,3957.948718,4028.717948
97,4342.051282,4489.230769,4516.410256,4215.897435,4496.410256,4183.076923,4444.615384,4195.897435,4220.000000,4497.948717,4186.153846,4617.948717,3956.410257,4024.615384
98,4349.743589,4492.307692,4520.512820,4213.333333,4505.641025,4186.153846,4445.641025,4200.000000,4224.102564,4495.384615,4182.564102,4624.102564,3968.205129,4027.692307
99,4354.871794,4497.435897,4525.128205,4224.615384,4511.282051,4190.769230,4448.205128,4207.179487,4229.743589,4501.538461,4188.717948,4632.820512,3974.358975,4035.384615
100,4348.717948,4495.384615,4524.615384,4228.717948,4501.538461,4186.153846,4446.153846,4201.025641,4222.564102,4500.000000,4186.666666,4628.205128,3969.230770,4028.717948
101,4342.051282,4486.666666,4522.051282,4221.538461,4494.871794,4176.410256,4438.974358,4186.666666,4206.153846,4487.179487,4172.307692,4614.358974,3958.461539,4014.358974
102,4341.025641,4483.589743,4518.461538,4222.051282,4500.000000,4178.974358,4440.512820,4184.102564,4206.666666,4478.974358,4172.307692,4609.230769,3943.589744,4012.820512
103,4342.051282,4484.615384,4514.871794,4221.538461,4501.025641,4180.000000,4441.538461,4188.205128,4212.820512,4475.384615,4175.384615,4613.846153,3938.461539,4017.948717
104,4342.051282,4486.153846,4518.461538,4215.897435,4495.384615,4176.410256,4432.307692,4188.205128,4209.743589,4480.000000,4171.794871,4617.435897,3951.794872,4019.487179
105,4346.666666,4492.307692,4525.641025,4222.564102,4498.974358,4180.512820,4431.794871,4196.410256,4215.384615,4493.333333,4177.435897,4624.102564,3965.128206,4025.641025
106,4350.256410,4497.435897,4525.641025,4234.358974,4501.538461,4181.025641,4439.487179,4207.179487,4229.230769,4502.051282,4186.666666,4630.769230,3963.076924,4028.717948
107,4348.717948,4491.794871,4522.051282,4231.794871,4498.461538,4178.461538,4439.487179,4203.589743,4225.128205,4501.025641,4193.333333,4630.256410,3955.384616,4023.076923
108,4345.128205,4485.128205,4520.512820,4222.564102,4497.948717,4180.512820,4440.512820,4192.820512,4213.846153,4497.948717,4197.435897,4626.666666,3952.307693,4018.461538
109,4341.538461,4484.615384,4520.000000,4217.948717,4497.435897,4182.051282,4446.153846,4193.333333,4218.461538,4494.358974,4189.743589,4620.512820,3955.897436,4017.435897
110,4341.025641,4484.615384,4520.000000,4212.820512,4494.358974,4177.948717,4443.589743,4203.076923,4230.256410,4492.820512,4175.384615,4615.384615,3958.974359,4014.358974
111,4346.153846,4488.205128,4520.000000,4215.384615,4492.820512,4174.871794,4440.512820,4206.666666,4236.923076,4498.974358,4178.974358,4620.512820,3960.000000,4016.923076
112,4354.871794,4495.384615,4521.538461,4226.153846,4494.871794,4177.435897,4443.076923,4206.666666,4237.948717,4505.128205,4196.410256,4631.282051,3964.102565,4028.717948
113,4361.538461,4502.564102,4526.666666,4232.307692,4500.512820,4181.538461,4441.025641,4210.256410,4234.871794,4504.615384,4200.512820,4635.384615,3968.205129,4033.846153
114,4361.025641,4501.025641,4527.179487,4228.205128,4501.025641,4182.564102,4438.461538,4209.743589,4229.743589,4503.589743,4190.769230,4634.358974,3968.717949,4027.692307
115,4353.846153,4492.820512,4520.512820,4218.461538,4490.256410,4177.435897,4434.358974,4198.461538,4224.615384,4503.589743,4189.230769,4629.230769,3963.076924,4020.512820
116,4350.769230,4491.794871,4519.487179,4213.333333,4487.692307,4172.307692,4429.743589,4189.743589,4226.666666,4501.538461,4189.230769,4625.128205,3953.846154,4021.538461
117,4353.846153,4492.307692,4521.538461,4222.051282,4492.820512,4173.846153,4433.333333,4192.820512,4227.179487,4500.000000,4178.461538,4625.641025,3950.256411,4023.589743
118,4350.256410,4489.743589,4514.871794,4228.717948,4489.743589,4175.897435,4436.923076,4197.435897,4226.666666,4501.025641,4172.820512,4622.564102,3949.743590,4015.384615
119,4347.179487,4491.794871,4513.333333,4223.076923,4489.230769,4173.333333,4432.820512,4201.538461,4233.333333,4503.076923,4183.589743,4622.051282,3950.769231,4009.743589
120,4354.871794,4493.333333,4521.538461,4222.564102,4494.358974,4174.358974,4427.692307,4202.564102,4235.384615,4500.512820,4189.230769,4627.692307,3957.435898,4017.948717
121,4356.923076,4494.358974,4523.589743,4223.589743,4494.871794,4177.435897,4428.205128,4195.897435,4225.641025,4494.358974,4186.666666,4627.179487,3957.435898,4021.025641
122,4354.358974,4494.871794,4520.000000,4222.564102,4491.794871,4177.948717,4436.410256,4194.358974,4223.589743,4493.846153,4196.410256,4626.666666,3947.179488,4016.410256
123,4356.410256,4491.794871,4520.512820,4226.153846,4490.256410,4177.948717,4441.025641,4198.974358,4228.717948,4499.487179,4193.846153,4628.205128,3944.102565,4016.410256
124,4355.384615,4490.769230,4520.512820,4226.666666,4488.717948,4176.923076,4435.384615,4193.333333,4225.641025,4500.000000,4172.307692,4622.564102,3947.692308,4018.461538
125,4353.333333,4498.461538,4521.025641,4227.179487,4492.307692,4178.974358,4433.846153,4188.205128,4230.769230,4497.948717,4176.923076,4621.025641,3948.205129,4017.948717
126,4358.974358,4504.615384,4523.589743,4230.769230,4497.948717,4183.589743,4437.435897,4193.846153,4237.435897,4504.102564,4200.000000,4631.794871,3951.282052,4020.512820
127,4358.461538,4502.564102,4522.051282,4226.153846,4495.384615,4178.461538,4429.743589,4195.384615,4228.717948,4508.205128,4202.564102,4632.307692,3951.282052,4022.051282
128,4355.897435,4497.435897,4521.025641,4223.076923,4487.179487,4171.794871,4422.564102,4194.871794,4228.717948,4509.230769,4190.769230,4629.743589,3952.307693,4022.564102
129,4364.615384,4493.846153,4522.564102,4235.384615,4482.564102,4172.820512,4427.692307,4196.410256,4241.025641,4513.846153,4188.205128,4634.358974,3960.512821,4025.641025
130,4367.179487,4497.435897,4523.076923,4233.846153,4482.564102,4174.358974,4428.717948,4192.307692,4235.897435,4508.205128,4194.871794,4631.794871,3961.538462,4022.564102
131,4357.948717,4502.564102,4521.538461,4225.128205,4488.205128,4176.410256,4427.179487,4192.307692,4225.128205,4503.589743,4202.564102,4625.128205,3952.820513,4017.435897
132,4356.923076,4500.512820,4519.487179,4232.307692,4492.820512,4181.025641,4435.897435,4200.000000,4234.358974,4509.743589,4199.487179,4625.128205,3948.717949,4014.871794
133,4361.025641,4499.487179,4520.000000,4233.333333,4490.769230,4181.025641,4441.025641,4199.487179,4238.974358,4508.205128,4192.307692,4626.666666,3949.230770,4011.794871
134,4363.076923,4505.641025,4521.538461,4228.205128,4491.282051,4184.615384,4438.461538,4197.948717,4231.794871,4502.051282,4190.256410,4629.230769,3952.307693,4016.410256
135,4370.256410,4509.743589,4524.615384,4238.461538,4497.948717,4189.743589,4440.000000,4202.564102,4234.358974,4510.769230,4192.307692,4632.820512,3958.974359,4027.692307
136,4370.256410,4509.743589,4522.051282,4241.538461,4497.435897,4184.102564,4437.948717,4201.025641,4235.384615,4518.974358,4196.410256,4630.256410,3956.410257,4025.641025
137,4363.076923,4510.256410,4519.487179,4229.743589,4492.307692,4180.000000,4432.820512,4195.384615,4228.717948,4512.307692,4199.487179,4626.666666,3948.205129,4015.897435
138,4364.102564,4505.128205,4521.025641,4226.153846,4489.743589,4183.076923,4436.410256,4194.871794,4228.205128,4505.641025,4199.487179,4626.666666,3948.205129,4017.435897
139,4366.153846,4503.076923,4521.025641,4228.205128,4486.666666,4180.512820,4435.897435,4197.948717,4232.820512,4506.153846,4198.974358,4628.205128,3948.717949,4021.025641
140,4365.128205,4507.692307,4520.000000,4235.384615,4487.179487,4178.461538,4434.871794,4203.076923,4235.384615,4510.256410,4205.128205,4636.923076,3951.794872,4023.589743
141,4369.230769,4509.230769,4523.589743,4245.128205,4489.230769,4183.076923,4441.025641,4207.179487,4240.512820,4516.410256,4214.871794,4644.615384,3964.615385,4029.743589
142,4371.794871,4508.717948,4525.641025,4238.461538,4484.615384,4180.512820,4438.461538,4205.641025,4240.512820,4516.410256,4209.743589,4640.000000,3968.205129,4029.230769
143,4365.128205,4508.717948,4521.538461,4229.230769,4482.051282,4174.358974,4426.153846,4201.025641,4229.743589,4506.666666,4195.384615,4634.358974,3957.435898,4021.538461
144,4362.564102,4504.102564,4521.538461,4234.358974,4484.615384,4178.461538,4426.666666,4201.538461,4226.666666,4501.538461,4196.410256,4637.435897,3956.410257,4020.512820
145,4363.589743,4498.974358,4523.076923,4236.923076,4486.666666,4183.589743,4432.307692,4204.615384,4237.435897,4510.769230,4209.230769,4635.897435,3966.153847,4024.615384
146,4355.897435,4498.974358,4514.871794,4229.230769,4485.641025,4178.974358,4431.282051,4203.076923,4240.000000,4516.410256,4210.769230,4624.615384,3963.076924,4022.051282
147,4346.666666,4497.948717,4505.641025,4223.076923,4484.102564,4177.948717,4430.256410,4192.820512,4226.153846,4502.564102,4197.435897,4616.410256,3960.000000,4018.974358
148,4348.717948,4497.435897,4509.230769,4227.692307,4485.128205,4183.076923,4428.205128,4188.717948,4217.948717,4492.820512,4179.487179,4620.512820,3971.794872,4025.641025
149,4361.538461,4504.102564,4520.000000,4239.487179,4487.692307,4184.615384,4427.692307,4196.410256,4226.153846,4497.948717,4184.615384,4631.794871,3982.051283,4038.974358
150,4374.871794,4514.871794,4530.256410,4242.051282,4491.282051,4185.641025,4426.666666,4204.102564,4234.871794,4507.179487,4210.256410,4639.487179,3991.282052,4053.846153
151,4382.564102,4522.564102,4538.461538,4242.051282,4494.358974,4189.230769,4431.282051,4209.230769,4243.589743,4513.333333,4218.974358,4647.692307,4008.717948,4069.743589
152,4380.512820,4521.538461,4539.487179,4250.769230,4496.410256,4191.282051,4441.538461,4219.487179,4252.307692,4511.794871,4209.230769,4652.307692,4016.410256,4077.948717
153,4376.923076,4520.512820,4540.000000,4253.333333,4500.000000,4194.871794,4448.717948,4221.538461,4250.769230,4512.820512,4203.076923,4649.230769,4010.769230,4077.948717
154,4378.461538,4519.487179,4536.923076,4246.153846,4502.564102,4198.461538,4455.384615,4218.461538,4243.076923,4519.487179,4200.000000,4645.128205,4007.179487,4076.410256
155,4376.410256,4513.846153,4524.102564,4245.641025,4502.564102,4198.461538,4461.025641,4217.435897,4240.000000,4516.410256,4201.025641,4644.102564,4000.512820,4070.256410
156,4370.769230,4508.717948,4523.589743,4246.153846,4503.076923,4201.025641,4461.025641,4216.410256,4239.487179,4511.282051,4211.282051,4645.128205,3995.897436,4066.666666
157,4369.230769,4511.282051,4536.923076,4241.025641,4506.666666,4207.179487,4461.538461,4217.948717,4240.512820,4515.897435,4213.846153,4646.153846,4002.564102,4073.333333
158,4364.615384,4508.717948,4530.769230,4235.897435,4506.153846,4204.102564,4464.102564,4219.487179,4243.589743,4516.923076,4198.974358,4641.538461,4000.000000,4073.846153
159,4356.923076,4500.000000,4520.512820,4237.435897,4498.461538,4192.307692,4453.846153,4213.846153,4242.051282,4510.256410,4189.743589,4632.820512,3986.153847,4062.564102
160,4361.538461,4505.128205,4533.333333,4244.615384,4495.384615,4188.717948,4447.692307,4214.358974,4241.025641,4512.820512,4200.512820,4637.435897,3993.333334,4065.641025
161,4372.820512,4514.871794,4544.102564,4249.743589,4497.435897,4192.820512,4453.846153,4219.487179,4242.051282,4514.871794,4213.333333,4648.205128,4008.717948,4078.974358
162,4371.282051,4510.769230,4536.410256,4246.153846,4494.871794,4190.256410,4452.820512,4209.743589,4235.384615,4509.230769,4209.230769,4642.564102,4005.128205,4073.846153
163,4362.564102,4506.153846,4530.769230,4234.358974,4495.384615,4188.205128,4450.256410,4199.487179,4228.205128,4508.717948,4202.051282,4632.820512,3992.307693,4061.538461
164,4362.564102,4511.282051,4536.410256,4235.384615,4503.076923,4195.897435,4460.000000,4205.128205,4227.179487,4514.871794,4196.410256,4635.897435,3983.076924,4064.102564
165,4366.153846,4513.846153,4539.487179,4248.205128,4504.102564,4200.512820,4466.153846,4207.179487,4230.256410,4516.923076,4190.769230,4637.948717,3982.564103,4067.179487
166,4362.051282,4504.615384,4526.666666,4249.230769,4492.307692,4189.230769,4451.794871,4198.974358,4232.820512,4506.153846,4196.923076,4629.743589,3983.076924,4061.538461
167,4361.538461,4502.564102,4522.564102,4245.641025,4488.205128,4182.564102,4443.076923,4197.435897,4234.871794,4503.076923,4205.128205,4629.230769,3983.589744,4062.564102
168,4369.230769,4513.846153,4537.435897,4248.205128,4495.384615,4191.282051,4453.846153,4205.641025,4232.820512,4513.333333,4198.461538,4635.897435,3984.615385,4069.743589
169,4369.743589,4520.000000,4539.487179,4246.153846,4496.923076,4196.410256,4458.461538,4208.205128,4228.205128,4517.948717,4192.307692,4636.923076,3984.615385,4067.692307
170,4358.974358,4508.717948,4523.076923,4237.435897,4494.871794,4190.769230,4449.230769,4201.025641,4223.589743,4515.897435,4202.564102,4632.820512,3983.076924,4058.461538
171,4352.307692,4497.948717,4517.948717,4233.846153,4491.282051,4183.076923,4441.025641,4194.358974,4221.538461,4508.717948,4207.179487,4627.179487,3983.589744,4053.846153
172,4360.000000,4503.076923,4529.230769,4237.435897,4485.128205,4180.512820,4443.076923,4200.000000,4230.256410,4504.102564,4205.128205,4629.743589,3992.307693,4055.897435
173,4372.307692,4511.282051,4538.974358,4246.153846,4484.615384,4181.538461,4445.128205,4208.717948,4241.025641,4514.871794,4205.128205,4638.461538,3996.410257,4060.000000
174,4371.794871,4512.307692,4540.000000,4248.205128,4488.717948,4180.512820,4441.538461,4203.076923,4241.025641,4530.769230,4195.384615,4639.487179,3986.666667,4058.974358
175,4365.641025,4511.282051,4537.948717,4238.974358,4486.666666,4179.487179,4438.974358,4195.384615,4237.948717,4529.743589,4193.333333,4634.358974,3980.000000,4056.923076
176,4368.717948,4513.333333,4539.487179,4240.512820,4489.230769,4186.153846,4446.153846,4202.051282,4235.384615,4518.974358,4211.794871,4635.897435,3987.179488,4056.923076
177,4373.846153,4515.897435,4540.000000,4247.692307,4497.435897,4195.384615,4455.384615,4209.230769,4233.846153,4517.435897,4221.025641,4638.974358,3990.256411,4056.410256
178,4369.743589,4514.871794,4536.923076,4248.717948,4498.974358,4194.358974,4456.410256,4206.666666,4236.410256,4522.051282,4212.820512,4634.871794,3983.076924,4057.948717
179,4364.102564,4509.743589,4535.897435,4246.666666,4495.897435,4190.256410,4452.820512,4201.025641,4233.333333,4521.538461,4209.743589,4630.769230,3982.564103,4056.923076
180,4365.641025,4506.666666,4534.358974,4238.974358,4494.358974,4187.692307,4445.128205,4193.846153,4221.025641,4512.307692,4203.589743,4631.282051,3983.076924,4048.205128
181,4369.230769,4513.333333,4537.435897,4235.384615,4491.794871,4189.230769,4444.615384,4195.384615,4223.589743,4514.358974,4193.846153,4635.384615,3980.000000,4048.717948
182,4371.794871,4514.358974,4543.076923,4244.615384,4492.820512,4193.333333,4452.307692,4207.179487,4235.384615,4522.564102,4202.051282,4641.538461,3980.000000,4055.897435
183,4369.230769,4507.179487,4542.051282,4251.794871,4493.846153,4190.256410,4450.256410,4207.692307,4227.179487,4514.358974,4210.256410,4638.461538,3978.974359,4052.307692
184,4365.641025,4509.743589,4537.948717,4247.692307,4490.769230,4185.641025,4441.538461,4196.410256,4217.948717,4509.230769,4204.615384,4631.282051,3973.846154,4047.179487
185,4370.256410,4516.410256,4538.461538,4245.641025,4489.230769,4187.179487,4442.051282,4196.923076,4231.282051,4522.051282,4204.615384,4637.435897,3975.384616,4052.820512
186,4376.410256,4514.358974,4540.000000,4244.615384,4493.333333,4190.256410,4451.282051,4206.666666,4237.948717,4526.153846,4208.717948,4643.076923,3982.051283,4055.384615
187,4375.897435,4513.333333,4537.948717,4242.564102,4496.923076,4192.307692,4455.897435,4207.692307,4231.794871,4514.871794,4200.000000,4635.897435,3978.974359,4047.692307
188,4370.769230,4512.307692,4535.384615,4248.717948,4496.410256,4193.846153,4452.820512,4203.589743,4231.794871,4508.717948,4188.717948,4627.692307,3968.205129,4043.589743
189,4367.692307,4504.615384,4532.820512,4251.794871,4489.743589,4186.666666,4446.666666,4199.487179,4231.282051,4511.282051,4193.846153,4628.205128,3972.820513,4046.153846
190,4370.769230,4512.307692,4535.384615,4248.205128,4487.179487,4183.589743,4446.153846,4199.487179,4228.717948,4516.410256,4209.743589,4638.461538,3988.717949,4055.897435
191,4379.487179,4528.205128,4541.538461,4248.717948,4492.307692,4188.717948,4448.717948,4206.666666,4236.923076,4520.000000,4218.461538,4652.307692,3988.717949,4067.692307
192,4384.102564,4524.102564,4541.538461,4248.205128,4493.333333,4187.692307,4445.641025,4208.717948,4238.974358,4516.923076,4214.358974,4654.358974,3975.384616,4065.128205
193,4378.461538,4513.333333,4540.512820,4246.666666,4487.179487,4185.641025,4443.076923,4204.102564,4227.179487,4512.307692,4208.205128,4646.153846,3972.820513,4056.410256
194,4366.153846,4509.230769,4537.948717,4253.333333,4486.153846,4185.641025,4449.230769,4204.615384,4224.615384,4504.615384,4198.974358,4640.000000,3969.230770,4047.692307
195,4359.487179,4501.538461,4529.743589,4256.410256,4485.128205,4182.564102,4453.333333,4205.128205,4224.102564,4497.435897,4186.666666,4635.897435,3961.538462,4040.000000
196,4366.153846,4506.666666,4528.717948,4248.717948,4487.179487,4185.641025,4450.256410,4201.538461,4220.000000,4502.564102,4187.692307,4634.358974,3967.692308,4043.589743
197,4367.692307,4517.948717,4535.897435,4245.641025,4494.871794,4193.333333,4445.128205,4202.051282,4225.641025,4512.820512,4201.025641,4635.897435,3973.333334,4049.743589
198,4364.615384,4514.871794,4537.435897,4245.128205,4493.846153,4190.769230,4445.128205,4204.102564,4235.384615,4517.948717,4206.153846,4640.000000,3973.333334,4047.179487
199,4373.333333,4512.307692,4537.948717,4248.205128,4491.794871,4189.743589,4449.743589,4205.128205,4237.435897,4516.923076,4205.128205,4646.153846,3982.051283,4047.692307
200,4382.564102,4518.461538,4543.076923,4258.974358,4501.025641,4199.487179,4458.974358,4210.769230,4234.871794,4516.410256,4207.692307,4650.769230,3991.794872,4056.923076
201,4378.461538,4516.923076,4541.538461,4262.051282,4504.615384,4204.102564,4463.076923,4217.435897,4239.487179,4523.589743,4212.307692,4649.230769,3989.743590,4058.974358
202,4374.871794,4514.358974,4537.948717,4257.948717,4498.461538,4198.461538,4457.948717,4215.384615,4245.641025,4530.769230,4218.461538,4646.153846,3985.128206,4054.358974
203,4381.538461,4525.641025,4546.153846,4260.000000,4503.076923,4200.512820,4458.974358,4212.307692,4250.256410,4533.333333,4231.794871,4651.794871,3993.846154,4058.461538
204,4391.282051,4537.435897,4555.897435,4269.230769,4509.743589,4204.615384,4459.487179,4213.846153,4255.384615,4534.358974,4236.410256,4660.512820,4003.076923,4067.692307
205,4394.358974,4534.358974,4555.384615,4276.923076,4508.205128,4201.538461,4449.230769,4210.769230,4253.846153,4532.820512,4224.102564,4659.487179,4005.128205,4068.205128
206,4394.358974,4527.692307,4556.410256,4274.871794,4507.179487,4200.000000,4442.564102,4207.179487,4251.282051,4535.897435,4218.461538,4658.461538,4005.641025,4062.564102
207,4397.435897,4531.282051,4557.435897,4272.820512,4505.641025,4201.538461,4450.769230,4215.897435,4255.384615,4545.641025,4235.384615,4666.666666,4006.153846,4068.717948
208,4396.923076,4537.435897,4547.692307,4272.820512,4501.538461,4201.025641,4461.538461,4225.128205,4257.948717,4551.282051,4245.641025,4666.666666,4002.051282,4074.871794
209,4388.717948,4534.358974,4534.358974,4267.692307,4498.461538,4197.435897,4458.974358,4217.948717,4249.743589,4541.538461,4225.128205,4653.846153,3995.897436,4063.076923
210,4386.153846,4529.230769,4525.128205,4267.179487,4501.538461,4198.461538,4457.435897,4210.256410,4240.000000,4526.153846,4210.256410,4648.717948,3993.333334,4052.307692
211,4390.256410,4530.256410,4520.512820,4274.358974,4507.179487,4204.102564,4463.076923,4218.461538,4242.051282,4527.692307,4216.410256,4649.743589,3993.333334,4057.948717
212,4388.205128,4532.820512,4515.897435,4268.205128,4507.179487,4207.692307,4458.461538,4221.025641,4243.589743,4532.307692,4212.820512,4644.102564,3991.794872,4061.025641
213,4384.615384,4530.256410,4512.307692,4260.000000,4503.076923,4204.102564,4445.128205,4206.666666,4236.410256,4522.564102,4203.589743,4641.538461,3983.076924,4052.307692
214,4387.179487,4528.717948,4516.410256,4269.743589,4503.076923,4202.564102,4442.051282,4203.589743,4235.897435,4521.025641,4208.205128,4645.128205,3977.435898,4050.256410
215,4390.256410,4530.256410,4521.538461,4272.307692,4504.615384,4206.666666,4443.076923,4213.333333,4242.564102,4534.871794,4212.307692,4647.179487,3986.153847,4053.333333
216,4385.641025,4528.717948,4512.820512,4262.051282,4499.487179,4203.076923,4432.307692,4210.256410,4237.435897,4533.333333,4209.230769,4644.615384,3993.846154,4050.256410
217,4383.076923,4527.179487,4505.128205,4261.538461,4497.948717,4196.923076,4424.615384,4196.923076,4233.333333,4526.666666,4213.333333,4643.589743,3989.230770,4047.692307
218,4387.692307,4529.743589,4509.743589,4266.666666,4499.487179,4197.435897,4429.743589,4196.410256,4241.025641,4534.358974,4218.461538,4647.692307,3981.025642,4049.230769
219,4391.282051,4530.256410,4510.256410,4270.769230,4500.000000,4202.564102,4436.923076,4205.128205,4242.051282,4531.794871,4216.923076,4652.820512,3977.948718,4050.256410
220,4387.692307,4528.717948,4506.666666,4276.410256,4502.564102,4203.589743,4439.487179,4213.333333,4237.435897,4525.641025,4222.051282,4655.384615,3985.128206,4052.820512
221,4388.717948,4534.871794,4513.846153,4276.410256,4504.615384,4204.102564,4437.435897,4219.487179,4240.000000,4537.435897,4226.666666,4660.000000,3996.410257,4057.948717
222,4397.948717,4544.102564,4518.974358,4269.230769,4504.102564,4207.179487,4437.435897,4220.000000,4245.128205,4547.179487,4228.205128,4662.564102,3997.435898,4062.051282
223,4402.051282,4544.615384,4512.820512,4272.820512,4502.564102,4207.179487,4437.435897,4217.948717,4248.205128,4538.974358,4229.230769,4661.025641,3990.256411,4062.564102
224,4395.897435,4536.923076,4506.153846,4283.076923,4500.000000,4202.051282,4432.307692,4213.846153,4244.615384,4526.153846,4220.000000,4658.974358,3990.256411,4058.461538
225,4385.641025,4527.179487,4497.435897,4277.948717,4497.948717,4198.974358,4425.641025,4206.153846,4232.820512,4515.384615,4204.102564,4653.846153,3988.205129,4048.205128
226,4382.564102,4523.076923,4490.769230,4267.179487,4501.538461,4200.512820,4426.666666,4202.564102,4231.794871,4515.384615,4201.538461,4649.743589,3980.000000,4040.512820
227,4385.641025,4524.615384,4497.435897,4264.615384,4504.102564,4205.641025,4431.282051,4205.128205,4238.461538,4528.717948,4214.358974,4651.794871,3978.974359,4042.564102
228,4391.794871,4532.820512,4504.102564,4266.666666,4503.589743,4208.717948,4429.230769,4208.717948,4236.410256,4539.487179,4226.666666,4655.384615,3986.153847,4050.769230
229,4399.487179,4542.051282,4509.230769,4277.435897,4508.205128,4208.717948,4428.205128,4213.846153,4242.051282,4548.717948,4229.230769,4660.000000,3994.871795,4061.025641
230,4404.102564,4541.025641,4520.000000,4293.333333,4509.743589,4210.769230,4427.692307,4218.974358,4252.820512,4554.358974,4223.589743,4661.025641,4003.589743,4066.666666
231,4398.974358,4532.307692,4517.948717,4291.794871,4503.589743,4208.717948,4425.128205,4214.358974,4245.641025,4542.564102,4219.487179,4653.333333,3999.487180,4058.461538
232,4389.743589,4529.743589,4500.512820,4272.820512,4501.538461,4204.102564,4425.641025,4208.717948,4231.282051,4530.769230,4219.487179,4645.641025,3987.179488,4043.076923
233,4385.128205,4529.743589,4494.358974,4259.487179,4502.564102,4204.102564,4426.153846,4207.179487,4224.615384,4529.230769,4212.307692,4640.512820,3982.564103,4037.948717
234,4379.487179,4525.128205,4497.948717,4258.974358,4494.871794,4196.923076,4415.897435,4195.897435,4217.435897,4522.051282,4203.076923,4636.410256,3976.923077,4038.461538
235,4384.615384,4525.641025,4502.564102,4272.307692,4492.307692,4190.256410,4406.666666,4190.256410,4220.000000,4522.051282,4205.128205,4645.128205,3974.871795,4043.589743
236,4400.512820,4536.410256,4515.384615,4287.179487,4497.948717,4196.410256,4411.282051,4201.538461,4232.820512,4531.282051,4222.564102,4662.051282,3989.743590,4056.410256
237,4400.512820,4540.512820,4524.615384,4286.666666,4497.435897,4200.000000,4413.846153,4207.179487,4234.358974,4529.230769,4231.794871,4664.102564,3999.487180,4060.512820
238,4385.641025,4530.256410,4517.435897,4274.358974,4494.871794,4193.846153,4409.230769,4201.025641,4224.615384,4524.102564,4214.358974,4651.794871,3988.205129,4051.282051
239,4387.692307,4524.102564,4507.692307,4268.717948,4498.974358,4197.435897,4417.435897,4204.615384,4227.692307,4531.794871,4210.769230,4647.179487,3988.717949,4052.820512
240,4399.487179,4531.794871,4508.205128,4272.307692,4504.615384,4208.205128,4429.230769,4216.923076,4237.948717,4541.025641,4233.333333,4652.307692,4010.256410,4066.153846
241,4395.897435,4530.769230,4512.307692,4276.410256,4502.051282,4209.743589,4431.282051,4216.923076,4235.384615,4533.333333,4221.538461,4650.256410,4017.948717,4068.717948
242,4383.589743,4519.487179,4510.256410,4274.358974,4500.000000,4205.641025,4428.717948,4212.307692,4224.615384,4513.846153,4184.615384,4638.974358,4005.128205,4062.051282
243,4375.897435,4511.282051,4508.205128,4264.102564,4501.538461,4201.025641,4427.179487,4211.794871,4223.589743,4509.230769,4191.282051,4633.333333,4000.000000,4057.948717
244,4370.256410,4510.256410,4508.717948,4257.435897,4496.410256,4197.948717,4424.102564,4211.282051,4232.307692,4521.538461,4214.358974,4633.846153,4008.717948,4061.025641
245,4365.128205,4513.333333,4506.666666,4257.435897,4491.794871,4194.871794,4422.564102,4206.666666,4233.333333,4518.461538,4204.102564,4632.307692,4010.769230,4067.692307
246,4365.128205,4514.871794,4508.717948,4257.948717,4495.384615,4198.461538,4425.641025,4201.025641,4222.051282,4513.333333,4195.384615,4632.820512,4006.153846,4070.256410
247,4369.743589,4512.820512,4517.948717,4258.461538,4500.512820,4203.076923,4425.641025,4201.538461,4220.512820,4523.589743,4202.564102,4636.923076,4007.179487,4070.769230
248,4374.871794,4513.333333,4525.128205,4263.076923,4501.025641,4200.512820,4426.153846,4206.153846,4235.384615,4527.692307,4204.615384,4642.564102,4015.384615,4074.358974
249,4381.025641,4523.589743,4526.666666,4270.769230,4503.589743,4201.025641,4430.256410,4210.769230,4238.461538,4527.692307,4212.307692,4650.256410,4023.589743,4080.000000
250,4380.512820,4526.153846,4525.128205,4269.230769,4501.538461,4204.102564,4429.743589,4205.641025,4224.102564,4525.641025,4219.487179,4650.769230,4025.641025,4080.000000
251,4373.846153,4516.410256,4527.692307,4263.589743,4494.358974,4196.923076,4422.051282,4197.948717,4217.435897,4518.974358,4210.769230,4645.128205,4020.000000,4076.923076
252,4374.871794,4516.923076,4536.410256,4263.589743,4496.410256,4192.307692,4422.564102,4204.102564,4224.615384,4520.000000,4207.692307,4649.743589,4013.333333,4078.461538
253,4381.025641,4524.102564,4540.512820,4264.615384,4497.948717,4194.871794,4425.641025,4211.794871,4227.179487,4527.179487,4209.743589,4655.384615,4009.743589,4081.538461
254,4376.410256,4517.948717,4535.384615,4262.564102,4493.333333,4191.794871,4417.435897,4202.051282,4222.564102,4520.512820,4193.333333,4645.128205,4001.538461,4076.410256
255,4371.794871,4510.256410,4535.384615,4264.615384,4493.333333,4191.282051,4414.871794,4193.333333,4216.923076,4512.307692,4190.256410,4637.948717,3997.435898,4071.282051
256,4376.923076,4514.871794,4536.410256,4266.153846,4498.461538,4198.461538,4427.179487,4195.897435,4210.256410,4513.846153,4207.179487,4642.051282,3996.923077,4070.769230
257,4373.846153,4513.846153,4528.205128,4259.487179,4500.000000,4197.435897,4432.307692,4192.820512,4209.743589,4513.333333,4202.564102,4639.487179,3993.333334,4066.666666
258,4363.589743,4509.743589,4522.051282,4253.333333,4492.820512,4192.307692,4426.666666,4189.230769,4213.333333,4514.358974,4192.307692,4633.846153,3993.333334,4064.615384
259,4361.538461,4509.743589,4520.512820,4249.230769,4486.153846,4190.256410,4427.692307,4193.333333,4214.871794,4517.948717,4195.384615,4632.820512,3992.307693,4065.641025
