,AF3,F7,F3,FC5,T7,P7,O1,O2,P8,T8,FC6,F4,F8,AF4
0,4425.641025,4530.256410,4554.358974,4281.538461,4490.769230,4195.384615,4434.871794,4219.487179,4246.153846,4462.051282,4239.487179,4674.358974,4007.692307,4109.230769
1,4426.153846,4518.974358,4558.461538,4285.641025,4487.692307,4190.256410,4433.333333,4227.179487,4250.769230,4465.128205,4237.948717,4675.897435,4011.794871,4113.333333
2,4429.743589,4522.564102,4556.923076,4294.358974,4490.769230,4196.410256,4432.307692,4225.128205,4248.205128,4457.948717,4233.846153,4670.769230,4004.102564,4109.743589
3,4428.205128,4527.179487,4551.794871,4288.717948,4489.743589,4201.025641,4433.333333,4217.435897,4238.974358,4456.923076,4229.743589,4664.102564,3995.384616,4106.666666
4,4422.564102,4524.102564,4552.820512,4281.538461,4485.641025,4197.435897,4440.512820,4211.794871,4232.820512,4458.461538,4226.153846,4659.487179,3991.794872,4105.641025
5,4415.384615,4516.410256,4550.769230,4277.435897,4487.692307,4197.948717,4441.538461,4203.076923,4226.666666,4455.897435,4221.025641,4656.410256,3991.282052,4103.589743
6,4412.820512,4511.282051,4542.564102,4269.743589,4493.333333,4202.564102,4432.820512,4190.256410,4218.461538,4454.871794,4209.743589,4653.333333,3988.717949,4101.538461
7,4411.794871,4512.820512,4537.948717,4261.538461,4486.666666,4195.384615,4426.666666,4181.025641,4211.282051,4457.948717,4199.487179,4647.692307,3981.025642,4091.794871
8,4405.128205,4511.282051,4533.333333,4261.025641,4475.384615,4188.717948,4425.128205,4182.564102,4208.717948,4462.051282,4196.923076,4642.564102,3972.820513,4083.076923
9,4407.179487,4514.358974,4537.948717,4266.153846,4483.589743,4197.435897,4432.820512,4197.948717,4223.589743,4487.692307,4206.153846,4648.717948,3981.025642,4094.358974
10,4423.076923,4532.307692,4552.307692,4270.256410,4496.923076,4204.615384,4442.051282,4216.410256,4241.025641,4522.051282,4213.333333,4664.102564,3996.410257,4111.282051
11,4429.743589,4541.025641,4556.923076,4266.153846,4495.384615,4201.025641,4434.358974,4217.435897,4240.000000,4531.282051,4207.179487,4667.692307,3998.974359,4111.282051
12,4425.128205,4535.384615,4553.333333,4258.974358,4489.230769,4198.974358,4428.717948,4213.333333,4235.384615,4529.230769,4204.102564,4664.102564,3998.974359,4107.179487
13,4425.128205,4534.871794,4558.974358,4260.512820,4494.871794,4201.025641,4441.538461,4219.487179,4243.076923,4538.461538,4208.205128,4667.179487,4006.666666,4110.769230
14,4428.717948,4544.102564,4562.564102,4264.615384,4503.076923,4205.641025,4446.666666,4221.538461,4252.820512,4551.282051,4203.076923,4673.333333,4014.358974,4112.307692
15,4430.769230,4551.282051,4564.615384,4266.666666,4507.179487,4213.333333,4442.051282,4220.512820,4254.358974,4554.871794,4200.512820,4677.435897,4017.948717,4111.282051
16,4425.128205,4547.692307,4564.615384,4263.076923,4502.564102,4210.769230,4445.641025,4220.000000,4246.666666,4549.743589,4203.589743,4673.846153,4014.358974,4107.692307
17,4405.128205,4533.333333,4550.256410,4248.205128,4485.641025,4198.461538,4442.564102,4206.666666,4228.205128,4534.358974,4188.205128,4657.435897,3995.897436,4091.794871
18,4387.179487,4519.487179,4536.410256,4235.897435,4472.820512,4196.923076,4432.307692,4188.205128,4210.769230,4518.461538,4168.717948,4642.564102,3969.743590,4068.717948
19,4380.000000,4508.205128,4532.307692,4232.307692,4476.923076,4201.025641,4434.358974,4183.589743,4206.666666,4511.282051,4160.512820,4635.897435,3955.897436,4054.358974
20,4377.948717,4505.641025,4531.282051,4231.282051,4488.205128,4200.512820,4440.512820,4186.153846,4209.230769,4504.615384,4149.743589,4631.282051,3958.974359,4054.871794
21,4380.512820,4518.461538,4532.307692,4235.897435,4488.717948,4201.538461,4441.025641,4190.769230,4212.307692,4506.666666,4148.205128,4629.743589,3969.230770,4061.025641
22,4390.256410,4533.333333,4540.512820,4249.230769,4489.230769,4209.230769,4441.538461,4204.102564,4226.666666,4527.692307,4168.205128,4640.512820,3984.102565,4071.282051
23,4405.641025,4543.589743,4554.871794,4262.564102,4504.102564,4218.974358,4446.153846,4218.974358,4249.230769,4553.846153,4188.205128,4659.487179,4003.589743,4085.641025
24,4415.384615,4548.717948,4567.692307,4269.743589,4515.384615,4220.000000,4447.179487,4221.538461,4253.846153,4555.384615,4193.333333,4672.307692,4010.769230,4092.307692
25,4413.846153,4544.102564,4564.615384,4266.153846,4508.205128,4214.871794,4445.128205,4215.897435,4244.102564,4545.128205,4196.923076,4672.820512,4004.102564,4089.743589
26,4406.153846,4539.487179,4554.358974,4252.307692,4496.923076,4214.871794,4450.256410,4214.871794,4245.641025,4552.307692,4202.051282,4668.717948,4002.051282,4081.025641
27,4398.974358,4537.948717,4553.333333,4245.128205,4492.307692,4216.410256,4460.512820,4222.051282,4249.743589,4560.512820,4199.487179,4665.641025,4001.025641,4077.435897
28,4399.487179,4534.358974,4553.333333,4254.358974,4493.333333,4215.897435,4461.538461,4230.769230,4247.692307,4555.384615,4195.384615,4663.076923,4003.589743,4083.076923
29,4409.743589,4542.051282,4556.410256,4265.128205,4500.512820,4218.461538,4458.461538,4233.333333,4254.871794,4551.282051,4205.641025,4670.256410,4016.410256,4094.358974
30,4417.948717,4554.358974,4568.205128,4266.666666,4507.692307,4221.538461,4460.000000,4232.820512,4261.025641,4556.410256,4214.358974,4683.076923,4022.564102,4100.000000
31,4413.846153,4549.743589,4569.230769,4265.128205,4508.205128,4220.000000,4458.974358,4232.307692,4254.358974,4555.384615,4205.641025,4680.512820,4013.846153,4090.769230
32,4404.102564,4537.435897,4557.435897,4263.076923,4503.589743,4216.923076,4455.897435,4231.794871,4244.102564,4544.102564,4197.435897,4666.153846,4001.025641,4075.384615
33,4398.461538,4537.948717,4555.897435,4261.538461,4503.589743,4218.461538,4457.435897,4226.666666,4243.076923,4536.923076,4195.897435,4663.589743,3996.923077,4072.820512
34,4397.948717,4543.076923,4561.538461,4264.102564,4508.717948,4222.564102,4458.974358,4221.538461,4246.666666,4546.153846,4186.153846,4669.230769,4002.564102,4080.000000
35,4397.435897,4538.461538,4556.410256,4261.025641,4502.051282,4220.512820,4458.974358,4215.897435,4242.564102,4550.256410,4179.487179,4665.128205,4002.051282,4073.333333
36,4399.487179,4536.410256,4554.358974,4257.948717,4493.333333,4215.897435,4456.410256,4215.384615,4240.512820,4538.461538,4195.384615,4664.102564,4000.000000,4067.692307
37,4411.282051,4549.230769,4567.692307,4269.743589,4504.615384,4217.948717,4456.410256,4224.615384,4247.179487,4541.538461,4218.974358,4677.948717,4014.871794,4082.564102
38,4415.897435,4553.333333,4574.871794,4273.846153,4507.692307,4217.948717,4453.333333,4230.769230,4253.333333,4555.897435,4218.974358,4683.589743,4023.589743,4093.846153
39,4409.230769,4546.153846,4565.128205,4264.615384,4488.717948,4213.846153,4448.205128,4229.230769,4250.769230,4550.256410,4208.717948,4676.923076,4010.256410,4086.666666
40,4410.256410,4548.717948,4560.000000,4269.743589,4491.282051,4218.461538,4453.846153,4231.282051,4247.179487,4538.461538,4212.307692,4677.948717,4009.743589,4078.974358
41,4409.230769,4547.179487,4560.512820,4275.897435,4510.256410,4222.564102,4464.102564,4234.871794,4247.179487,4537.435897,4211.794871,4676.410256,4017.435897,4078.974358
42,4395.897435,4525.641025,4555.384615,4262.051282,4508.205128,4221.025641,4462.564102,4233.333333,4247.692307,4532.307692,4201.025641,4666.666666,4006.666666,4076.410256
43,4389.743589,4516.923076,4550.769230,4256.410256,4497.948717,4217.435897,4458.461538,4231.794871,4243.076923,4520.000000,4196.923076,4662.051282,3996.923077,4067.179487
44,4394.871794,4533.333333,4548.205128,4267.179487,4495.384615,4215.897435,4458.974358,4230.256410,4233.333333,4513.846153,4197.435897,4662.564102,3997.948718,4061.025641
45,4397.435897,4543.076923,4548.205128,4266.666666,4493.333333,4216.410256,4454.871794,4229.743589,4235.897435,4515.897435,4195.384615,4660.512820,3993.846154,4066.666666
46,4400.512820,4540.000000,4556.923076,4262.564102,4493.846153,4213.333333,4449.743589,4233.846153,4247.692307,4524.615384,4198.461538,4666.153846,3996.410257,4076.410256
47,4405.128205,4537.948717,4562.564102,4270.769230,4494.358974,4206.666666,4446.153846,4236.923076,4251.282051,4530.256410,4208.717948,4674.358974,4008.717948,4074.871794
48,4405.641025,4538.974358,4558.461538,4273.846153,4490.256410,4205.128205,4444.615384,4233.846153,4249.743589,4525.641025,4212.307692,4671.794871,4011.794871,4073.846153
49,4401.025641,4541.538461,4552.820512,4266.666666,4491.794871,4207.179487,4446.153846,4226.666666,4244.615384,4522.564102,4207.179487,4663.076923,4006.666666,4078.974358
50,4390.769230,4536.923076,4546.666666,4262.051282,4493.333333,4202.564102,4445.641025,4218.974358,4232.820512,4523.076923,4196.923076,4653.846153,3997.435898,4071.794871
51,4382.564102,4526.153846,4535.897435,4261.025641,4485.641025,4198.974358,4441.538461,4206.153846,4221.538461,4509.230769,4187.179487,4644.102564,3988.205129,4058.461538
52,4389.230769,4524.615384,4535.384615,4262.051282,4482.051282,4201.538461,4441.538461,4200.512820,4216.923076,4495.384615,4184.102564,4643.589743,3987.179488,4058.974358
53,4400.000000,4535.897435,4548.205128,4269.743589,4490.769230,4202.051282,4444.615384,4207.179487,4216.923076,4500.000000,4190.256410,4655.384615,3993.333334,4066.666666
54,4397.948717,4538.461538,4550.769230,4272.820512,4493.846153,4202.051282,4443.589743,4208.717948,4214.871794,4501.025641,4193.846153,4658.974358,3990.769231,4067.692307
55,4393.846153,4535.384615,4542.051282,4264.615384,4485.641025,4199.487179,4441.538461,4199.487179,4208.205128,4488.717948,4183.589743,4650.256410,3982.051283,4063.076923
56,4394.871794,4532.820512,4542.564102,4262.564102,4485.641025,4198.974358,4441.538461,4195.897435,4208.205128,4484.102564,4177.435897,4646.666666,3977.435898,4059.487179
57,4395.384615,4528.717948,4545.641025,4266.666666,4494.358974,4208.205128,4448.205128,4204.102564,4215.384615,4487.692307,4186.153846,4647.179487,3975.384616,4058.461538
58,4395.384615,4531.282051,4544.102564,4266.153846,4495.897435,4216.923076,4457.435897,4212.820512,4222.051282,4495.384615,4191.794871,4649.230769,3981.025642,4058.461538
59,4397.435897,4534.871794,4546.666666,4265.641025,4492.820512,4217.435897,4460.512820,4219.487179,4230.769230,4501.025641,4187.179487,4651.282051,3990.769231,4062.564102
60,4395.897435,4533.333333,4545.128205,4265.641025,4492.820512,4215.897435,4457.948717,4223.076923,4235.897435,4494.358974,4188.205128,4651.282051,3991.282052,4070.256410
61,4395.384615,4531.794871,4540.512820,4264.615384,4492.307692,4213.333333,4457.435897,4222.051282,4231.794871,4491.282051,4198.974358,4651.794871,3989.230770,4071.794871
62,4398.974358,4529.230769,4546.666666,4265.641025,4492.307692,4210.769230,4458.974358,4227.692307,4236.410256,4497.948717,4204.102564,4654.871794,3991.794872,4068.717948
63,4397.948717,4523.076923,4548.205128,4268.717948,4494.871794,4214.358974,4460.512820,4233.333333,4247.179487,4495.384615,4200.000000,4654.358974,3990.769231,4067.179487
64,4389.743589,4523.076923,4538.461538,4265.128205,4490.769230,4214.358974,4460.000000,4228.205128,4240.512820,4489.230769,4192.307692,4647.692307,3984.615385,4064.102564
65,4381.538461,4525.128205,4530.769230,4253.333333,4486.153846,4205.641025,4457.948717,4222.051282,4230.256410,4492.307692,4182.051282,4640.512820,3977.435898,4055.384615
66,4374.871794,4515.897435,4527.179487,4244.615384,4486.666666,4201.538461,4455.384615,4221.025641,4228.205128,4490.256410,4178.461538,4637.948717,3969.743590,4045.128205
67,4372.820512,4506.153846,4527.692307,4246.153846,4484.615384,4203.589743,4450.769230,4219.487179,4226.153846,4478.974358,4187.692307,4640.000000,3967.179488,4042.051282
68,4375.897435,4504.102564,4529.230769,4254.358974,4480.512820,4202.564102,4443.076923,4212.820512,4222.564102,4468.717948,4188.205128,4641.025641,3974.358975,4053.333333
69,4380.512820,4509.230769,4531.794871,4253.333333,4484.102564,4201.538461,4446.153846,4214.358974,4220.512820,4469.743589,4185.641025,4643.076923,3986.666667,4061.538461
70,4383.076923,4509.743589,4533.846153,4250.256410,4492.307692,4203.589743,4456.410256,4223.589743,4226.153846,4478.974358,4194.358974,4646.666666,3992.307693,4053.846153
71,4381.025641,4504.615384,4529.230769,4254.358974,4486.666666,4203.076923,4452.820512,4224.102564,4232.820512,4480.000000,4194.358974,4642.051282,3981.025642,4049.230769
72,4381.538461,4511.794871,4526.153846,4257.435897,4477.435897,4201.538461,4442.051282,4215.897435,4225.128205,4473.333333,4184.615384,4635.384615,3967.179488,4055.384615
73,4392.307692,4521.538461,4533.846153,4257.435897,4479.487179,4201.538461,4442.564102,4213.846153,4217.435897,4472.820512,4185.128205,4640.000000,3971.794872,4061.538461
74,4400.000000,4522.051282,4538.974358,4261.538461,4482.051282,4200.512820,4451.282051,4220.512820,4228.205128,4476.923076,4189.230769,4646.153846,3983.589744,4065.641025
75,4396.923076,4521.025641,4536.923076,4266.153846,4480.512820,4205.641025,4456.923076,4221.025641,4236.410256,4476.410256,4190.256410,4648.717948,3983.589744,4067.179487
76,4395.384615,4520.512820,4538.461538,4263.589743,4487.692307,4212.820512,4459.487179,4219.487179,4230.769230,4474.871794,4195.384615,4650.256410,3976.923077,4065.641025
77,4394.871794,4511.794871,4537.435897,4263.589743,4491.794871,4208.205128,4458.974358,4219.487179,4232.307692,4471.794871,4194.358974,4646.666666,3974.871795,4067.692307
78,4391.282051,4505.641025,4536.923076,4263.076923,4479.487179,4201.025641,4455.384615,4216.923076,4232.307692,4467.179487,4184.102564,4642.051282,3974.871795,4068.717948
79,4393.333333,4506.153846,4538.974358,4258.974358,4471.282051,4202.051282,4455.384615,4215.897435,4229.743589,4467.179487,4186.153846,4646.153846,3972.820513,4061.538461
80,4397.435897,4511.794871,4539.487179,4265.641025,4481.025641,4204.615384,4459.487179,4219.487179,4234.358974,4474.871794,4200.512820,4651.282051,3971.794872,4058.461538
81,4393.333333,4518.974358,4540.000000,4276.410256,4489.230769,4203.076923,4457.948717,4221.025641,4231.282051,4473.333333,4201.025641,4644.615384,3971.794872,4063.589743
82,4384.102564,4512.307692,4535.384615,4269.230769,4482.564102,4202.564102,4444.102564,4209.743589,4215.384615,4455.384615,4186.666666,4634.358974,3966.666667,4063.589743
83,4383.589743,4504.615384,4529.230769,4261.025641,4476.410256,4202.051282,4443.076923,4201.538461,4213.846153,4451.794871,4179.487179,4636.410256,3966.666667,4058.461538
84,4396.410256,4516.923076,4531.794871,4271.282051,4485.128205,4204.615384,4455.897435,4214.358974,4224.615384,4464.102564,4185.641025,4646.666666,3971.282052,4059.487179
85,4402.564102,4528.205128,4538.974358,4275.897435,4495.897435,4207.692307,4457.435897,4221.538461,4225.641025,4463.589743,4192.307692,4648.205128,3963.589744,4061.538461
86,4395.897435,4517.948717,4532.820512,4266.153846,4489.743589,4203.076923,4446.153846,4206.666666,4219.487179,4449.743589,4187.692307,4637.948717,3956.410257,4061.025641
87,4384.102564,4505.641025,4521.025641,4256.923076,4475.897435,4197.948717,4441.025641,4196.410256,4209.743589,4437.435897,4176.923076,4629.230769,3962.051283,4054.358974
88,4378.461538,4503.589743,4520.512820,4255.897435,4476.923076,4198.974358,4443.589743,4200.512820,4203.076923,4432.307692,4175.384615,4627.692307,3963.076924,4044.102564
89,4384.615384,4506.666666,4524.102564,4263.076923,4483.589743,4201.025641,4444.102564,4203.076923,4211.794871,4438.974358,4184.102564,4629.230769,3953.846154,4048.205128
90,4391.794871,4508.717948,4523.589743,4269.230769,4482.051282,4201.538461,4444.102564,4203.589743,4222.051282,4450.769230,4189.743589,4630.769230,3956.410257,4061.538461
91,4389.230769,4507.692307,4523.589743,4266.153846,4478.461538,4202.051282,4444.615384,4203.589743,4218.461538,4449.743589,4188.717948,4631.794871,3966.666667,4063.076923
92,4387.179487,4507.692307,4524.102564,4263.076923,4480.000000,4200.512820,4444.102564,4201.538461,4214.871794,4441.025641,4188.205128,4630.769230,3968.205129,4058.461538
93,4389.230769,4506.666666,4521.025641,4263.076923,4476.410256,4197.435897,4443.589743,4200.512820,4217.948717,4436.410256,4186.153846,4629.743589,3960.000000,4058.461538
94,4386.153846,4504.615384,4517.435897,4261.538461,4472.307692,4197.948717,4444.102564,4200.000000,4214.871794,4439.487179,4183.076923,4630.769230,3950.256411,4057.435897
95,4387.692307,4507.179487,4519.487179,4263.076923,4483.076923,4201.025641,4446.153846,4200.000000,4212.820512,4447.179487,4186.666666,4634.871794,3953.846154,4058.974358
96,4394.871794,4510.769230,4524.615384,4267.692307,4492.820512,4203.589743,4447.692307,4203.589743,4221.538461,4447.692307,4189.743589,4635.897435,3965.641026,4064.615384
97,4397.948717,4508.717948,4526.153846,4269.230769,4483.589743,4201.538461,4445.641025,4202.564102,4224.102564,4436.410256,4185.128205,4634.871794,3960.000000,4061.538461
98,4395.897435,4507.692307,4523.076923,4267.692307,4474.871794,4198.461538,4444.102564,4201.025641,4217.948717,4433.846153,4184.102564,4635.384615,3948.717949,4057.948717
99,4396.923076,4514.358974,4525.641025,4269.743589,4484.102564,4203.589743,4445.128205,4207.692307,4223.589743,4443.589743,4197.435897,4636.923076,3960.512821,4067.692307
100,4402.564102,4515.384615,4533.333333,4278.974358,4495.897435,4207.179487,4447.179487,4211.282051,4232.820512,4447.692307,4207.692307,4638.974358,3979.487180,4076.923076
101,4402.564102,4508.205128,4529.743589,4281.025641,4493.846153,4204.102564,4446.153846,4204.615384,4226.153846,4444.102564,4202.564102,4640.512820,3974.358975,4068.717948
102,4396.410256,4504.615384,4522.051282,4272.820512,4485.128205,4201.538461,4443.589743,4200.512820,4218.461538,4438.461538,4190.769230,4634.358974,3958.461539,4056.923076
103,4395.384615,4507.179487,4522.051282,4271.282051,4478.461538,4200.512820,4441.538461,4200.512820,4217.435897,4434.358974,4184.102564,4628.205128,3954.358975,4058.974358
104,4396.410256,4514.358974,4523.076923,4275.384615,4480.000000,4198.461538,4442.051282,4198.461538,4215.384615,4436.410256,4192.307692,4633.846153,3962.051283,4068.717948
105,4398.974358,4522.051282,4525.128205,4276.410256,4488.717948,4200.512820,4443.589743,4201.025641,4217.435897,4443.076923,4202.564102,4642.564102,3974.358975,4076.923076
106,4409.230769,4525.128205,4529.743589,4280.000000,4493.333333,4201.538461,4442.564102,4204.615384,4224.615384,4447.179487,4204.102564,4642.051282,3977.948718,4078.974358
107,4412.307692,4524.102564,4527.692307,4280.512820,4487.179487,4198.461538,4441.025641,4201.025641,4227.692307,4453.846153,4200.000000,4643.076923,3972.307693,4077.948717
108,4403.589743,4520.512820,4522.564102,4270.769230,4477.435897,4196.923076,4441.538461,4204.102564,4229.230769,4465.128205,4195.384615,4645.641025,3972.820513,4078.461538
109,4403.589743,4521.025641,4525.128205,4264.102564,4480.512820,4198.974358,4443.076923,4213.333333,4230.256410,4476.410256,4195.897435,4643.076923,3977.948718,4078.974358
110,4412.307692,4522.564102,4529.743589,4266.153846,4494.358974,4201.538461,4443.589743,4215.384615,4230.256410,4487.179487,4195.384615,4638.461538,3977.948718,4079.487179
111,4412.820512,4524.615384,4528.205128,4267.179487,4496.410256,4203.076923,4443.076923,4213.846153,4229.230769,4495.897435,4188.205128,4639.487179,3972.820513,4077.435897
112,4410.769230,4526.666666,4530.256410,4261.025641,4491.282051,4202.564102,4442.564102,4214.871794,4231.282051,4502.564102,4184.615384,4641.538461,3968.717949,4077.948717
113,4411.282051,4528.205128,4531.794871,4253.333333,4492.820512,4201.538461,4443.076923,4214.358974,4231.282051,4510.769230,4183.076923,4638.461538,3972.820513,4081.538461
114,4408.717948,4533.846153,4530.769230,4252.307692,4493.333333,4202.051282,4445.641025,4212.820512,4229.743589,4518.461538,4172.820512,4637.948717,3981.538462,4083.076923
115,4406.153846,4535.384615,4534.358974,4253.333333,4490.769230,4200.512820,4445.641025,4215.897435,4231.282051,4523.076923,4167.692307,4641.025641,3974.358975,4078.974358
116,4403.589743,4530.769230,4537.435897,4248.717948,4489.743589,4202.564102,4444.102564,4215.897435,4229.743589,4524.615384,4169.743589,4639.487179,3960.512821,4070.256410
117,4402.051282,4533.846153,4536.410256,4246.153846,4490.769230,4208.717948,4450.769230,4214.871794,4228.205128,4528.205128,4167.692307,4639.487179,3965.641026,4067.692307
118,4403.589743,4540.512820,4536.410256,4249.743589,4494.358974,4208.717948,4455.384615,4215.897435,4231.794871,4530.769230,4168.717948,4644.615384,3978.461539,4074.358974
119,4404.102564,4537.948717,4540.512820,4253.333333,4493.333333,4208.717948,4447.692307,4215.897435,4232.820512,4531.282051,4173.333333,4644.615384,3978.461539,4078.461538
120,4397.435897,4531.282051,4538.461538,4251.282051,4489.743589,4211.282051,4442.051282,4211.794871,4228.717948,4538.974358,4167.179487,4641.538461,3972.820513,4068.205128
121,4396.923076,4536.410256,4537.948717,4252.820512,4493.846153,4207.692307,4446.666666,4213.846153,4231.282051,4543.076923,4162.564102,4647.179487,3972.820513,4062.051282
122,4399.487179,4536.410256,4541.025641,4250.256410,4492.307692,4202.051282,4448.205128,4215.897435,4229.743589,4528.205128,4162.051282,4646.666666,3975.384616,4067.179487
123,4390.769230,4524.102564,4533.333333,4236.410256,4477.435897,4199.487179,4442.564102,4204.615384,4214.871794,4513.333333,4152.307692,4630.769230,3969.230770,4060.000000
124,4387.692307,4522.564102,4528.205128,4236.923076,4481.538461,4204.102564,4442.564102,4202.051282,4216.410256,4523.589743,4152.820512,4628.205128,3963.076924,4052.307692
125,4397.948717,4537.435897,4537.435897,4253.333333,4499.487179,4214.358974,4452.307692,4214.871794,4233.846153,4535.384615,4167.692307,4643.589743,3967.179488,4058.974358
126,4400.512820,4544.102564,4542.051282,4253.333333,4503.076923,4218.974358,4461.025641,4217.948717,4234.358974,4528.205128,4168.717948,4649.743589,3976.410257,4062.051282
127,4395.897435,4536.923076,4539.487179,4245.641025,4498.974358,4213.846153,4458.974358,4213.846153,4227.692307,4526.666666,4160.512820,4647.692307,3981.538462,4058.974358
128,4400.512820,4536.923076,4544.615384,4251.794871,4496.410256,4214.358974,4455.384615,4217.948717,4233.333333,4538.974358,4167.692307,4653.333333,3984.102565,4064.615384
129,4406.153846,4542.564102,4547.692307,4258.461538,4494.358974,4218.461538,4459.487179,4222.564102,4241.538461,4544.102564,4173.846153,4657.948717,3988.205129,4070.256410
130,4401.538461,4541.538461,4540.512820,4257.435897,4493.333333,4215.384615,4458.974358,4218.461538,4237.948717,4534.358974,4171.794871,4651.794871,3982.051283,4062.564102
131,4396.410256,4536.410256,4535.897435,4251.794871,4489.230769,4213.333333,4447.692307,4214.358974,4231.282051,4526.153846,4171.282051,4646.666666,3969.230770,4052.307692
132,4395.384615,4537.948717,4540.000000,4249.743589,4491.282051,4213.846153,4439.487179,4216.923076,4233.846153,4534.871794,4172.820512,4648.717948,3977.435898,4057.948717
133,4406.666666,4549.230769,4550.256410,4262.564102,4507.179487,4216.923076,4448.205128,4227.692307,4249.230769,4554.358974,4182.051282,4661.025641,4006.153846,4077.435897
134,4415.897435,4556.923076,4553.333333,4270.256410,4514.358974,4223.076923,4459.487179,4235.897435,4256.923076,4559.487179,4191.282051,4669.230769,4012.307692,4079.487179
135,4409.743589,4550.256410,4549.230769,4263.076923,4503.589743,4226.666666,4457.435897,4229.743589,4249.743589,4545.128205,4186.666666,4660.512820,3991.282052,4062.051282
136,4402.564102,4543.589743,4547.692307,4262.564102,4499.487179,4222.051282,4455.384615,4226.666666,4246.666666,4536.923076,4183.076923,4653.846153,3985.128206,4056.923076
137,4402.051282,4544.102564,4544.102564,4266.666666,4502.564102,4217.435897,4458.461538,4231.794871,4249.743589,4538.974358,4184.615384,4658.974358,3989.743590,4062.564102
138,4398.974358,4542.564102,4542.564102,4263.589743,4506.666666,4217.435897,4457.948717,4226.153846,4246.666666,4540.000000,4176.410256,4658.461538,3986.153847,4061.538461
139,4400.512820,4546.153846,4548.205128,4269.230769,4508.717948,4220.512820,4456.923076,4221.025641,4242.051282,4536.923076,4170.769230,4653.333333,3986.153847,4059.487179
140,4408.205128,4552.307692,4549.743589,4280.000000,4508.205128,4223.589743,4457.948717,4227.692307,4244.102564,4534.358974,4182.564102,4657.948717,3991.794872,4057.948717
141,4405.641025,4545.641025,4548.205128,4272.820512,4506.666666,4222.564102,4457.948717,4226.666666,4245.128205,4538.461538,4190.256410,4663.076923,3992.820513,4058.461538
142,4404.615384,4544.102564,4552.820512,4268.717948,4509.743589,4219.487179,4460.512820,4217.435897,4245.641025,4539.487179,4185.641025,4663.076923,3996.923077,4065.641025
143,4409.743589,4551.794871,4556.923076,4279.487179,4508.717948,4218.974358,4456.410256,4217.435897,4246.153846,4526.153846,4185.128205,4664.102564,4000.512820,4066.666666
144,4404.102564,4545.641025,4549.743589,4274.871794,4496.923076,4214.358974,4443.076923,4218.974358,4237.948717,4512.820512,4190.256410,4661.025641,3993.333334,4058.974358
145,4396.923076,4532.820512,4542.051282,4263.589743,4489.230769,4206.666666,4440.512820,4215.897435,4230.256410,4521.538461,4188.717948,4656.923076,3987.179488,4057.435897
146,4396.923076,4534.871794,4541.538461,4267.692307,4490.256410,4200.512820,4443.076923,4216.410256,4233.333333,4524.615384,4181.538461,4655.897435,3985.128206,4058.461538
147,4397.435897,4540.512820,4543.076923,4273.333333,4493.333333,4203.076923,4436.923076,4215.384615,4234.358974,4511.282051,4180.512820,4655.897435,3986.153847,4058.974358
148,4403.076923,4541.025641,4545.128205,4269.230769,4500.000000,4210.256410,4436.923076,4215.897435,4233.333333,4512.307692,4187.179487,4657.435897,3993.846154,4063.589743
149,4408.205128,4538.974358,4547.179487,4267.692307,4498.974358,4209.743589,4444.615384,4218.974358,4234.871794,4518.974358,4188.717948,4656.410256,3994.871795,4063.076923
150,4404.102564,4537.948717,4544.102564,4268.717948,4491.282051,4203.589743,4442.564102,4215.897435,4232.820512,4507.692307,4186.666666,4652.307692,3986.666667,4056.410256
151,4400.000000,4535.897435,4537.948717,4269.230769,4491.282051,4203.076923,4436.410256,4212.307692,4231.282051,4502.051282,4180.512820,4650.769230,3982.564103,4055.384615
152,4398.461538,4530.769230,4536.410256,4267.692307,4493.333333,4203.589743,4433.333333,4213.846153,4231.282051,4508.717948,4174.358974,4649.230769,3977.435898,4056.923076
153,4400.512820,4530.256410,4540.512820,4263.589743,4489.230769,4197.948717,4433.333333,4213.846153,4228.717948,4507.692307,4176.410256,4649.743589,3975.384616,4055.897435
154,4405.128205,4536.410256,4545.641025,4266.153846,4490.256410,4201.025641,4440.000000,4213.846153,4228.717948,4504.615384,4184.102564,4655.384615,3987.179488,4057.948717
155,4401.025641,4538.461538,4544.102564,4267.179487,4492.307692,4209.230769,4443.076923,4216.410256,4233.333333,4507.692307,4187.692307,4656.410256,3990.256411,4058.974358
156,4393.846153,4532.820512,4536.923076,4263.076923,4491.794871,4207.692307,4441.538461,4217.435897,4235.384615,4511.282051,4188.717948,4650.256410,3981.025642,4057.948717
157,4398.974358,4531.794871,4540.000000,4266.666666,4495.384615,4209.743589,4443.076923,4218.461538,4236.410256,4520.000000,4189.230769,4651.282051,3985.128206,4060.000000
158,4403.589743,4532.307692,4542.564102,4270.256410,4492.820512,4210.769230,4445.641025,4217.948717,4235.384615,4520.512820,4181.538461,4652.820512,3989.743590,4054.871794
159,4400.000000,4531.282051,4537.435897,4266.153846,4486.153846,4205.128205,4443.076923,4215.897435,4231.282051,4510.769230,4182.051282,4646.153846,3984.615385,4049.743589
160,4397.948717,4534.871794,4538.461538,4265.128205,4496.410256,4209.743589,4443.589743,4216.410256,4236.410256,4506.666666,4196.410256,4646.666666,3985.128206,4055.384615
161,4397.435897,4535.897435,4542.051282,4270.256410,4507.692307,4218.461538,4446.153846,4219.487179,4242.051282,4509.743589,4198.461538,4654.358974,3989.743590,4062.051282
162,4398.974358,4530.256410,4539.487179,4273.846153,4496.923076,4208.717948,4444.102564,4217.435897,4237.948717,4510.256410,4191.794871,4655.384615,3989.230770,4060.512820
163,4401.538461,4532.307692,4540.000000,4277.948717,4487.179487,4197.948717,4441.025641,4213.846153,4232.820512,4507.692307,4192.307692,4651.282051,3991.794872,4060.512820
164,4404.102564,4542.564102,4542.564102,4279.487179,4494.871794,4202.051282,4440.512820,4213.333333,4232.820512,4505.128205,4195.384615,4650.256410,3993.846154,4060.512820
165,4408.205128,4540.000000,4540.000000,4276.410256,4497.435897,4209.230769,4442.564102,4218.461538,4239.487179,4504.102564,4193.846153,4651.794871,3985.641026,4060.512820
166,4412.307692,4536.923076,4543.589743,4276.923076,4491.794871,4211.794871,4445.641025,4224.102564,4246.666666,4506.153846,4198.974358,4653.333333,3986.153847,4069.743589
167,4412.307692,4541.538461,4550.256410,4281.025641,4492.307692,4206.666666,4443.589743,4222.564102,4240.000000,4509.743589,4202.051282,4655.384615,3997.435898,4074.871794
168,4411.282051,4541.538461,4545.128205,4278.461538,4492.820512,4198.974358,4435.384615,4216.410256,4231.794871,4504.102564,4198.461538,4653.333333,3996.923077,4066.666666
169,4411.794871,4535.384615,4539.487179,4272.307692,4490.256410,4201.025641,4434.358974,4217.435897,4242.051282,4493.333333,4202.051282,4652.820512,3990.256411,4062.564102
170,4407.179487,4527.179487,4541.025641,4267.692307,4490.769230,4203.076923,4442.051282,4221.538461,4249.743589,4498.974358,4203.076923,4654.358974,3993.333334,4072.307692
171,4397.435897,4522.564102,4542.051282,4262.564102,4491.794871,4203.076923,4443.076923,4217.435897,4238.974358,4506.666666,4197.435897,4651.282051,3998.461539,4072.307692
172,4393.846153,4524.615384,4535.384615,4264.615384,4491.282051,4204.102564,4439.487179,4216.923076,4230.769230,4500.000000,4199.487179,4646.666666,3991.282052,4056.923076
173,4392.307692,4523.589743,4526.153846,4271.282051,4488.205128,4200.000000,4434.358974,4216.410256,4229.230769,4487.179487,4200.000000,4640.512820,3974.871795,4049.230769
174,4390.256410,4520.000000,4527.692307,4269.743589,4488.205128,4197.948717,4429.230769,4206.153846,4228.205128,4480.512820,4196.410256,4634.358974,3971.282052,4053.333333
175,4394.358974,4522.051282,4533.846153,4271.794871,4493.333333,4201.025641,4434.358974,4204.615384,4229.230769,4481.025641,4197.435897,4639.487179,3984.102565,4059.487179
176,4396.923076,4524.102564,4530.256410,4275.897435,4491.794871,4200.000000,4438.461538,4215.897435,4231.794871,4487.179487,4197.948717,4644.102564,3989.230770,4058.461538
177,4392.820512,4521.538461,4527.179487,4270.769230,4487.179487,4197.948717,4435.897435,4218.461538,4231.794871,4492.820512,4186.153846,4639.487179,3983.076924,4055.384615
178,4399.487179,4527.179487,4536.410256,4268.717948,4493.333333,4200.512820,4434.358974,4214.358974,4230.769230,4489.743589,4183.589743,4642.051282,3986.153847,4060.000000
179,4410.256410,4531.794871,4541.025641,4281.025641,4499.487179,4202.051282,4431.282051,4215.384615,4233.333333,4488.205128,4204.615384,4653.333333,3994.358975,4073.333333
180,4408.205128,4533.333333,4538.461538,4285.128205,4492.820512,4199.487179,4427.692307,4217.435897,4235.897435,4493.846153,4221.538461,4655.384615,3993.846154,4077.948717
181,4405.641025,4532.820512,4537.948717,4278.461538,4487.179487,4198.974358,4429.230769,4216.410256,4234.358974,4494.358974,4213.846153,4650.256410,3989.743590,4067.179487
182,4409.230769,4529.743589,4536.410256,4278.461538,4489.230769,4198.461538,4429.743589,4215.384615,4233.846153,4481.538461,4201.025641,4646.666666,3988.717949,4063.589743
183,4410.769230,4531.794871,4537.435897,4280.512820,4490.769230,4199.487179,4427.179487,4217.948717,4238.461538,4478.974358,4204.102564,4650.256410,3996.923077,4073.846153
184,4411.282051,4536.410256,4539.487179,4280.512820,4492.307692,4200.512820,4429.230769,4217.435897,4238.461538,4487.179487,4212.307692,4651.794871,4003.589743,4080.000000
185,4411.794871,4529.230769,4535.897435,4279.487179,4490.769230,4196.923076,4428.717948,4204.615384,4229.743589,4480.000000,4212.307692,4646.666666,3996.923077,4075.384615
186,4410.769230,4521.025641,4533.846153,4276.410256,4486.153846,4195.384615,4427.692307,4204.102564,4227.692307,4475.897435,4213.333333,4645.128205,3990.256411,4071.282051
187,4413.846153,4524.615384,4538.974358,4280.000000,4487.692307,4200.000000,4431.282051,4217.435897,4235.897435,4486.153846,4218.974358,4649.743589,3993.333334,4075.384615
188,4417.435897,4527.179487,4538.974358,4283.589743,4492.307692,4202.564102,4430.769230,4214.358974,4237.435897,4483.076923,4213.846153,4645.128205,3993.846154,4080.512820
189,4409.743589,4521.025641,4529.230769,4271.282051,4487.692307,4196.410256,4426.153846,4198.461538,4224.102564,4463.076923,4199.487179,4631.282051,3984.615385,4076.923076
190,4405.128205,4520.512820,4529.743589,4266.666666,4484.615384,4196.923076,4425.128205,4200.512820,4218.974358,4458.974358,4196.923076,4631.794871,3982.564103,4069.230769
191,4411.282051,4525.128205,4537.435897,4282.051282,4488.717948,4199.487179,4427.692307,4210.769230,4229.230769,4466.153846,4205.641025,4641.538461,3990.769231,4070.256410
192,4414.871794,4528.717948,4538.974358,4287.179487,4489.230769,4191.794871,4428.205128,4206.666666,4228.205128,4464.615384,4213.333333,4642.564102,3993.333334,4077.948717
193,4411.794871,4527.692307,4536.410256,4279.487179,4487.692307,4192.307692,4426.666666,4199.487179,4220.000000,4458.974358,4215.384615,4638.461538,3989.743590,4085.128205
194,4413.846153,4525.128205,4536.410256,4277.948717,4487.179487,4195.897435,4425.641025,4200.000000,4222.051282,4458.974358,4212.307692,4636.410256,3993.333334,4089.743589
195,4417.435897,4524.615384,4535.897435,4280.000000,4484.102564,4192.307692,4426.666666,4203.589743,4224.615384,4462.564102,4206.666666,4638.461538,3996.923077,4084.102564
196,4414.358974,4524.615384,4537.435897,4282.564102,4484.615384,4194.358974,4427.692307,4203.589743,4223.589743,4465.128205,4200.512820,4642.051282,3987.179488,4075.897435
197,4418.974358,4523.076923,4539.487179,4285.641025,4487.692307,4198.974358,4427.179487,4202.051282,4221.538461,4465.641025,4201.538461,4643.076923,3988.717949,4082.564102
198,4428.205128,4525.641025,4539.487179,4284.102564,4488.717948,4194.358974,4427.179487,4201.538461,4223.076923,4458.461538,4212.820512,4644.102564,4005.128205,4094.871794
199,4428.717948,4532.307692,4541.025641,4282.564102,4492.820512,4196.410256,4427.692307,4202.564102,4226.666666,4456.410256,4220.000000,4649.743589,4007.692307,4094.358974
200,4426.153846,4536.410256,4541.025641,4284.102564,4495.384615,4203.076923,4427.179487,4204.102564,4226.153846,4462.051282,4215.384615,4651.282051,3993.333334,4089.230769
201,4426.666666,4536.410256,4537.435897,4287.179487,4490.256410,4196.923076,4425.128205,4201.025641,4222.564102,4460.000000,4212.820512,4646.666666,3991.794872,4090.769230
202,4429.230769,4536.923076,4538.974358,4295.897435,4491.282051,4196.923076,4426.666666,4201.538461,4227.179487,4455.384615,4214.871794,4643.589743,4002.564102,4095.897435
203,4429.230769,4540.000000,4540.000000,4299.487179,4494.358974,4202.564102,4429.230769,4205.128205,4230.769230,4453.846153,4216.923076,4641.538461,4001.025641,4096.410256
204,4425.128205,4532.820512,4534.358974,4289.230769,4485.128205,4192.820512,4423.589743,4201.538461,4226.666666,4452.820512,4216.410256,4639.487179,3991.794872,4088.717948
205,4423.076923,4525.641025,4533.846153,4287.179487,4482.564102,4187.179487,4418.461538,4203.076923,4228.205128,4457.435897,4212.820512,4642.564102,3995.897436,4088.717948
206,4428.717948,4530.256410,4539.487179,4294.358974,4493.846153,4198.461538,4424.615384,4214.871794,4232.820512,4462.564102,4216.923076,4647.179487,4008.717948,4099.487179
207,4426.153846,4528.717948,4539.487179,4288.205128,4494.358974,4204.615384,4429.743589,4216.923076,4232.820512,4457.435897,4222.564102,4646.153846,4005.641025,4099.487179
208,4414.871794,4519.487179,4531.282051,4277.435897,4490.256410,4199.487179,4426.666666,4211.282051,4232.307692,4455.897435,4208.717948,4641.025641,3991.794872,4089.743589
209,4417.948717,4525.641025,4528.717948,4278.974358,4497.948717,4198.974358,4426.666666,4213.333333,4231.794871,4466.153846,4199.487179,4638.461538,3987.179488,4085.641025
210,4428.717948,4534.358974,4534.871794,4281.025641,4498.974358,4202.564102,4429.743589,4215.897435,4232.307692,4473.846153,4213.333333,4641.025641,3996.410257,4094.871794
211,4429.743589,4523.589743,4540.000000,4280.000000,4495.897435,4201.538461,4429.743589,4214.358974,4238.974358,4479.487179,4222.051282,4646.153846,4005.128205,4104.615384
212,4426.666666,4518.974358,4539.487179,4278.461538,4499.487179,4200.512820,4427.692307,4215.897435,4243.076923,4494.358974,4213.846153,4649.743589,3998.461539,4100.000000
213,4427.179487,4532.820512,4537.948717,4272.307692,4497.435897,4198.974358,4426.153846,4214.871794,4235.384615,4513.846153,4206.666666,4649.743589,3992.307693,4090.769230
214,4428.717948,4543.076923,4541.025641,4269.230769,4490.769230,4201.025641,4428.717948,4215.384615,4232.307692,4522.564102,4203.076923,4650.769230,4002.051282,4099.487179
215,4429.230769,4538.974358,4541.538461,4269.230769,4494.871794,4205.641025,4432.820512,4220.000000,4238.974358,4523.589743,4198.974358,4651.794871,4011.794871,4110.769230
216,4427.179487,4531.282051,4537.948717,4262.051282,4504.102564,4203.076923,4429.743589,4219.487179,4235.897435,4528.205128,4200.000000,4648.717948,4003.589743,4097.435897
217,4425.641025,4532.307692,4542.051282,4260.000000,4501.025641,4200.512820,4426.153846,4212.820512,4228.205128,4533.846153,4198.461538,4648.717948,3998.974359,4084.615384
218,4429.230769,4542.051282,4551.794871,4267.692307,4496.923076,4203.589743,4434.871794,4216.923076,4237.948717,4542.051282,4195.384615,4657.948717,4008.205128,4096.410256
219,4430.256410,4548.205128,4555.384615,4262.564102,4503.076923,4205.128205,4440.512820,4227.692307,4249.230769,4548.205128,4195.384615,4663.076923,4010.769230,4106.666666
220,4426.666666,4543.589743,4553.333333,4251.794871,4504.102564,4202.564102,4433.846153,4225.128205,4244.615384,4544.615384,4190.256410,4658.974358,3998.974359,4094.871794
221,4427.179487,4537.435897,4550.256410,4256.410256,4494.871794,4203.076923,4431.794871,4216.923076,4237.948717,4547.692307,4183.589743,4656.923076,3992.820513,4086.666666
222,4426.153846,4537.435897,4546.666666,4264.102564,4491.282051,4204.102564,4432.820512,4215.384615,4232.820512,4553.333333,4183.589743,4658.461538,3997.435898,4086.666666
223,4415.384615,4536.410256,4547.692307,4262.564102,4492.307692,4201.538461,4428.717948,4216.410256,4229.743589,4542.564102,4185.641025,4655.384615,3999.487180,4079.487179
224,4412.820512,4536.410256,4551.282051,4260.000000,4493.846153,4205.641025,4432.307692,4220.512820,4236.923076,4531.794871,4182.564102,4651.794871,3996.923077,4078.461538
225,4423.589743,4546.666666,4553.333333,4260.512820,4502.051282,4215.384615,4443.076923,4222.564102,4244.615384,4538.974358,4183.076923,4660.512820,3998.974359,4086.153846
226,4429.230769,4555.897435,4558.461538,4264.102564,4507.692307,4218.461538,4445.128205,4225.128205,4246.153846,4551.282051,4191.794871,4672.820512,4009.743589,4092.820512
227,4434.871794,4556.923076,4567.692307,4271.282051,4508.717948,4217.948717,4445.641025,4230.769230,4251.794871,4560.000000,4203.589743,4676.923076,4020.000000,4101.025641
228,4440.512820,4557.948717,4567.692307,4273.333333,4509.743589,4218.974358,4448.205128,4231.282051,4255.384615,4564.102564,4207.692307,4675.384615,4021.025641,4105.128205
229,4432.820512,4557.435897,4556.410256,4270.256410,4504.102564,4215.384615,4444.615384,4225.128205,4249.230769,4555.384615,4197.435897,4668.717948,4016.410256,4093.846153
230,4425.641025,4555.897435,4557.435897,4269.743589,4501.538461,4211.794871,4440.000000,4223.589743,4246.666666,4549.230769,4194.358974,4665.641025,4015.897435,4087.692307
231,4430.769230,4557.435897,4567.179487,4268.205128,4509.230769,4217.948717,4441.538461,4223.076923,4249.743589,4555.897435,4203.076923,4669.230769,4022.051282,4091.794871
232,4431.282051,4554.871794,4562.051282,4262.051282,4504.615384,4212.820512,4441.538461,4218.974358,4245.641025,4555.897435,4205.128205,4669.743589,4016.410256,4092.307692
233,4424.102564,4551.282051,4551.282051,4263.076923,4490.769230,4201.025641,4440.000000,4219.487179,4237.948717,4546.153846,4200.512820,4665.641025,4006.153846,4089.230769
234,4422.051282,4556.410256,4554.358974,4273.846153,4498.461538,4211.282051,4442.564102,4217.435897,4236.923076,4541.025641,4198.461538,4664.102564,4005.641025,4083.076923
235,4420.000000,4553.846153,4557.948717,4275.384615,4506.666666,4215.897435,4445.128205,4214.871794,4236.410256,4539.487179,4196.923076,4664.102564,4007.179487,4073.333333
236,4419.487179,4544.102564,4550.769230,4265.128205,4495.897435,4205.128205,4442.051282,4215.897435,4234.871794,4545.641025,4199.487179,4664.102564,4005.128205,4074.871794
237,4424.102564,4548.205128,4552.307692,4263.589743,4494.871794,4208.205128,4440.000000,4215.897435,4237.435897,4553.333333,4209.230769,4672.307692,4011.282051,4087.179487
238,4428.205128,4556.410256,4562.564102,4272.307692,4503.589743,4211.794871,4441.538461,4215.897435,4241.538461,4548.717948,4209.743589,4677.435897,4022.564102,4091.794871
239,4428.717948,4558.974358,4565.128205,4279.487179,4503.076923,4204.102564,4442.051282,4217.435897,4239.487179,4542.051282,4202.564102,4673.333333,4023.589743,4090.769230
240,4427.692307,4560.000000,4557.435897,4278.461538,4500.512820,4206.153846,4441.025641,4215.897435,4234.871794,4540.512820,4200.000000,4667.179487,4018.461538,4088.717948
241,4425.128205,4553.846153,4551.794871,4272.820512,4498.974358,4208.717948,4442.564102,4213.846153,4233.846153,4537.435897,4201.538461,4663.589743,4010.256410,4082.051282
242,4419.487179,4545.128205,4552.820512,4268.205128,4491.282051,4200.000000,4442.051282,4214.358974,4231.282051,4528.717948,4203.589743,4661.025641,4002.051282,4074.871794
243,4417.435897,4542.051282,4553.333333,4267.179487,4489.230769,4200.000000,4438.461538,4211.282051,4231.794871,4524.615384,4203.589743,4661.538461,4005.641025,4075.897435
244,4420.000000,4543.076923,4553.333333,4272.820512,4491.282051,4203.589743,4435.384615,4209.230769,4234.871794,4527.692307,4200.512820,4662.051282,4008.717948,4081.025641
245,4421.025641,4544.102564,4554.871794,4276.410256,4491.282051,4201.025641,4435.384615,4215.897435,4234.871794,4528.717948,4197.948717,4659.487179,4005.641025,4081.538461
246,4417.435897,4542.564102,4548.717948,4271.794871,4492.820512,4201.538461,4435.897435,4216.923076,4233.846153,4523.589743,4203.076923,4651.794871,4002.051282,4074.871794
247,4410.769230,4540.512820,4537.948717,4268.205128,4490.769230,4199.487179,4430.256410,4206.666666,4231.794871,4521.538461,4201.538461,4642.564102,3999.487180,4062.564102
248,4404.615384,4536.923076,4534.871794,4269.230769,4487.692307,4197.435897,4424.615384,4199.487179,4231.282051,4525.641025,4192.307692,4639.487179,3996.923077,4058.974358
249,4401.538461,4530.256410,4534.358974,4266.153846,4488.717948,4198.974358,4424.615384,4203.589743,4232.307692,4521.538461,4185.641025,4637.948717,3993.333334,4061.538461
250,4401.025641,4529.230769,4530.769230,4260.000000,4490.769230,4200.000000,4426.666666,4207.692307,4229.743589,4517.948717,4183.076923,4633.846153,3988.717949,4061.538461
251,4407.692307,4536.410256,4533.846153,4264.102564,4494.871794,4202.564102,4433.333333,4213.333333,4229.230769,4524.615384,4190.256410,4638.461538,3989.743590,4066.153846
252,4417.948717,4540.000000,4542.051282,4271.794871,4495.897435,4207.692307,4444.102564,4223.589743,4239.487179,4525.128205,4203.076923,4648.205128,4001.538461,4074.358974
253,4417.948717,4538.974358,4541.538461,4268.717948,4491.282051,4207.692307,4445.128205,4224.615384,4243.076923,4524.615384,4204.615384,4647.179487,4004.615384,4076.410256
254,4411.794871,4539.487179,4537.948717,4266.666666,4493.846153,4203.076923,4439.487179,4218.974358,4234.871794,4524.102564,4200.000000,4642.564102,3997.435898,4073.846153
255,4410.769230,4538.974358,4538.974358,4273.846153,4500.512820,4201.025641,4436.410256,4214.358974,4229.743589,4517.435897,4197.948717,4640.000000,3995.384616,4073.846153
256,4412.307692,4537.435897,4537.435897,4274.871794,4494.871794,4201.025641,4432.307692,4205.128205,4226.153846,4509.743589,4185.641025,4632.820512,3990.769231,4069.743589
257,4408.717948,4536.923076,4533.846153,4266.153846,4487.692307,4201.025641,4430.256410,4203.076923,4222.564102,4507.179487,4173.333333,4628.717948,3981.025642,4060.000000
258,4405.128205,4535.897435,4532.820512,4267.179487,4489.230769,4198.461538,4433.846153,4210.256410,4221.538461,4507.692307,4178.974358,4634.358974,3976.923077,4057.435897
259,4407.692307,4537.948717,4535.897435,4270.769230,4490.769230,4195.384615,4434.871794,4210.769230,4222.564102,4507.692307,4189.743589,4638.974358,3983.076924,4063.076923
260,4412.820512,4534.871794,4538.974358,4266.153846,4490.256410,4198.974358,4432.820512,4208.717948,4229.230769,4508.205128,4191.282051,4637.435897,3992.307693,4067.692307
