,AF3,F7,F3,FC5,T7,P7,O1,O2,P8,T8,FC6,F4,F8,AF4
0,4493.333333,4495.384615,4534.871794,4240.512820,4437.435897,4170.256410,4422.051282,4213.333333,4200.000000,4488.717948,4172.307692,4633.846153,3959.487180,4012.820512
1,4484.615384,4483.589743,4524.615384,4232.307692,4426.153846,4163.589743,4413.846153,4205.641025,4191.282051,4474.358974,4162.564102,4626.666666,3946.666667,3998.974359
2,4486.153846,4480.000000,4520.000000,4232.307692,4424.102564,4166.153846,4415.897435,4206.666666,4188.717948,4474.358974,4167.179487,4627.692307,3952.307693,3996.410257
3,4490.256410,4486.666666,4522.564102,4233.846153,4437.948717,4170.256410,4422.564102,4209.230769,4190.769230,4475.897435,4176.923076,4635.384615,3963.589744,4010.769230
4,4492.307692,4492.820512,4528.205128,4233.333333,4442.051282,4171.794871,4421.538461,4211.794871,4196.410256,4477.435897,4177.948717,4638.974358,3968.205129,4022.051282
5,4494.871794,4494.358974,4532.307692,4232.820512,4431.794871,4169.230769,4416.410256,4212.820512,4198.974358,4484.102564,4174.358974,4636.410256,3965.128206,4018.461538
6,4496.410256,4496.410256,4528.717948,4236.410256,4427.692307,4165.128205,4413.846153,4211.282051,4198.461538,4487.692307,4174.358974,4634.871794,3958.974359,4010.256410
7,4495.897435,4498.461538,4524.102564,4246.153846,4435.384615,4167.692307,4414.871794,4209.743589,4204.102564,4489.743589,4174.871794,4635.384615,3961.025642,4007.692307
8,4491.282051,4491.794871,4525.128205,4252.307692,4437.435897,4169.230769,4414.871794,4208.717948,4204.615384,4490.769230,4172.820512,4630.256410,3962.051283,4008.717948
9,4489.743589,4488.205128,4524.102564,4243.076923,4432.307692,4167.179487,4415.384615,4209.230769,4195.384615,4483.076923,4177.435897,4625.641025,3961.025642,4009.230769
10,4493.846153,4493.846153,4523.076923,4235.897435,4438.974358,4172.307692,4422.051282,4214.358974,4196.410256,4478.974358,4182.051282,4628.717948,3963.589744,4009.230769
11,4492.307692,4494.871794,4524.102564,4234.871794,4440.000000,4174.871794,4422.564102,4211.794871,4197.435897,4479.487179,4168.717948,4626.153846,3953.333334,4002.564102
12,4486.666666,4488.205128,4520.000000,4223.589743,4421.025641,4160.000000,4410.256410,4201.025641,4186.153846,4470.769230,4153.846153,4617.435897,3940.512821,3992.307693
13,4488.717948,4490.769230,4520.000000,4225.128205,4411.794871,4153.846153,4407.692307,4201.025641,4184.615384,4464.615384,4162.051282,4622.051282,3948.205129,3997.948718
14,4494.358974,4501.025641,4524.615384,4243.076923,4427.692307,4166.153846,4417.948717,4211.282051,4194.871794,4468.205128,4180.000000,4633.333333,3962.051283,4013.333333
15,4492.820512,4500.000000,4523.589743,4243.589743,4434.871794,4167.179487,4417.948717,4208.717948,4193.846153,4471.794871,4182.564102,4633.333333,3962.564103,4013.333333
16,4493.846153,4495.384615,4525.641025,4229.743589,4424.102564,4161.538461,4413.846153,4203.076923,4190.256410,4475.384615,4178.974358,4633.846153,3960.000000,4010.769230
17,4502.564102,4497.948717,4538.974358,4226.666666,4426.153846,4168.205128,4422.564102,4215.897435,4204.615384,4485.128205,4185.641025,4648.205128,3964.615385,4017.948717
18,4500.512820,4495.897435,4542.564102,4230.256410,4430.769230,4174.871794,4427.179487,4225.128205,4211.794871,4492.820512,4183.589743,4650.769230,3963.076924,4013.846153
19,4485.641025,4482.564102,4527.692307,4227.692307,4416.923076,4164.615384,4415.384615,4213.846153,4196.923076,4483.589743,4165.641025,4631.794871,3952.307693,3998.461539
20,4481.538461,4475.897435,4517.948717,4230.769230,4411.282051,4159.487179,4412.307692,4208.717948,4192.307692,4469.230769,4164.615384,4624.615384,3951.282052,3997.948718
21,4490.256410,4488.717948,4527.692307,4238.974358,4429.230769,4167.179487,4423.076923,4217.435897,4201.025641,4469.743589,4183.589743,4636.923076,3958.974359,4013.846153
22,4493.333333,4501.538461,4536.923076,4236.410256,4438.974358,4170.256410,4424.615384,4214.358974,4198.461538,4480.000000,4186.666666,4644.615384,3957.948718,4021.025641
23,4492.307692,4497.435897,4537.948717,4231.794871,4431.282051,4168.205128,4421.025641,4203.589743,4191.794871,4477.948717,4177.948717,4644.615384,3954.358975,4013.333333
24,4493.333333,4489.230769,4539.487179,4236.410256,4427.692307,4166.666666,4425.641025,4203.589743,4192.307692,4466.666666,4173.846153,4643.589743,3952.307693,4007.179487
25,4488.717948,4490.769230,4538.974358,4235.384615,4425.641025,4159.487179,4423.076923,4204.102564,4185.641025,4463.589743,4166.666666,4633.846153,3938.461539,4003.076923
26,4489.230769,4490.769230,4539.487179,4233.846153,4428.205128,4159.487179,4418.974358,4200.000000,4184.102564,4467.692307,4168.205128,4632.307692,3933.333334,4006.666666
27,4498.974358,4492.307692,4542.564102,4243.076923,4434.358974,4168.205128,4424.615384,4200.512820,4192.307692,4468.205128,4182.051282,4640.000000,3948.717949,4016.923076
28,4497.948717,4493.333333,4538.974358,4241.538461,4425.128205,4163.589743,4420.512820,4204.615384,4194.358974,4467.692307,4183.076923,4637.435897,3953.846154,4011.282051
29,4488.717948,4488.717948,4537.435897,4233.333333,4414.358974,4152.307692,4413.333333,4208.717948,4199.487179,4476.923076,4178.461538,4633.333333,3949.230770,4007.692307
30,4487.692307,4487.179487,4535.384615,4236.410256,4424.615384,4153.333333,4414.871794,4209.230769,4208.205128,4487.179487,4186.153846,4632.820512,3956.410257,4020.000000
31,4489.743589,4493.333333,4525.128205,4240.512820,4436.923076,4159.487179,4416.923076,4208.717948,4206.153846,4485.641025,4191.282051,4629.743589,3968.717949,4022.564102
32,4488.205128,4496.923076,4525.641025,4242.051282,4434.871794,4163.076923,4419.487179,4212.307692,4203.076923,4486.153846,4189.743589,4627.692307,3968.717949,4013.333333
33,4489.743589,4499.487179,4535.897435,4251.282051,4436.410256,4165.128205,4423.076923,4213.846153,4207.692307,4488.205128,4190.256410,4631.282051,3958.974359,4011.794871
34,4493.846153,4506.153846,4531.282051,4250.256410,4440.000000,4161.538461,4420.512820,4205.641025,4201.538461,4475.897435,4186.153846,4631.794871,3949.230770,4008.205128
35,4491.282051,4498.974358,4521.538461,4238.461538,4427.179487,4153.333333,4408.717948,4190.256410,4180.000000,4455.384615,4175.897435,4624.615384,3944.615385,4001.538461
36,4487.692307,4488.717948,4524.102564,4235.384615,4416.923076,4151.282051,4406.153846,4189.743589,4174.871794,4447.692307,4171.282051,4621.538461,3942.051283,4006.153846
37,4494.358974,4498.461538,4533.846153,4242.564102,4433.846153,4160.512820,4420.512820,4206.153846,4191.282051,4463.076923,4177.435897,4630.769230,3945.641026,4008.717948
38,4501.025641,4511.282051,4541.538461,4252.820512,4453.846153,4173.333333,4429.743589,4214.871794,4198.974358,4480.512820,4187.179487,4640.000000,3958.974359,4012.307692
39,4493.846153,4505.641025,4538.461538,4252.307692,4447.692307,4169.230769,4421.538461,4206.666666,4190.769230,4476.923076,4192.820512,4635.384615,3965.641026,4015.384615
40,4488.717948,4499.487179,4530.769230,4242.564102,4441.538461,4156.923076,4414.358974,4204.102564,4189.230769,4473.333333,4191.282051,4630.769230,3963.076924,4009.230769
41,4492.307692,4505.128205,4532.820512,4242.051282,4445.128205,4157.435897,4418.461538,4211.282051,4197.435897,4477.948717,4189.743589,4633.846153,3960.512821,4011.794871
42,4493.333333,4503.076923,4540.000000,4248.205128,4446.153846,4166.153846,4422.051282,4213.333333,4205.128205,4483.076923,4194.871794,4640.000000,3959.487180,4024.102564
43,4493.846153,4495.384615,4544.102564,4245.641025,4448.717948,4174.358974,4426.666666,4218.461538,4211.282051,4493.333333,4200.000000,4646.153846,3962.564103,4028.717948
44,4494.871794,4494.358974,4541.025641,4240.000000,4444.615384,4167.179487,4424.615384,4217.435897,4206.666666,4495.384615,4186.666666,4642.051282,3958.974359,4018.974358
45,4491.282051,4503.589743,4537.948717,4245.128205,4434.358974,4154.358974,4413.333333,4198.461538,4189.230769,4475.897435,4167.179487,4632.307692,3942.564103,4009.230769
46,4492.820512,4511.282051,4540.000000,4250.256410,4440.000000,4153.846153,4409.743589,4188.717948,4177.948717,4461.538461,4169.230769,4634.871794,3934.358975,4005.128205
47,4490.256410,4504.615384,4538.461538,4250.256410,4449.230769,4158.974358,4411.794871,4194.358974,4177.948717,4458.461538,4178.461538,4638.974358,3936.410257,4006.153846
48,4477.948717,4493.333333,4531.794871,4244.615384,4435.897435,4154.358974,4408.717948,4192.820512,4175.897435,4444.102564,4173.333333,4632.820512,3930.769231,4006.666666
49,4475.384615,4488.717948,4527.179487,4229.743589,4424.615384,4151.794871,4409.230769,4187.692307,4172.307692,4438.974358,4167.179487,4630.256410,3931.794872,4004.102564
50,4486.666666,4492.307692,4532.820512,4227.179487,4437.435897,4164.615384,4419.487179,4198.974358,4180.512820,4459.487179,4179.487179,4638.461538,3946.153847,4008.205128
51,4491.794871,4495.384615,4536.923076,4238.461538,4451.282051,4172.307692,4428.717948,4212.307692,4198.461538,4478.974358,4190.769230,4644.615384,3954.871795,4016.410256
52,4483.589743,4493.333333,4531.794871,4233.333333,4442.564102,4166.153846,4426.666666,4213.333333,4206.153846,4480.512820,4185.641025,4640.000000,3953.333334,4013.846153
53,4476.923076,4490.769230,4522.564102,4226.153846,4429.230769,4164.615384,4422.564102,4216.410256,4203.589743,4478.461538,4181.025641,4632.820512,3948.717949,4008.205128
54,4477.435897,4490.256410,4521.538461,4232.820512,4432.307692,4168.717948,4425.641025,4222.051282,4207.692307,4485.641025,4189.743589,4633.333333,3946.153847,4010.256410
55,4480.000000,4491.794871,4530.769230,4235.897435,4444.615384,4169.743589,4432.820512,4221.025641,4213.333333,4487.179487,4195.897435,4637.948717,3950.769231,4012.820512
56,4480.000000,4494.358974,4533.846153,4231.282051,4449.230769,4169.230769,4429.743589,4219.487179,4207.692307,4474.358974,4184.615384,4635.897435,3955.384616,4012.307692
57,4477.435897,4491.794871,4526.666666,4229.743589,4442.564102,4167.179487,4420.000000,4213.846153,4193.846153,4463.589743,4169.230769,4623.589743,3943.076924,4003.589743
58,4472.307692,4483.076923,4520.000000,4229.230769,4433.846153,4165.641025,4417.948717,4202.051282,4189.230769,4464.102564,4167.692307,4618.461538,3926.666667,3991.282052
59,4475.897435,4486.666666,4522.051282,4231.794871,4435.897435,4169.743589,4424.102564,4202.051282,4196.410256,4468.717948,4172.307692,4626.153846,3927.179488,3995.897436
60,4488.205128,4501.538461,4532.820512,4234.871794,4442.051282,4169.743589,4424.102564,4212.820512,4200.000000,4468.205128,4171.282051,4632.307692,3940.512821,4011.794871
61,4491.794871,4502.051282,4536.923076,4232.820512,4438.974358,4163.076923,4418.461538,4209.230769,4192.307692,4463.076923,4170.769230,4631.794871,3946.666667,4014.358974
62,4482.564102,4491.794871,4529.743589,4231.282051,4433.333333,4160.000000,4414.358974,4198.974358,4183.589743,4463.589743,4176.923076,4631.794871,3943.076924,4005.128205
63,4476.410256,4484.102564,4521.025641,4226.666666,4427.692307,4156.410256,4410.769230,4196.923076,4179.487179,4466.153846,4173.846153,4632.820512,3942.051283,3998.974359
64,4474.871794,4480.512820,4522.051282,4215.897435,4417.948717,4149.743589,4405.641025,4196.410256,4179.487179,4465.128205,4165.641025,4633.846153,3947.179488,4000.000000
65,4474.871794,4476.410256,4524.615384,4211.282051,4417.948717,4149.743589,4405.641025,4203.076923,4189.230769,4473.333333,4167.692307,4636.410256,3950.256411,4007.179487
66,4474.871794,4476.923076,4522.051282,4212.307692,4428.205128,4154.358974,4407.692307,4208.717948,4197.435897,4486.153846,4167.692307,4636.923076,3949.743590,4009.743589
67,4473.846153,4486.153846,4520.512820,4218.974358,4436.410256,4155.384615,4407.692307,4202.564102,4189.230769,4480.512820,4162.051282,4634.871794,3952.307693,4006.153846
68,4472.820512,4490.256410,4522.051282,4227.692307,4438.461538,4155.897435,4407.692307,4199.487179,4182.051282,4468.205128,4160.000000,4633.846153,3952.820513,4001.538461
69,4466.153846,4483.076923,4518.461538,4226.666666,4429.743589,4155.384615,4407.179487,4202.564102,4180.000000,4460.512820,4154.871794,4628.717948,3946.666667,3992.307693
70,4458.461538,4481.025641,4512.820512,4221.538461,4417.435897,4152.307692,4407.179487,4202.051282,4177.948717,4453.846153,4150.769230,4629.230769,3947.692308,3997.435898
71,4461.538461,4483.589743,4520.000000,4222.051282,4421.025641,4153.846153,4410.256410,4203.589743,4184.615384,4455.897435,4158.974358,4638.461538,3958.461539,4011.794871
72,4462.564102,4478.461538,4523.076923,4227.179487,4428.717948,4155.384615,4411.282051,4209.743589,4189.230769,4465.128205,4161.025641,4640.512820,3958.461539,4010.256410
73,4457.435897,4474.358974,4514.871794,4226.666666,4425.128205,4150.256410,4405.641025,4209.230769,4181.538461,4467.692307,4151.794871,4637.435897,3953.333334,4004.615384
74,4458.461538,4478.461538,4511.794871,4224.615384,4426.153846,4147.179487,4400.000000,4208.205128,4184.102564,4469.230769,4157.435897,4639.487179,3956.923077,4006.666666
75,4460.000000,4482.564102,4511.794871,4226.153846,4436.923076,4150.256410,4401.025641,4210.769230,4194.871794,4474.871794,4168.205128,4641.025641,3960.000000,4007.692307
76,4456.923076,4485.128205,4513.333333,4223.076923,4439.487179,4153.846153,4405.128205,4208.717948,4191.794871,4477.435897,4165.641025,4637.948717,3958.461539,4010.769230
77,4458.461538,4485.128205,4517.435897,4221.025641,4437.435897,4153.333333,4406.153846,4209.230769,4190.256410,4474.871794,4161.025641,4641.025641,3956.410257,4012.820512
78,4458.974358,4479.487179,4516.923076,4221.538461,4437.948717,4150.769230,4404.615384,4210.256410,4194.358974,4469.230769,4165.128205,4645.128205,3956.410257,4007.179487
79,4459.487179,4479.487179,4516.410256,4228.717948,4437.948717,4153.333333,4404.102564,4209.743589,4192.820512,4468.717948,4168.717948,4644.615384,3959.487180,4015.384615
80,4461.025641,4487.179487,4522.564102,4228.205128,4433.333333,4152.307692,4402.051282,4209.230769,4190.256410,4472.820512,4165.641025,4645.128205,3959.487180,4022.564102
81,4460.000000,4489.230769,4522.051282,4220.000000,4427.692307,4142.051282,4399.487179,4207.692307,4189.743589,4471.794871,4165.128205,4644.615384,3955.897436,4008.717948
82,4459.487179,4486.153846,4518.461538,4219.487179,4429.743589,4144.102564,4403.076923,4209.230769,4192.820512,4469.743589,4174.358974,4646.666666,3962.051283,4005.641025
83,4459.487179,4486.666666,4519.487179,4227.692307,4440.512820,4154.358974,4410.256410,4215.384615,4196.410256,4478.461538,4178.461538,4652.307692,3974.871795,4022.051282
84,4458.974358,4490.769230,4524.615384,4236.410256,4448.205128,4157.435897,4415.897435,4224.615384,4204.615384,4488.717948,4177.948717,4656.923076,3977.948718,4031.282051
85,4468.205128,4497.948717,4534.871794,4242.051282,4450.769230,4163.076923,4423.076923,4231.794871,4215.384615,4490.769230,4188.205128,4661.025641,3977.435898,4034.358974
86,4477.948717,4505.128205,4539.487179,4241.538461,4457.948717,4167.692307,4426.666666,4229.743589,4214.358974,4488.205128,4192.307692,4666.153846,3978.974359,4036.410256
87,4474.358974,4502.564102,4537.435897,4234.871794,4462.564102,4164.615384,4421.538461,4222.051282,4200.000000,4483.589743,4180.512820,4668.205128,3979.487180,4031.282051
88,4471.794871,4488.717948,4536.410256,4231.282051,4454.358974,4161.025641,4414.358974,4220.512820,4192.820512,4478.974358,4172.820512,4667.179487,3975.897436,4028.717948
89,4471.282051,4483.076923,4537.948717,4229.230769,4448.717948,4161.025641,4417.435897,4223.589743,4200.512820,4481.538461,4176.923076,4667.179487,3970.256411,4034.358974
90,4464.102564,4487.692307,4536.410256,4224.615384,4450.769230,4160.000000,4422.051282,4225.128205,4204.615384,4488.205128,4182.564102,4667.692307,3968.717949,4033.333333
91,4457.948717,4485.641025,4530.256410,4230.769230,4449.230769,4157.435897,4418.461538,4226.666666,4200.512820,4484.102564,4179.487179,4665.128205,3965.128206,4023.589743
92,4458.974358,4477.948717,4523.076923,4236.410256,4443.589743,4157.435897,4415.384615,4227.692307,4200.000000,4476.923076,4174.358974,4661.025641,3958.974359,4016.923076
93,4458.974358,4483.589743,4524.102564,4231.794871,4449.230769,4164.615384,4421.538461,4227.692307,4203.076923,4475.384615,4174.358974,4662.051282,3957.435898,4018.974358
94,4458.461538,4494.358974,4531.282051,4228.205128,4463.076923,4166.153846,4424.615384,4226.666666,4203.589743,4475.384615,4170.769230,4664.102564,3962.564103,4022.051282
95,4458.974358,4491.794871,4530.769230,4236.410256,4462.051282,4163.076923,4418.461538,4225.128205,4205.641025,4477.948717,4170.769230,4663.589743,3965.128206,4023.589743
96,4460.512820,4488.717948,4531.282051,4245.128205,4453.846153,4162.564102,4415.897435,4227.692307,4211.794871,4488.717948,4186.153846,4664.615384,3966.153847,4027.179487
97,4462.051282,4494.358974,4533.846153,4242.051282,4458.461538,4165.641025,4420.000000,4232.307692,4215.384615,4498.974358,4197.948717,4666.153846,3972.307693,4030.769230
98,4459.487179,4492.307692,4530.769230,4232.307692,4464.102564,4166.153846,4419.487179,4229.743589,4213.333333,4493.333333,4189.230769,4663.076923,3973.846154,4023.076923
99,4456.410256,4487.692307,4524.615384,4226.153846,4457.948717,4161.538461,4411.282051,4222.051282,4205.641025,4480.512820,4171.794871,4657.435897,3964.102565,4011.282051
100,4458.461538,4492.307692,4523.076923,4225.641025,4452.307692,4157.435897,4409.743589,4220.512820,4202.564102,4475.384615,4165.128205,4654.871794,3955.897436,4009.230769
101,4460.512820,4495.384615,4529.743589,4232.307692,4456.923076,4162.051282,4415.384615,4226.153846,4207.179487,4477.948717,4172.307692,4657.435897,3960.512821,4016.410256
102,4460.000000,4496.410256,4534.358974,4245.128205,4461.025641,4166.153846,4414.871794,4226.153846,4207.179487,4483.076923,4181.025641,4662.051282,3971.282052,4024.102564
103,4468.205128,4506.153846,4536.923076,4256.923076,4467.179487,4166.666666,4414.871794,4223.589743,4207.692307,4486.666666,4186.153846,4666.153846,3977.435898,4030.769230
104,4476.410256,4514.358974,4539.487179,4255.897435,4473.846153,4172.307692,4418.974358,4227.179487,4212.307692,4489.743589,4191.794871,4668.205128,3979.487180,4032.307692
105,4470.256410,4508.205128,4534.871794,4241.538461,4466.666666,4170.769230,4414.871794,4226.666666,4209.743589,4488.205128,4193.846153,4664.615384,3977.948718,4025.128205
106,4465.128205,4501.538461,4529.230769,4232.820512,4456.410256,4164.102564,4410.769230,4221.538461,4206.153846,4489.743589,4192.307692,4662.564102,3973.846154,4022.564102
107,4467.179487,4504.102564,4532.820512,4239.487179,4459.487179,4167.179487,4413.333333,4222.051282,4209.230769,4494.871794,4192.307692,4664.102564,3971.282052,4023.076923
108,4468.717948,4505.641025,4541.538461,4245.128205,4468.205128,4169.743589,4416.410256,4224.102564,4209.743589,4491.794871,4185.128205,4666.666666,3977.435898,4020.512820
109,4472.307692,4506.666666,4540.512820,4245.641025,4466.666666,4169.743589,4418.974358,4222.051282,4208.205128,4486.153846,4183.589743,4671.794871,3986.153847,4029.230769
110,4476.923076,4508.717948,4537.948717,4249.743589,4465.128205,4169.230769,4421.025641,4225.641025,4211.282051,4491.794871,4192.820512,4672.820512,3984.102565,4042.564102
111,4476.923076,4508.205128,4542.051282,4248.205128,4468.717948,4168.717948,4417.435897,4229.743589,4213.333333,4498.974358,4197.948717,4671.282051,3979.487180,4037.435897
112,4469.230769,4505.128205,4537.948717,4235.384615,4462.564102,4165.128205,4410.769230,4225.641025,4209.743589,4492.307692,4196.410256,4668.205128,3979.487180,4025.128205
113,4459.487179,4500.512820,4528.717948,4228.205128,4451.794871,4160.000000,4406.666666,4218.461538,4204.615384,4481.538461,4187.692307,4660.512820,3977.435898,4025.128205
114,4459.487179,4503.076923,4531.282051,4241.025641,4459.487179,4163.589743,4406.153846,4221.025641,4208.205128,4482.051282,4182.051282,4657.435897,3975.384616,4027.179487
115,4465.641025,4509.230769,4539.487179,4254.871794,4475.897435,4171.794871,4411.794871,4228.717948,4216.410256,4490.256410,4188.717948,4666.666666,3977.948718,4026.666666
116,4462.564102,4509.230769,4538.974358,4247.692307,4469.743589,4171.282051,4415.897435,4226.666666,4212.307692,4489.230769,4196.410256,4670.769230,3978.461539,4025.641025
117,4456.410256,4502.564102,4532.820512,4234.358974,4458.461538,4166.153846,4413.846153,4221.538461,4204.615384,4482.564102,4194.871794,4666.153846,3972.820513,4024.102564
118,4456.923076,4501.025641,4529.230769,4234.358974,4462.051282,4169.743589,4413.333333,4220.000000,4208.205128,4488.717948,4192.820512,4668.205128,3970.256411,4025.128205
119,4449.743589,4498.974358,4526.153846,4234.358974,4459.487179,4167.692307,4412.307692,4217.435897,4208.717948,4490.256410,4188.717948,4667.692307,3966.153847,4022.564102
120,4441.538461,4493.333333,4523.589743,4229.230769,4454.871794,4160.000000,4408.717948,4215.384615,4202.564102,4479.487179,4181.538461,4658.461538,3961.025642,4016.410256
121,4451.282051,4498.974358,4523.589743,4235.897435,4464.615384,4165.128205,4410.256410,4218.974358,4203.076923,4476.923076,4180.512820,4657.435897,3968.205129,4020.000000
122,4457.948717,4506.666666,4527.179487,4246.153846,4469.743589,4173.846153,4418.974358,4221.538461,4207.179487,4482.051282,4183.589743,4664.102564,3972.307693,4025.641025
123,4447.692307,4501.025641,4529.230769,4240.512820,4462.564102,4174.871794,4424.615384,4221.538461,4208.205128,4484.615384,4186.666666,4665.128205,3963.589744,4022.051282
124,4440.000000,4492.307692,4525.641025,4229.230769,4454.871794,4165.128205,4417.435897,4221.025641,4208.205128,4476.923076,4184.615384,4661.025641,3960.000000,4018.974358
125,4441.025641,4490.256410,4520.000000,4227.692307,4443.589743,4156.410256,4408.717948,4216.923076,4204.615384,4464.102564,4174.871794,4656.923076,3963.076924,4014.358974
126,4444.615384,4494.358974,4523.589743,4236.923076,4441.538461,4164.615384,4413.846153,4216.410256,4202.564102,4469.743589,4175.384615,4658.974358,3963.589744,4013.846153
127,4452.820512,4504.102564,4534.358974,4242.051282,4458.461538,4178.461538,4425.641025,4225.128205,4214.871794,4493.333333,4191.794871,4667.692307,3967.179488,4027.692307
128,4460.000000,4509.743589,4536.923076,4241.538461,4464.615384,4180.000000,4427.179487,4231.282051,4222.564102,4498.974358,4197.435897,4670.256410,3971.282052,4037.948717
129,4457.948717,4505.641025,4532.820512,4240.512820,4456.923076,4177.948717,4423.076923,4229.230769,4214.358974,4488.717948,4193.846153,4664.615384,3972.307693,4032.307692
130,4455.384615,4506.666666,4531.794871,4241.025641,4458.461538,4185.128205,4422.564102,4224.102564,4210.256410,4484.615384,4202.051282,4663.589743,3978.974359,4028.717948
131,4453.333333,4505.641025,4532.820512,4242.564102,4462.564102,4186.153846,4424.102564,4219.487179,4211.282051,4483.589743,4202.051282,4667.179487,3973.846154,4030.769230
132,4454.871794,4503.589743,4536.923076,4249.743589,4460.512820,4182.564102,4426.666666,4227.692307,4214.871794,4488.205128,4195.384615,4672.820512,3964.615385,4032.820512
133,4463.589743,4515.384615,4543.076923,4256.410256,4464.615384,4189.743589,4430.256410,4237.435897,4226.666666,4500.000000,4207.692307,4681.025641,3982.564103,4045.641025
134,4464.102564,4520.512820,4540.512820,4251.794871,4469.743589,4195.897435,4431.282051,4232.307692,4230.769230,4505.641025,4217.948717,4682.564102,4002.051282,4050.769230
135,4458.974358,4512.307692,4536.410256,4250.256410,4464.615384,4192.820512,4427.692307,4230.769230,4224.102564,4500.512820,4210.256410,4677.948717,4000.512820,4042.564102
136,4457.435897,4507.692307,4540.000000,4249.230769,4454.358974,4184.615384,4421.538461,4235.384615,4221.538461,4493.333333,4202.051282,4672.307692,3991.794872,4037.435897
137,4456.410256,4507.179487,4538.461538,4243.589743,4452.820512,4181.538461,4419.487179,4232.307692,4217.948717,4493.846153,4202.051282,4667.692307,3981.025642,4037.435897
138,4457.435897,4509.230769,4535.384615,4245.128205,4462.564102,4189.230769,4425.641025,4230.769230,4218.974358,4499.487179,4210.256410,4671.282051,3978.974359,4041.538461
139,4460.512820,4517.948717,4541.025641,4256.923076,4472.820512,4199.487179,4433.846153,4233.333333,4227.179487,4496.923076,4216.923076,4678.461538,3991.794872,4045.641025
140,4461.538461,4524.615384,4544.615384,4261.538461,4475.897435,4203.076923,4435.897435,4232.820512,4224.102564,4492.307692,4211.794871,4676.410256,3995.384616,4044.102564
141,4454.871794,4522.051282,4534.358974,4252.307692,4469.230769,4200.000000,4432.820512,4230.256410,4218.461538,4490.256410,4201.025641,4667.692307,3984.102565,4037.948717
142,4451.282051,4514.871794,4527.692307,4245.641025,4457.948717,4198.461538,4429.230769,4230.769230,4224.615384,4487.179487,4198.461538,4664.102564,3980.512821,4038.974358
143,4453.846153,4507.692307,4534.358974,4245.128205,4456.923076,4199.487179,4428.205128,4234.358974,4229.230769,4495.897435,4207.692307,4666.666666,3982.051283,4039.487179
144,4457.948717,4511.282051,4540.000000,4251.282051,4461.025641,4199.487179,4433.333333,4239.487179,4230.256410,4511.282051,4217.435897,4670.769230,3981.025642,4035.384615
145,4466.153846,4524.102564,4544.615384,4262.051282,4462.051282,4201.538461,4441.025641,4246.153846,4237.948717,4514.871794,4218.974358,4675.897435,3991.794872,4044.615384
146,4475.897435,4526.153846,4552.307692,4266.666666,4468.205128,4209.743589,4447.179487,4259.487179,4250.256410,4520.512820,4224.615384,4685.128205,4008.205128,4063.076923
147,4477.948717,4522.051282,4556.923076,4258.461538,4470.256410,4213.846153,4447.692307,4268.717948,4255.897435,4531.282051,4232.307692,4693.846153,4007.179487,4067.692307
148,4470.769230,4523.076923,4551.794871,4251.794871,4465.128205,4207.179487,4443.589743,4259.487179,4254.358974,4527.692307,4226.153846,4690.769230,3995.897436,4060.512820
149,4463.076923,4522.564102,4542.564102,4253.846153,4465.641025,4203.589743,4437.948717,4246.153846,4246.153846,4513.846153,4220.512820,4677.435897,3995.897436,4056.410256
150,4459.487179,4519.487179,4541.025641,4259.487179,4467.179487,4206.153846,4435.897435,4244.102564,4240.512820,4508.717948,4226.153846,4673.846153,4002.564102,4058.974358
151,4466.153846,4526.153846,4547.692307,4263.589743,4467.692307,4209.743589,4437.435897,4247.692307,4246.666666,4514.358974,4233.333333,4678.974358,4008.205128,4062.051282
152,4474.358974,4533.333333,4553.333333,4264.615384,4467.179487,4212.820512,4437.435897,4248.205128,4253.846153,4526.153846,4237.435897,4674.871794,4011.282051,4064.615384
153,4476.923076,4530.256410,4552.820512,4265.128205,4465.641025,4215.384615,4438.461538,4251.282051,4255.897435,4538.461538,4241.538461,4665.641025,4012.820512,4071.282051
154,4476.923076,4525.641025,4553.846153,4262.051282,4463.589743,4215.384615,4443.589743,4258.461538,4256.923076,4538.974358,4244.102564,4664.102564,4018.461538,4078.974358
155,4476.410256,4526.153846,4560.512820,4261.538461,4465.641025,4212.307692,4445.128205,4258.461538,4257.948717,4534.358974,4246.153846,4670.256410,4021.025641,4081.538461
156,4477.435897,4524.615384,4563.076923,4264.615384,4467.179487,4211.282051,4445.128205,4257.435897,4258.974358,4528.717948,4246.666666,4680.000000,4010.769230,4077.948717
157,4473.846153,4521.025641,4559.487179,4264.102564,4465.641025,4213.846153,4446.666666,4260.000000,4260.512820,4522.051282,4241.025641,4679.487179,4002.564102,4073.333333
158,4464.615384,4520.512820,4551.282051,4261.025641,4463.589743,4216.410256,4445.128205,4255.897435,4254.358974,4523.589743,4235.384615,4664.102564,4006.153846,4068.205128
159,4460.512820,4524.102564,4544.102564,4257.948717,4462.051282,4213.846153,4442.564102,4249.230769,4243.589743,4524.615384,4233.846153,4650.769230,4009.230769,4065.128205
160,4458.461538,4521.538461,4541.025641,4248.717948,4456.923076,4209.743589,4440.512820,4241.538461,4240.512820,4517.435897,4225.641025,4649.230769,4006.666666,4063.076923
161,4448.717948,4513.846153,4535.384615,4243.076923,4449.743589,4204.102564,4436.923076,4236.410256,4239.487179,4508.717948,4217.435897,4647.179487,4001.025641,4058.461538
162,4444.615384,4512.307692,4529.230769,4245.641025,4448.717948,4201.025641,4435.384615,4236.923076,4235.897435,4508.205128,4222.051282,4644.615384,3996.410257,4051.282051
163,4443.076923,4512.820512,4526.666666,4240.512820,4452.307692,4200.512820,4438.461538,4237.435897,4235.897435,4507.179487,4220.512820,4643.589743,3993.846154,4038.974358
164,4435.384615,4507.692307,4527.179487,4238.461538,4452.820512,4203.589743,4443.589743,4236.410256,4234.358974,4502.051282,4206.666666,4646.153846,3998.461539,4038.974358
165,4433.846153,4502.051282,4529.230769,4245.128205,4449.230769,4208.205128,4445.641025,4239.487179,4232.820512,4501.538461,4208.205128,4647.179487,4001.025641,4053.333333
166,4436.923076,4501.025641,4534.871794,4245.641025,4444.615384,4205.641025,4445.128205,4246.153846,4235.897435,4508.717948,4220.512820,4647.692307,3997.948718,4056.923076
167,4435.384615,4502.564102,4540.000000,4244.615384,4443.589743,4203.589743,4447.692307,4247.692307,4238.461538,4517.435897,4217.435897,4657.435897,4001.538461,4052.307692
168,4432.307692,4506.153846,4535.897435,4247.179487,4440.512820,4205.128205,4447.179487,4244.615384,4234.358974,4511.794871,4208.205128,4662.564102,4002.564102,4053.333333
169,4429.230769,4508.205128,4529.230769,4243.589743,4437.435897,4198.974358,4438.974358,4236.410256,4228.205128,4501.538461,4204.102564,4654.871794,3988.717949,4050.256410
170,4425.128205,4501.025641,4523.589743,4242.564102,4436.923076,4194.358974,4432.820512,4231.282051,4225.641025,4496.410256,4197.435897,4648.717948,3977.435898,4040.000000
171,4423.076923,4496.410256,4520.512820,4250.769230,4437.435897,4199.487179,4431.794871,4233.333333,4223.589743,4496.410256,4195.384615,4649.230769,3987.179488,4041.025641
172,4424.102564,4500.512820,4521.538461,4250.769230,4438.974358,4200.000000,4431.794871,4230.256410,4221.538461,4498.974358,4203.076923,4651.282051,3996.923077,4048.717948
173,4424.615384,4507.179487,4522.051282,4246.153846,4441.538461,4200.512820,4431.794871,4230.769230,4221.538461,4498.974358,4204.615384,4654.871794,3997.435898,4052.820512
174,4426.153846,4507.692307,4521.025641,4249.743589,4438.974358,4203.589743,4430.769230,4232.820512,4223.589743,4497.435897,4201.025641,4656.410256,3997.948718,4053.846153
175,4427.179487,4505.641025,4522.564102,4255.897435,4440.000000,4201.025641,4429.230769,4230.256410,4225.128205,4500.512820,4209.230769,4658.461538,4002.564102,4053.846153
176,4429.743589,4507.179487,4527.692307,4252.307692,4441.025641,4200.000000,4430.769230,4232.307692,4228.717948,4508.205128,4215.384615,4668.205128,4009.743589,4058.461538
177,4424.615384,4506.153846,4520.000000,4244.615384,4431.282051,4201.025641,4428.205128,4233.846153,4226.666666,4506.153846,4210.769230,4668.717948,4011.794871,4063.076923
178,4412.820512,4502.564102,4510.256410,4245.128205,4432.820512,4198.461538,4424.102564,4231.282051,4220.000000,4497.948717,4210.256410,4661.025641,4009.230769,4062.564102
179,4411.794871,4511.282051,4514.358974,4250.256410,4445.128205,4202.051282,4428.205128,4231.794871,4223.589743,4501.025641,4214.871794,4662.051282,4008.717948,4062.051282
180,4417.435897,4519.487179,4516.923076,4253.846153,4445.128205,4207.179487,4433.333333,4233.333333,4227.692307,4504.615384,4211.794871,4661.538461,4010.769230,4063.076923
181,4414.871794,4514.358974,4508.717948,4254.358974,4445.128205,4204.615384,4430.769230,4229.230769,4223.589743,4499.487179,4206.153846,4653.846153,4010.769230,4056.923076
182,4409.230769,4514.871794,4506.153846,4253.846153,4453.846153,4206.153846,4427.692307,4230.769230,4223.589743,4501.538461,4208.205128,4651.794871,4014.871794,4051.794871
183,4409.230769,4521.025641,4513.846153,4256.923076,4454.358974,4210.256410,4430.256410,4235.384615,4232.307692,4512.820512,4216.923076,4658.461538,4019.487179,4060.000000
184,4412.820512,4518.461538,4516.923076,4265.128205,4449.743589,4212.307692,4434.358974,4235.384615,4236.923076,4515.384615,4222.051282,4660.000000,4017.948717,4064.615384
185,4411.794871,4514.358974,4513.333333,4263.589743,4453.333333,4214.358974,4435.384615,4238.461538,4237.948717,4511.794871,4215.897435,4655.897435,4017.435897,4059.487179
186,4404.615384,4509.230769,4507.179487,4251.794871,4452.820512,4209.230769,4431.282051,4238.461538,4239.487179,4510.256410,4208.205128,4652.307692,4018.974358,4057.435897
187,4400.512820,4505.641025,4506.666666,4245.128205,4442.051282,4203.589743,4428.717948,4235.897435,4237.435897,4510.256410,4209.743589,4651.282051,4018.461538,4058.461538
188,4407.692307,4516.923076,4516.410256,4249.743589,4444.615384,4211.282051,4436.410256,4238.461538,4238.974358,4512.307692,4217.948717,4660.512820,4018.974358,4061.538461
189,4412.820512,4526.666666,4522.564102,4260.000000,4454.871794,4218.974358,4439.487179,4237.435897,4244.615384,4513.846153,4222.564102,4669.743589,4023.589743,4070.769230
190,4413.846153,4524.615384,4524.102564,4267.179487,4459.487179,4216.410256,4435.384615,4240.000000,4247.179487,4513.846153,4223.076923,4672.820512,4027.692307,4077.435897
191,4414.358974,4522.051282,4524.102564,4267.692307,4458.461538,4216.923076,4434.871794,4245.641025,4247.692307,4518.461538,4223.589743,4673.846153,4027.179487,4077.948717
192,4405.641025,4514.871794,4517.948717,4262.564102,4444.615384,4214.358974,4432.307692,4240.512820,4242.051282,4517.435897,4220.000000,4670.256410,4018.461538,4071.282051
193,4401.025641,4515.384615,4513.846153,4258.974358,4441.538461,4210.769230,4432.307692,4234.358974,4237.435897,4512.820512,4218.461538,4668.205128,4010.256410,4064.102564
194,4410.769230,4528.205128,4520.000000,4265.128205,4462.051282,4223.076923,4443.076923,4244.102564,4246.153846,4517.435897,4227.692307,4677.435897,4015.897435,4068.205128
195,4416.923076,4529.230769,4527.179487,4269.230769,4467.179487,4235.384615,4452.307692,4256.410256,4256.923076,4520.000000,4235.384615,4687.692307,4024.615384,4075.384615
196,4413.846153,4519.487179,4528.717948,4260.000000,4456.410256,4227.179487,4452.307692,4258.461538,4260.000000,4523.076923,4231.794871,4685.641025,4024.102564,4076.410256
197,4413.333333,4519.487179,4529.230769,4254.871794,4459.487179,4218.461538,4451.794871,4256.410256,4255.384615,4528.205128,4229.230769,4679.487179,4021.538461,4077.435897
198,4413.846153,4517.435897,4525.128205,4258.974358,4456.923076,4222.564102,4448.205128,4252.820512,4246.153846,4523.076923,4226.666666,4675.384615,4017.435897,4075.384615
199,4408.205128,4508.205128,4519.487179,4255.384615,4443.589743,4223.076923,4443.589743,4249.230769,4242.051282,4515.897435,4221.025641,4671.794871,4009.743589,4067.179487
200,4405.641025,4513.333333,4524.615384,4255.897435,4449.230769,4222.051282,4446.153846,4249.230769,4247.179487,4518.974358,4224.615384,4674.358974,4009.743589,4067.692307
201,4408.205128,4517.435897,4527.179487,4260.512820,4456.410256,4224.615384,4450.256410,4243.589743,4246.666666,4519.487179,4226.153846,4675.897435,4016.923076,4073.333333
202,4408.717948,4513.333333,4523.589743,4261.025641,4451.794871,4227.179487,4450.769230,4240.000000,4240.512820,4515.384615,4221.538461,4673.333333,4020.000000,4073.846153
203,4407.692307,4515.897435,4523.589743,4260.512820,4451.282051,4229.743589,4452.307692,4243.589743,4243.589743,4517.435897,4223.076923,4673.333333,4018.461538,4076.923076
204,4409.230769,4520.512820,4523.589743,4256.410256,4452.307692,4231.794871,4454.871794,4244.102564,4251.282051,4517.948717,4226.153846,4674.871794,4014.871794,4076.410256
205,4410.256410,4517.435897,4522.051282,4251.282051,4445.128205,4230.256410,4452.820512,4241.025641,4250.769230,4516.410256,4221.025641,4672.820512,4014.871794,4068.205128
206,4401.538461,4513.333333,4520.512820,4255.897435,4441.538461,4225.641025,4449.743589,4238.974358,4244.615384,4513.846153,4217.948717,4666.153846,4014.358974,4062.051282
207,4397.435897,4511.282051,4520.000000,4260.512820,4448.717948,4225.641025,4450.256410,4238.974358,4241.538461,4510.769230,4216.923076,4666.666666,4011.794871,4065.641025
208,4407.692307,4513.846153,4522.564102,4256.923076,4456.410256,4227.692307,4449.230769,4241.025641,4243.076923,4514.871794,4218.461538,4677.948717,4014.358974,4071.794871
209,4413.333333,4520.512820,4528.205128,4260.512820,4458.974358,4230.769230,4448.205128,4241.025641,4248.205128,4522.051282,4228.205128,4684.615384,4020.512820,4076.410256
210,4412.307692,4525.128205,4529.230769,4266.666666,4455.897435,4231.794871,4450.769230,4238.974358,4251.794871,4524.615384,4234.871794,4682.564102,4022.564102,4083.076923
211,4414.871794,4522.564102,4526.153846,4263.076923,4450.769230,4226.666666,4448.717948,4245.641025,4251.794871,4528.205128,4236.923076,4685.128205,4025.641025,4088.205128
212,4411.794871,4515.897435,4523.076923,4256.410256,4446.666666,4221.538461,4441.538461,4252.820512,4249.743589,4528.717948,4235.897435,4685.641025,4025.641025,4080.000000
213,4403.589743,4514.871794,4519.487179,4251.794871,4444.102564,4225.641025,4443.589743,4246.666666,4251.794871,4523.589743,4227.692307,4681.538461,4018.974358,4070.256410
214,4406.666666,4519.487179,4521.538461,4250.769230,4447.179487,4230.256410,4452.307692,4246.153846,4260.000000,4527.179487,4230.769230,4683.076923,4022.564102,4077.435897
215,4407.692307,4513.846153,4520.512820,4254.871794,4447.179487,4226.666666,4451.282051,4249.743589,4260.000000,4531.282051,4235.897435,4684.102564,4027.692307,4079.487179
216,4397.435897,4507.179487,4513.846153,4256.410256,4444.102564,4222.564102,4444.102564,4245.641025,4252.307692,4520.000000,4225.641025,4681.025641,4017.948717,4072.307692
217,4395.384615,4512.307692,4515.384615,4253.333333,4445.128205,4224.102564,4442.564102,4241.025641,4250.256410,4510.769230,4220.512820,4682.051282,4014.358974,4078.461538
218,4396.923076,4511.794871,4523.076923,4251.794871,4448.717948,4225.641025,4444.615384,4235.897435,4248.205128,4512.820512,4228.205128,4681.025641,4019.487179,4080.512820
219,4395.384615,4506.666666,4521.538461,4253.846153,4455.897435,4228.717948,4447.692307,4232.820512,4244.102564,4517.948717,4229.230769,4677.435897,4018.974358,4070.256410
220,4402.564102,4515.384615,4520.000000,4258.974358,4464.102564,4233.333333,4452.307692,4233.846153,4249.230769,4528.205128,4234.358974,4681.538461,4022.051282,4078.461538
221,4409.743589,4525.128205,4524.615384,4263.589743,4457.948717,4232.307692,4451.282051,4233.333333,4252.820512,4530.769230,4247.692307,4689.230769,4030.769230,4088.717948
222,4401.538461,4521.025641,4524.615384,4262.564102,4445.641025,4224.102564,4445.128205,4228.205128,4248.717948,4518.974358,4236.923076,4681.025641,4021.538461,4075.897435
223,4394.358974,4515.384615,4520.512820,4255.897435,4447.692307,4221.538461,4444.102564,4226.153846,4248.717948,4513.333333,4217.948717,4667.692307,4004.102564,4066.666666
224,4396.923076,4514.871794,4520.512820,4253.333333,4453.846153,4228.717948,4448.205128,4229.743589,4251.282051,4517.948717,4218.974358,4672.820512,4007.692307,4074.358974
225,4398.974358,4516.923076,4521.538461,4260.512820,4455.384615,4234.358974,4454.358974,4233.846153,4251.794871,4520.000000,4223.589743,4682.051282,4022.051282,4078.974358
226,4400.512820,4521.538461,4521.025641,4269.230769,4456.923076,4237.435897,4458.974358,4234.358974,4256.923076,4520.512820,4223.076923,4680.000000,4017.948717,4077.435897
227,4405.128205,4527.179487,4521.538461,4271.794871,4462.051282,4244.102564,4457.948717,4233.846153,4259.487179,4522.564102,4230.769230,4679.487179,4004.615384,4075.384615
228,4407.692307,4535.897435,4522.564102,4274.358974,4471.282051,4250.256410,4460.000000,4233.333333,4256.410256,4522.051282,4239.487179,4683.589743,4012.307692,4078.461538
229,4407.179487,4537.435897,4520.512820,4272.820512,4472.820512,4246.153846,4463.589743,4224.102564,4250.769230,4520.512820,4231.794871,4677.948717,4022.051282,4081.538461
230,4402.564102,4530.256410,4515.384615,4266.666666,4463.076923,4238.461538,4453.333333,4213.846153,4248.717948,4519.487179,4222.564102,4671.794871,4015.384615,4076.410256
231,4400.000000,4530.769230,4514.358974,4267.179487,4458.974358,4235.897435,4443.589743,4216.410256,4249.743589,4517.435897,4232.307692,4677.948717,4017.948717,4077.435897
232,4403.076923,4535.897435,4520.512820,4270.256410,4464.102564,4237.948717,4451.794871,4222.051282,4253.846153,4522.051282,4248.717948,4683.589743,4027.179487,4092.307692
233,4405.641025,4533.333333,4523.589743,4266.153846,4462.051282,4237.435897,4457.948717,4226.153846,4258.461538,4532.307692,4248.717948,4682.051282,4025.128205,4094.871794
234,4405.641025,4530.769230,4519.487179,4263.076923,4454.871794,4232.307692,4449.743589,4228.205128,4260.512820,4535.897435,4241.538461,4681.538461,4025.128205,4086.666666
235,4404.615384,4530.256410,4519.487179,4268.205128,4455.384615,4236.410256,4450.769230,4231.794871,4264.102564,4533.333333,4248.717948,4686.666666,4031.794871,4089.743589
236,4401.538461,4523.076923,4523.589743,4266.666666,4457.948717,4243.589743,4457.948717,4233.846153,4265.641025,4532.307692,4251.794871,4689.743589,4027.179487,4093.333333
237,4396.410256,4518.461538,4520.000000,4253.846153,4460.512820,4238.461538,4455.384615,4225.128205,4256.410256,4528.717948,4238.461538,4684.102564,4014.871794,4087.179487
238,4395.384615,4520.512820,4515.384615,4252.820512,4458.974358,4230.769230,4448.717948,4218.461538,4247.179487,4518.461538,4235.897435,4678.974358,4011.282051,4084.615384
239,4403.589743,4527.179487,4523.076923,4269.743589,4459.487179,4236.410256,4450.769230,4225.641025,4254.871794,4518.461538,4245.641025,4683.076923,4018.974358,4090.256410
240,4407.692307,4531.282051,4526.153846,4277.435897,4463.076923,4242.564102,4452.820512,4227.179487,4259.487179,4525.128205,4242.564102,4687.179487,4025.128205,4090.769230
241,4398.461538,4523.589743,4514.871794,4264.615384,4458.974358,4232.307692,4447.692307,4219.487179,4250.769230,4521.025641,4233.846153,4681.025641,4017.948717,4083.076923
242,4395.384615,4520.512820,4513.846153,4259.487179,4451.794871,4230.256410,4448.717948,4227.179487,4256.410256,4523.076923,4240.512820,4677.948717,4010.256410,4082.051282
243,4402.051282,4526.153846,4524.102564,4264.615384,4454.358974,4235.384615,4453.333333,4237.948717,4269.743589,4537.435897,4250.769230,4687.692307,4017.435897,4092.820512
244,4401.025641,4524.102564,4524.615384,4258.974358,4452.820512,4232.820512,4452.820512,4232.820512,4266.666666,4537.948717,4247.692307,4693.333333,4023.076923,4100.000000
245,4395.897435,4520.512820,4521.025641,4254.871794,4446.666666,4232.820512,4454.358974,4224.102564,4257.435897,4528.205128,4241.538461,4688.717948,4018.461538,4097.948717
246,4394.871794,4521.538461,4521.025641,4261.025641,4452.307692,4235.384615,4455.897435,4222.564102,4255.384615,4522.564102,4240.512820,4684.102564,4013.333333,4091.282051
247,4389.230769,4515.897435,4518.461538,4261.025641,4457.435897,4230.769230,4453.846153,4226.153846,4255.897435,4519.487179,4240.000000,4684.615384,4010.769230,4085.128205
248,4385.641025,4514.358974,4518.974358,4259.487179,4454.871794,4234.358974,4457.948717,4231.794871,4262.051282,4521.025641,4246.153846,4686.666666,4011.794871,4088.205128
249,4392.820512,4522.564102,4524.615384,4271.794871,4457.435897,4246.153846,4464.615384,4233.846153,4271.282051,4531.794871,4255.384615,4691.794871,4018.461538,4097.435897
250,4395.384615,4525.128205,4527.692307,4271.282051,4461.025641,4243.589743,4461.538461,4230.769230,4267.179487,4533.846153,4251.794871,4694.358974,4021.538461,4098.461538
251,4385.641025,4522.564102,4521.025641,4256.923076,4458.974358,4233.846153,4453.333333,4221.025641,4253.333333,4521.025641,4240.000000,4685.641025,4009.743589,4092.307692
252,4377.435897,4517.435897,4511.794871,4253.846153,4454.358974,4231.282051,4446.666666,4212.307692,4245.641025,4512.307692,4232.820512,4676.410256,3995.897436,4083.589743
253,4379.487179,4512.307692,4511.794871,4256.410256,4448.205128,4236.410256,4451.282051,4217.948717,4253.333333,4524.102564,4240.000000,4683.589743,4002.564102,4081.025641
254,4384.615384,4513.846153,4516.410256,4253.333333,4449.230769,4243.076923,4463.076923,4230.769230,4266.153846,4538.461538,4250.256410,4692.820512,4020.000000,4088.205128
255,4380.512820,4511.794871,4515.897435,4250.256410,4456.923076,4240.512820,4460.512820,4230.769230,4269.743589,4529.743589,4245.641025,4689.743589,4021.025641,4089.743589
256,4375.384615,4510.256410,4512.307692,4249.743589,4455.384615,4234.871794,4455.384615,4228.205128,4267.179487,4522.564102,4237.435897,4687.692307,4010.769230,4084.615384
257,4378.974358,4515.897435,4516.923076,4252.820512,4452.820512,4237.948717,4462.564102,4231.794871,4262.564102,4532.820512,4243.076923,4694.358974,4011.282051,4088.717948
258,4380.000000,4515.384615,4518.461538,4255.897435,4451.282051,4238.461538,4458.974358,4226.666666,4257.435897,4533.333333,4247.179487,4693.333333,4021.538461,4094.871794
259,4374.358974,4511.794871,4512.820512,4249.230769,4442.564102,4231.794871,4446.153846,4218.974358,4254.358974,4524.615384,4240.512820,4688.717948,4028.717948,4091.794871
