,AF3,F7,F3,FC5,T7,P7,O1,O2,P8,T8,FC6,F4,F8,AF4
0,4364.102564,4537.435897,4531.282051,4261.025641,4489.230769,4199.487179,4433.846153,4228.717948,4242.051282,4523.589743,4205.128205,4649.743589,4003.589743,4072.307692
1,4355.384615,4529.230769,4532.820512,4262.051282,4496.410256,4198.974358,4436.410256,4231.282051,4242.564102,4525.641025,4207.179487,4648.205128,3997.948718,4064.102564
2,4359.487179,4533.333333,4533.846153,4264.615384,4503.076923,4200.512820,4439.487179,4230.256410,4245.641025,4523.076923,4203.076923,4648.205128,4004.102564,4066.666666
3,4362.564102,4533.846153,4527.692307,4262.564102,4500.512820,4200.512820,4435.897435,4227.692307,4247.692307,4522.564102,4201.538461,4647.692307,4009.230769,4066.153846
4,4357.948717,4527.179487,4525.128205,4257.948717,4497.948717,4197.948717,4433.846153,4227.179487,4246.153846,4521.538461,4203.589743,4648.205128,4005.641025,4059.487179
5,4362.051282,4534.358974,4531.794871,4261.538461,4504.615384,4201.025641,4441.538461,4231.282051,4247.692307,4525.641025,4205.641025,4653.846153,4003.076923,4067.179487
6,4367.692307,4542.564102,4537.435897,4266.666666,4507.692307,4205.641025,4445.641025,4234.358974,4245.641025,4528.205128,4208.717948,4657.948717,4007.692307,4074.358974
7,4366.153846,4536.923076,4534.871794,4264.102564,4503.076923,4204.102564,4437.948717,4231.794871,4241.538461,4523.076923,4216.410256,4654.871794,4008.205128,4068.205128
8,4368.205128,4535.897435,4534.358974,4263.589743,4504.615384,4202.564102,4436.410256,4232.820512,4249.230769,4522.564102,4221.025641,4654.871794,4004.615384,4068.717948
9,4370.769230,4536.410256,4543.076923,4267.692307,4510.769230,4201.538461,4441.025641,4233.333333,4251.282051,4523.076923,4214.871794,4658.461538,4000.000000,4072.307692
10,4361.025641,4526.153846,4543.076923,4261.538461,4504.102564,4200.512820,4438.974358,4224.102564,4235.897435,4513.333333,4203.589743,4651.794871,3989.743590,4066.153846
11,4350.769230,4526.153846,4530.256410,4253.846153,4493.846153,4202.051282,4437.435897,4215.384615,4223.076923,4506.153846,4201.025641,4640.512820,3985.128206,4057.948717
12,4357.435897,4532.820512,4529.743589,4260.512820,4498.461538,4204.615384,4442.564102,4216.410256,4226.666666,4509.743589,4208.717948,4644.102564,3986.666667,4056.410256
13,4367.179487,4531.794871,4542.051282,4268.717948,4508.205128,4206.153846,4446.666666,4220.512820,4240.512820,4518.461538,4210.769230,4653.846153,3983.076924,4061.538461
14,4363.589743,4528.717948,4539.487179,4268.205128,4507.692307,4203.589743,4439.487179,4223.589743,4242.564102,4519.487179,4200.512820,4652.820512,3981.538462,4067.179487
15,4356.410256,4526.153846,4530.769230,4263.589743,4502.564102,4200.512820,4431.794871,4221.538461,4228.205128,4508.205128,4198.974358,4647.179487,3985.128206,4066.666666
16,4358.974358,4525.128205,4534.358974,4258.974358,4500.512820,4200.000000,4431.794871,4217.435897,4220.512820,4505.128205,4207.179487,4648.205128,3987.179488,4057.948717
17,4360.512820,4529.743589,4536.410256,4260.000000,4498.461538,4200.000000,4436.410256,4216.923076,4227.179487,4514.871794,4203.589743,4649.743589,3985.641026,4052.820512
18,4353.846153,4535.897435,4532.307692,4268.205128,4497.435897,4200.512820,4434.358974,4214.871794,4231.794871,4510.256410,4192.307692,4642.051282,3980.512821,4054.358974
19,4353.333333,4536.410256,4532.820512,4266.153846,4500.000000,4201.538461,4432.820512,4215.897435,4231.794871,4504.102564,4191.282051,4637.435897,3976.410257,4058.461538
20,4358.974358,4538.974358,4538.974358,4262.051282,4502.564102,4204.102564,4440.000000,4226.666666,4235.384615,4514.358974,4201.538461,4645.641025,3987.179488,4061.538461
21,4358.974358,4541.025641,4538.974358,4271.282051,4503.589743,4204.615384,4444.102564,4234.871794,4238.461538,4522.051282,4203.589743,4648.717948,3997.435898,4059.487179
22,4355.897435,4537.948717,4534.358974,4277.435897,4506.153846,4205.641025,4441.538461,4228.717948,4236.410256,4517.435897,4196.923076,4642.051282,3987.179488,4058.974358
23,4356.410256,4536.410256,4531.794871,4277.948717,4508.717948,4203.076923,4440.000000,4221.025641,4236.410256,4513.846153,4200.000000,4643.076923,3975.897436,4063.076923
24,4358.974358,4541.538461,4533.333333,4277.435897,4506.153846,4202.051282,4442.051282,4228.205128,4238.974358,4514.871794,4204.615384,4651.794871,3981.025642,4060.512820
25,4355.897435,4537.948717,4533.333333,4271.794871,4500.000000,4206.666666,4443.076923,4231.282051,4238.461538,4511.794871,4194.871794,4652.307692,3985.641026,4053.333333
26,4348.717948,4527.179487,4528.717948,4264.102564,4494.358974,4207.179487,4438.974358,4224.615384,4231.282051,4509.230769,4188.717948,4645.128205,3981.538462,4054.871794
27,4350.769230,4529.743589,4527.179487,4264.102564,4491.282051,4203.076923,4436.410256,4227.179487,4230.256410,4514.358974,4198.974358,4643.076923,3984.615385,4061.538461
28,4355.384615,4538.974358,4528.205128,4268.717948,4498.974358,4201.025641,4432.820512,4226.666666,4234.871794,4515.897435,4193.846153,4644.102564,3988.205129,4052.820512
29,4352.307692,4539.487179,4528.717948,4272.307692,4508.205128,4201.538461,4432.820512,4220.512820,4231.794871,4512.307692,4176.923076,4643.076923,3976.923077,4045.641025
30,4350.769230,4535.384615,4531.794871,4272.820512,4504.615384,4202.051282,4439.487179,4225.128205,4230.256410,4510.769230,4188.717948,4645.128205,3969.743590,4053.846153
31,4350.769230,4526.666666,4531.794871,4267.692307,4494.358974,4201.538461,4445.128205,4230.256410,4231.794871,4508.205128,4204.615384,4645.128205,3975.897436,4051.794871
32,4344.615384,4517.948717,4526.153846,4264.102564,4488.205128,4202.051282,4444.102564,4220.000000,4228.717948,4501.025641,4192.307692,4636.923076,3974.871795,4035.384615
33,4339.487179,4521.538461,4520.000000,4266.153846,4489.230769,4203.589743,4442.564102,4213.333333,4226.153846,4503.076923,4181.025641,4629.230769,3970.256411,4034.871794
34,4341.025641,4525.128205,4521.025641,4268.205128,4490.256410,4204.102564,4444.615384,4219.487179,4230.769230,4506.666666,4192.820512,4634.358974,3971.794872,4045.128205
35,4341.025641,4520.512820,4526.153846,4265.128205,4491.794871,4200.512820,4439.487179,4223.076923,4236.923076,4504.102564,4202.051282,4642.564102,3974.358975,4046.153846
36,4340.000000,4523.076923,4528.717948,4263.589743,4491.282051,4198.974358,4430.256410,4223.589743,4237.948717,4507.179487,4202.051282,4646.666666,3978.461539,4044.615384
37,4340.512820,4525.128205,4527.692307,4264.102564,4488.717948,4200.512820,4427.692307,4223.076923,4234.871794,4514.871794,4198.461538,4643.589743,3975.384616,4043.589743
38,4341.538461,4521.025641,4525.128205,4262.051282,4489.230769,4198.461538,4433.333333,4219.487179,4230.256410,4514.358974,4193.333333,4638.461538,3967.692308,4041.538461
39,4350.256410,4527.179487,4528.717948,4265.128205,4495.384615,4201.538461,4441.025641,4218.461538,4230.256410,4509.230769,4202.051282,4643.076923,3974.871795,4050.769230
40,4358.461538,4540.512820,4538.974358,4275.384615,4501.538461,4209.230769,4444.102564,4223.589743,4233.333333,4508.205128,4216.410256,4651.282051,3990.256411,4063.589743
41,4358.974358,4541.538461,4545.128205,4277.435897,4499.487179,4208.717948,4442.564102,4229.743589,4237.948717,4512.820512,4218.461538,4655.384615,3989.743590,4061.538461
42,4360.000000,4538.461538,4545.641025,4279.487179,4500.000000,4208.205128,4442.051282,4233.333333,4250.769230,4523.589743,4218.974358,4658.974358,3989.230770,4059.487179
43,4365.641025,4548.205128,4551.282051,4292.307692,4507.179487,4216.410256,4449.743589,4244.102564,4264.102564,4539.487179,4223.589743,4666.666666,4003.076923,4070.256410
44,4372.307692,4559.487179,4557.948717,4300.000000,4512.307692,4222.051282,4460.512820,4255.897435,4265.128205,4544.615384,4229.743589,4671.794871,4009.230769,4082.051282
45,4372.820512,4555.384615,4553.846153,4289.230769,4509.230769,4218.461538,4460.000000,4249.743589,4249.230769,4528.717948,4228.717948,4664.615384,3996.410257,4075.897435
46,4356.923076,4538.461538,4535.384615,4273.846153,4498.461538,4211.282051,4448.717948,4234.358974,4235.384615,4511.282051,4209.230769,4648.717948,3975.897436,4049.230769
47,4337.435897,4522.564102,4518.461538,4265.128205,4495.384615,4205.641025,4442.564102,4227.179487,4234.358974,4507.179487,4191.794871,4636.923076,3966.666667,4031.282051
48,4332.307692,4515.384615,4512.820512,4263.076923,4497.948717,4201.025641,4441.025641,4222.564102,4228.205128,4509.743589,4187.179487,4631.794871,3967.692308,4035.384615
49,4336.410256,4520.000000,4514.358974,4262.051282,4498.461538,4205.128205,4437.948717,4213.846153,4217.435897,4507.179487,4189.743589,4629.743589,3970.769231,4038.974358
50,4340.000000,4534.358974,4522.564102,4262.051282,4498.974358,4211.282051,4441.025641,4213.333333,4221.538461,4505.128205,4202.564102,4636.410256,3979.487180,4034.871794
51,4346.153846,4539.487179,4534.358974,4266.153846,4503.589743,4207.692307,4441.538461,4220.000000,4227.179487,4509.743589,4211.794871,4646.666666,3989.230770,4041.025641
52,4341.538461,4529.230769,4533.333333,4268.717948,4506.153846,4198.461538,4431.282051,4217.948717,4219.487179,4507.692307,4194.358974,4645.128205,3988.717949,4051.794871
53,4331.282051,4521.025641,4526.666666,4266.666666,4503.589743,4198.974358,4426.666666,4212.820512,4211.282051,4500.512820,4180.000000,4638.461538,3983.076924,4048.205128
54,4333.846153,4525.641025,4529.743589,4264.615384,4497.948717,4204.615384,4431.794871,4216.410256,4216.410256,4503.076923,4186.666666,4641.025641,3990.769231,4043.076923
55,4338.461538,4533.333333,4531.282051,4263.589743,4496.923076,4201.025641,4433.333333,4222.051282,4222.564102,4505.641025,4191.282051,4646.666666,4002.564102,4047.179487
56,4338.974358,4534.871794,4530.769230,4265.128205,4506.153846,4200.512820,4436.410256,4225.641025,4228.717948,4503.076923,4197.948717,4648.717948,4009.230769,4059.487179
57,4339.487179,4533.846153,4532.307692,4269.743589,4510.769230,4205.128205,4443.589743,4231.282051,4241.025641,4513.846153,4202.051282,4651.282051,4015.897435,4068.205128
58,4335.384615,4534.358974,4532.307692,4263.589743,4500.512820,4204.615384,4445.641025,4234.358974,4244.615384,4525.128205,4196.923076,4651.794871,4017.435897,4061.538461
59,4326.153846,4529.743589,4530.769230,4250.769230,4493.846153,4200.512820,4442.564102,4227.692307,4234.358974,4515.384615,4196.410256,4647.179487,4014.358974,4050.769230
60,4325.128205,4523.589743,4531.794871,4253.333333,4501.538461,4204.615384,4440.512820,4226.153846,4230.256410,4505.641025,4203.076923,4645.128205,4012.820512,4053.333333
61,4330.769230,4524.102564,4532.820512,4259.487179,4503.589743,4214.358974,4443.589743,4227.692307,4230.769230,4507.179487,4198.974358,4647.692307,4008.205128,4063.076923
62,4326.666666,4516.923076,4527.692307,4250.769230,4494.358974,4210.256410,4444.102564,4222.051282,4224.102564,4502.051282,4190.769230,4643.076923,3996.923077,4058.461538
63,4320.512820,4503.589743,4524.102564,4243.589743,4494.358974,4200.512820,4437.948717,4217.948717,4225.128205,4498.461538,4190.256410,4635.897435,3989.230770,4044.615384
64,4328.205128,4511.794871,4529.230769,4248.205128,4496.410256,4202.564102,4436.410256,4222.564102,4234.358974,4505.641025,4190.769230,4640.000000,3995.384616,4045.641025
65,4343.076923,4533.846153,4534.871794,4255.384615,4492.820512,4204.102564,4443.076923,4227.692307,4232.820512,4508.717948,4195.384615,4649.743589,4007.692307,4062.051282
66,4345.641025,4534.358974,4532.820512,4258.461538,4497.948717,4200.512820,4445.128205,4231.282051,4226.153846,4505.128205,4196.923076,4650.256410,4009.230769,4068.205128
67,4343.076923,4527.179487,4531.794871,4261.538461,4505.128205,4208.205128,4443.589743,4232.307692,4225.128205,4505.641025,4191.794871,4648.717948,4002.051282,4054.871794
68,4354.358974,4534.358974,4541.025641,4267.692307,4504.102564,4218.461538,4446.666666,4231.282051,4233.333333,4514.358974,4195.384615,4655.384615,4011.794871,4054.358974
69,4362.051282,4542.051282,4548.205128,4270.769230,4506.153846,4212.307692,4448.717948,4234.871794,4246.666666,4524.615384,4206.666666,4662.564102,4030.769230,4072.820512
70,4354.358974,4539.487179,4544.615384,4264.615384,4509.743589,4208.205128,4444.102564,4235.384615,4252.307692,4532.820512,4209.230769,4662.564102,4028.205128,4080.512820
71,4349.743589,4531.794871,4536.923076,4259.487179,4507.179487,4211.282051,4441.538461,4231.282051,4247.179487,4534.871794,4198.974358,4660.000000,4014.358974,4068.717948
72,4348.717948,4526.666666,4533.846153,4263.076923,4503.589743,4209.230769,4443.076923,4232.820512,4242.051282,4527.692307,4188.717948,4656.923076,4009.743589,4053.333333
73,4343.076923,4524.102564,4531.794871,4263.076923,4501.538461,4202.051282,4442.564102,4233.333333,4243.076923,4522.051282,4190.769230,4654.358974,4009.743589,4048.717948
74,4340.512820,4525.641025,4530.769230,4256.923076,4504.615384,4200.512820,4440.512820,4229.743589,4245.128205,4525.128205,4201.538461,4652.820512,4008.205128,4056.410256
75,4344.102564,4528.205128,4532.820512,4250.769230,4508.717948,4205.641025,4442.051282,4231.282051,4239.487179,4528.205128,4204.615384,4650.769230,4007.179487,4060.512820
76,4342.564102,4522.564102,4532.307692,4250.769230,4502.564102,4207.179487,4443.076923,4230.256410,4232.307692,4522.051282,4195.897435,4649.743589,4001.025641,4049.743589
77,4341.538461,4521.025641,4528.205128,4258.974358,4498.461538,4206.153846,4439.487179,4220.512820,4231.794871,4509.743589,4188.205128,4647.692307,3991.794872,4041.538461
78,4347.179487,4531.282051,4528.205128,4264.615384,4504.102564,4211.282051,4442.051282,4222.051282,4233.846153,4503.589743,4191.794871,4647.692307,3991.282052,4051.794871
79,4342.051282,4531.794871,4526.153846,4258.461538,4502.564102,4212.820512,4446.666666,4228.717948,4231.794871,4503.589743,4188.717948,4647.692307,3987.179488,4051.794871
80,4322.564102,4512.307692,4515.384615,4244.615384,4491.794871,4204.102564,4437.948717,4223.589743,4227.692307,4498.974358,4170.256410,4636.410256,3971.282052,4028.205128
81,4315.384615,4495.384615,4506.153846,4234.358974,4482.564102,4192.820512,4425.641025,4211.282051,4213.846153,4483.076923,4157.948717,4621.025641,3963.589744,4012.820512
82,4326.153846,4496.923076,4509.230769,4236.410256,4477.948717,4190.256410,4424.102564,4204.615384,4204.102564,4478.461538,4163.589743,4622.564102,3971.282052,4026.666666
83,4334.358974,4504.615384,4520.512820,4246.153846,4481.538461,4195.897435,4433.333333,4209.230769,4217.435897,4498.974358,4174.358974,4638.974358,3978.461539,4043.589743
84,4337.948717,4507.692307,4527.692307,4250.256410,4487.179487,4201.025641,4440.000000,4217.435897,4226.666666,4507.179487,4182.051282,4648.205128,3985.128206,4041.538461
85,4342.051282,4509.230769,4527.179487,4247.692307,4492.307692,4200.512820,4441.025641,4218.461538,4221.025641,4493.333333,4191.282051,4646.666666,3990.256411,4036.923076
86,4345.128205,4510.769230,4526.666666,4247.179487,4497.435897,4201.538461,4442.564102,4215.897435,4223.589743,4492.820512,4193.333333,4647.692307,3990.256411,4040.000000
87,4342.051282,4511.282051,4525.641025,4250.256410,4494.871794,4204.615384,4443.076923,4216.923076,4229.230769,4503.589743,4188.205128,4646.666666,3983.589744,4041.538461
88,4333.333333,4504.102564,4518.461538,4244.615384,4484.615384,4202.051282,4437.435897,4214.358974,4218.461538,4495.384615,4179.487179,4635.897435,3975.384616,4036.923076
89,4335.897435,4501.538461,4518.461538,4242.051282,4486.666666,4201.538461,4435.897435,4212.820512,4212.307692,4486.666666,4178.461538,4632.820512,3976.923077,4034.358974
90,4351.794871,4514.358974,4528.717948,4254.871794,4496.410256,4203.589743,4442.051282,4215.384615,4220.512820,4499.487179,4192.820512,4642.564102,3990.256411,4036.410256
91,4355.897435,4523.589743,4532.820512,4263.076923,4494.871794,4201.538461,4444.102564,4216.923076,4228.205128,4509.743589,4194.871794,4647.692307,3992.307693,4041.025641
92,4348.717948,4516.410256,4531.282051,4255.384615,4490.256410,4201.025641,4442.051282,4222.051282,4231.282051,4504.615384,4185.128205,4649.743589,3980.512821,4046.666666
93,4345.641025,4505.128205,4529.743589,4247.179487,4491.794871,4200.512820,4434.871794,4219.487179,4222.051282,4491.282051,4182.564102,4646.153846,3975.897436,4042.051282
94,4345.128205,4502.051282,4525.641025,4245.128205,4490.256410,4197.948717,4426.153846,4212.820512,4213.333333,4487.179487,4183.589743,4638.974358,3976.923077,4031.282051
95,4349.230769,4512.307692,4527.179487,4252.307692,4485.128205,4198.461538,4431.282051,4224.615384,4222.564102,4499.487179,4188.717948,4645.641025,3983.076924,4035.897435
96,4357.948717,4521.538461,4532.307692,4262.564102,4483.589743,4201.025641,4436.923076,4236.923076,4232.820512,4508.717948,4195.897435,4657.435897,3986.153847,4043.076923
97,4356.410256,4515.897435,4527.179487,4257.435897,4489.743589,4199.487179,4429.743589,4226.153846,4228.205128,4504.615384,4190.256410,4651.282051,3976.410257,4041.025641
98,4355.897435,4508.717948,4522.564102,4252.820512,4492.307692,4199.487179,4425.128205,4220.512820,4228.717948,4506.666666,4182.051282,4644.102564,3975.897436,4042.564102
99,4365.641025,4517.435897,4528.717948,4265.641025,4491.282051,4201.025641,4432.820512,4231.794871,4238.974358,4517.435897,4195.384615,4654.358974,3995.897436,4047.179487
100,4369.743589,4527.692307,4530.769230,4269.743589,4494.871794,4202.564102,4441.538461,4233.846153,4240.000000,4520.000000,4208.205128,4661.025641,4003.076923,4048.717948
101,4371.282051,4526.666666,4528.717948,4262.564102,4503.076923,4210.256410,4444.615384,4231.794871,4242.051282,4517.948717,4199.487179,4656.923076,3992.307693,4051.282051
102,4375.897435,4522.051282,4531.282051,4263.589743,4504.102564,4215.384615,4444.102564,4235.384615,4248.717948,4515.384615,4194.871794,4654.358974,3992.820513,4054.358974
103,4372.307692,4518.974358,4528.205128,4263.589743,4494.358974,4208.205128,4444.615384,4228.717948,4242.051282,4515.897435,4202.051282,4653.333333,4002.051282,4053.846153
104,4365.641025,4518.974358,4520.512820,4258.974358,4487.692307,4202.051282,4442.051282,4217.435897,4230.769230,4516.923076,4200.512820,4650.769230,4003.589743,4048.205128
105,4364.615384,4512.820512,4518.974358,4260.512820,4491.282051,4203.076923,4432.307692,4217.948717,4226.153846,4508.205128,4193.333333,4646.666666,3992.307693,4038.974358
106,4364.615384,4505.641025,4520.000000,4261.025641,4492.820512,4201.025641,4425.641025,4216.410256,4223.076923,4497.948717,4190.256410,4644.102564,3978.461539,4035.384615
107,4363.589743,4511.794871,4519.487179,4257.435897,4489.743589,4197.948717,4426.153846,4207.692307,4222.051282,4498.974358,4187.179487,4647.179487,3980.000000,4041.025641
108,4366.666666,4519.487179,4523.589743,4259.487179,4490.256410,4199.487179,4428.717948,4208.717948,4231.282051,4510.256410,4191.282051,4652.307692,3992.820513,4049.743589
109,4370.256410,4518.461538,4528.205128,4263.589743,4492.307692,4201.538461,4431.282051,4217.435897,4236.410256,4516.410256,4198.461538,4653.846153,3995.897436,4051.282051
110,4370.769230,4511.282051,4522.564102,4258.461538,4490.769230,4201.538461,4429.743589,4217.948717,4229.743589,4512.820512,4187.692307,4650.256410,3990.256411,4042.564102
111,4368.205128,4506.666666,4515.897435,4253.846153,4489.743589,4199.487179,4426.153846,4212.820512,4224.615384,4503.076923,4179.487179,4647.179487,3986.666667,4038.461538
112,4366.153846,4510.256410,4520.512820,4258.974358,4488.205128,4198.461538,4425.641025,4213.333333,4228.205128,4504.102564,4194.358974,4649.743589,3980.000000,4046.153846
113,4369.743589,4518.461538,4527.692307,4263.589743,4483.589743,4198.974358,4427.692307,4218.461538,4233.846153,4507.692307,4203.589743,4653.333333,3976.923077,4048.205128
114,4371.794871,4515.897435,4528.205128,4260.512820,4484.615384,4200.000000,4433.846153,4217.948717,4230.256410,4503.589743,4198.974358,4652.820512,3985.128206,4040.512820
115,4370.769230,4510.769230,4526.153846,4258.974358,4490.769230,4201.538461,4443.076923,4215.897435,4230.769230,4508.205128,4200.512820,4653.333333,3994.358975,4043.076923
116,4371.794871,4514.871794,4528.205128,4263.589743,4492.820512,4201.538461,4438.461538,4217.435897,4234.871794,4513.333333,4203.076923,4653.846153,3991.282052,4053.846153
117,4369.743589,4509.743589,4530.256410,4264.102564,4485.641025,4201.538461,4428.205128,4221.025641,4232.307692,4509.230769,4201.025641,4654.871794,3981.538462,4052.307692
118,4370.256410,4508.205128,4530.769230,4262.051282,4479.487179,4201.538461,4428.717948,4222.051282,4234.358974,4509.230769,4203.076923,4659.487179,3983.589744,4042.051282
119,4372.307692,4520.512820,4529.743589,4262.051282,4485.128205,4201.538461,4427.179487,4214.358974,4232.307692,4506.153846,4200.000000,4657.435897,3988.717949,4039.487179
120,4370.769230,4525.641025,4523.076923,4262.564102,4491.282051,4203.076923,4424.102564,4210.769230,4220.512820,4497.435897,4192.307692,4651.794871,3985.641026,4047.692307
121,4370.256410,4526.153846,4518.974358,4264.615384,4493.846153,4207.179487,4430.769230,4217.435897,4223.589743,4495.897435,4197.435897,4652.307692,3976.923077,4050.769230
122,4367.179487,4529.230769,4516.410256,4260.512820,4499.487179,4203.076923,4429.743589,4210.769230,4228.717948,4493.333333,4189.743589,4645.128205,3964.615385,4039.487179
123,4360.000000,4529.743589,4513.846153,4255.897435,4500.000000,4198.461538,4420.000000,4194.871794,4219.487179,4488.717948,4170.256410,4637.948717,3952.820513,4029.743589
124,4365.128205,4532.307692,4521.538461,4266.666666,4493.333333,4209.743589,4423.589743,4204.615384,4222.051282,4498.461538,4182.564102,4649.230769,3958.461539,4036.923076
125,4376.410256,4534.871794,4528.717948,4274.871794,4492.820512,4216.923076,4431.794871,4221.025641,4230.256410,4502.051282,4201.538461,4658.461538,3971.282052,4048.205128
126,4373.333333,4525.128205,4521.025641,4263.076923,4494.358974,4207.692307,4429.230769,4216.410256,4226.153846,4495.384615,4192.307692,4648.717948,3966.153847,4047.692307
127,4364.102564,4521.025641,4512.820512,4256.923076,4491.282051,4200.000000,4426.153846,4211.794871,4221.538461,4496.923076,4178.461538,4640.512820,3956.410257,4038.974358
128,4360.000000,4523.076923,4514.871794,4264.102564,4490.256410,4201.025641,4427.179487,4212.307692,4218.461538,4492.820512,4178.461538,4640.512820,3956.410257,4031.794871
129,4357.435897,4514.871794,4518.461538,4263.076923,4490.769230,4200.000000,4425.128205,4209.743589,4218.461538,4485.128205,4185.128205,4643.076923,3957.435898,4034.358974
130,4368.205128,4517.948717,4524.102564,4263.076923,4492.820512,4197.948717,4423.589743,4212.307692,4226.153846,4494.358974,4193.846153,4651.282051,3959.487180,4044.615384
131,4380.000000,4527.692307,4528.205128,4268.205128,4494.358974,4202.564102,4427.692307,4220.512820,4228.205128,4507.692307,4197.948717,4657.435897,3964.615385,4051.794871
132,4375.897435,4523.589743,4523.076923,4266.153846,4491.282051,4207.179487,4428.717948,4221.538461,4224.615384,4502.051282,4190.769230,4653.846153,3968.717949,4046.153846
133,4368.205128,4519.487179,4519.487179,4264.102564,4490.256410,4206.153846,4427.692307,4218.461538,4230.256410,4494.871794,4188.717948,4650.769230,3972.307693,4039.487179
134,4371.282051,4521.025641,4523.589743,4264.102564,4492.820512,4202.564102,4435.384615,4224.615384,4240.512820,4501.538461,4195.897435,4653.846153,3973.846154,4046.666666
135,4375.384615,4522.564102,4526.666666,4262.564102,4492.820512,4201.025641,4440.000000,4232.307692,4240.000000,4502.564102,4198.974358,4656.410256,3967.692308,4055.897435
136,4378.461538,4522.051282,4526.153846,4262.051282,4491.794871,4208.717948,4437.435897,4232.820512,4233.846153,4497.435897,4197.435897,4658.461538,3960.000000,4050.256410
137,4382.051282,4520.512820,4527.179487,4263.589743,4495.897435,4214.358974,4441.538461,4231.794871,4234.358974,4502.051282,4196.923076,4662.564102,3959.487180,4042.051282
138,4376.923076,4520.512820,4524.102564,4263.589743,4496.410256,4207.179487,4438.974358,4231.794871,4233.846153,4507.692307,4194.871794,4656.410256,3961.025642,4041.025641
139,4369.743589,4522.051282,4515.384615,4265.128205,4489.230769,4198.974358,4426.153846,4229.230769,4228.717948,4506.153846,4188.717948,4645.128205,3963.076924,4041.025641
140,4376.410256,4520.512820,4520.000000,4271.794871,4487.692307,4202.051282,4432.307692,4228.717948,4231.794871,4506.666666,4193.333333,4649.743589,3966.666667,4046.666666
141,4388.205128,4527.179487,4529.743589,4282.051282,4494.871794,4207.179487,4449.230769,4234.358974,4238.974358,4505.128205,4205.128205,4660.000000,3968.717949,4049.230769
142,4385.641025,4536.923076,4526.153846,4277.948717,4496.410256,4206.666666,4438.974358,4230.769230,4233.846153,4494.871794,4200.000000,4654.358974,3963.589744,4044.102564
143,4376.923076,4530.256410,4518.974358,4264.615384,4491.282051,4205.128205,4424.615384,4215.897435,4222.051282,4490.256410,4187.692307,4645.641025,3957.948718,4044.102564
144,4378.974358,4518.974358,4517.948717,4267.179487,4491.794871,4203.589743,4426.666666,4208.717948,4212.820512,4492.307692,4187.179487,4644.615384,3956.410257,4045.128205
145,4382.051282,4520.512820,4514.871794,4274.358974,4493.846153,4201.538461,4427.179487,4212.307692,4210.769230,4495.384615,4191.282051,4642.564102,3956.410257,4037.948717
146,4381.025641,4526.153846,4514.358974,4267.179487,4492.307692,4202.564102,4426.153846,4215.384615,4216.410256,4496.923076,4190.256410,4641.025641,3957.948718,4035.384615
147,4378.974358,4522.564102,4516.923076,4258.974358,4490.256410,4202.051282,4428.717948,4214.358974,4215.897435,4490.256410,4182.051282,4645.641025,3961.025642,4042.051282
148,4374.358974,4510.769230,4513.333333,4258.974358,4484.615384,4198.461538,4429.230769,4213.333333,4212.820512,4486.666666,4174.871794,4646.153846,3954.358975,4040.512820
149,4368.205128,4505.128205,4509.743589,4260.512820,4481.025641,4201.025641,4434.358974,4213.846153,4218.461538,4488.205128,4175.897435,4643.589743,3948.717949,4033.333333
150,4368.717948,4514.871794,4515.384615,4267.179487,4487.179487,4213.333333,4444.615384,4216.410256,4222.051282,4488.717948,4185.641025,4648.205128,3955.384616,4031.794871
151,4375.384615,4523.076923,4517.948717,4276.410256,4492.820512,4220.512820,4445.128205,4217.435897,4218.461538,4490.769230,4186.666666,4651.282051,3953.846154,4036.923076
152,4377.435897,4520.512820,4515.384615,4274.358974,4495.384615,4218.461538,4440.512820,4217.435897,4220.512820,4492.307692,4177.435897,4647.179487,3946.153847,4042.564102
153,4376.923076,4521.025641,4516.410256,4266.666666,4501.538461,4210.769230,4443.076923,4219.487179,4225.128205,4488.717948,4175.384615,4647.179487,3949.230770,4042.564102
154,4375.897435,4523.589743,4515.897435,4267.692307,4497.948717,4209.230769,4445.641025,4224.615384,4225.128205,4489.230769,4183.589743,4648.717948,3951.282052,4034.871794
155,4375.897435,4522.051282,4513.846153,4273.846153,4486.666666,4212.820512,4443.076923,4229.230769,4227.179487,4500.000000,4187.692307,4646.666666,3948.717949,4033.846153
156,4371.282051,4520.000000,4510.769230,4269.743589,4486.666666,4206.153846,4441.025641,4225.128205,4226.153846,4502.564102,4175.384615,4642.564102,3951.282052,4037.948717
157,4372.820512,4521.025641,4513.333333,4262.564102,4492.307692,4202.051282,4441.025641,4222.051282,4226.153846,4503.076923,4173.333333,4642.564102,3961.538462,4037.948717
158,4385.128205,4524.102564,4528.205128,4266.153846,4490.769230,4214.871794,4443.076923,4233.333333,4235.384615,4515.384615,4196.923076,4654.871794,3972.820513,4047.179487
159,4383.076923,4522.051282,4533.333333,4267.692307,4490.769230,4221.025641,4444.102564,4240.512820,4240.512820,4514.871794,4200.512820,4662.051282,3967.179488,4053.333333
160,4370.256410,4519.487179,4518.461538,4260.512820,4496.923076,4210.769230,4442.051282,4232.307692,4229.743589,4501.538461,4180.000000,4649.743589,3959.487180,4047.179487
161,4375.384615,4524.102564,4509.230769,4262.051282,4497.948717,4212.820512,4437.435897,4227.692307,4228.205128,4500.000000,4178.461538,4643.076923,3981.025642,4048.717948
162,4383.589743,4530.256410,4516.410256,4267.692307,4495.897435,4217.948717,4431.794871,4231.282051,4239.487179,4510.256410,4189.230769,4650.769230,4005.641025,4053.333333
163,4381.538461,4530.256410,4524.102564,4267.692307,4495.897435,4209.230769,4431.282051,4227.179487,4240.512820,4514.358974,4190.256410,4653.846153,4005.641025,4052.307692
164,4382.051282,4526.153846,4529.230769,4263.589743,4497.435897,4206.666666,4437.435897,4223.589743,4233.333333,4512.820512,4194.358974,4654.358974,4009.230769,4060.512820
165,4388.717948,4522.051282,4532.307692,4262.051282,4494.358974,4215.384615,4443.076923,4228.205128,4232.307692,4513.846153,4206.153846,4663.589743,4022.564102,4078.461538
166,4394.871794,4521.538461,4533.333333,4265.128205,4489.743589,4215.384615,4441.538461,4232.307692,4238.974358,4517.948717,4208.717948,4667.692307,4026.666666,4076.923076
167,4396.410256,4524.615384,4533.333333,4265.128205,4495.384615,4208.717948,4435.897435,4225.128205,4236.923076,4511.794871,4194.358974,4662.051282,4024.102564,4060.512820
168,4392.820512,4523.076923,4529.743589,4264.102564,4500.512820,4211.794871,4433.846153,4216.923076,4228.717948,4501.538461,4179.487179,4658.461538,4015.897435,4057.948717
169,4390.256410,4519.487179,4528.205128,4266.153846,4494.358974,4216.410256,4433.333333,4219.487179,4230.256410,4504.615384,4183.076923,4659.487179,4007.179487,4072.307692
170,4395.384615,4523.589743,4533.333333,4265.128205,4491.794871,4215.384615,4437.948717,4226.153846,4235.897435,4508.717948,4193.846153,4661.538461,4004.102564,4076.923076
171,4397.435897,4523.589743,4534.358974,4260.512820,4495.384615,4211.282051,4441.538461,4225.128205,4235.897435,4506.153846,4192.820512,4661.025641,4004.102564,4058.974358
172,4393.846153,4513.333333,4526.666666,4262.051282,4497.435897,4210.256410,4434.358974,4216.410256,4231.282051,4506.153846,4184.615384,4655.384615,4006.666666,4048.717948
173,4389.743589,4510.256410,4520.512820,4267.179487,4496.410256,4208.717948,4427.692307,4211.794871,4226.666666,4504.615384,4171.282051,4649.230769,4003.589743,4052.307692
174,4388.205128,4518.974358,4517.435897,4262.051282,4494.358974,4204.615384,4427.179487,4210.256410,4226.666666,4502.564102,4165.641025,4647.179487,3995.384616,4052.820512
175,4397.435897,4523.589743,4522.564102,4264.102564,4498.461538,4205.128205,4429.230769,4213.333333,4235.384615,4508.205128,4184.102564,4653.846153,3998.461539,4056.923076
176,4411.794871,4522.051282,4537.948717,4277.948717,4503.589743,4210.256410,4430.769230,4222.564102,4243.076923,4517.948717,4207.692307,4668.205128,4015.384615,4070.769230
177,4420.000000,4528.717948,4544.102564,4276.923076,4500.512820,4213.333333,4432.820512,4226.666666,4247.692307,4522.051282,4203.589743,4674.358974,4026.153846,4081.025641
178,4414.871794,4536.923076,4533.333333,4264.102564,4500.000000,4210.256410,4430.769230,4219.487179,4246.666666,4513.333333,4182.051282,4663.076923,4017.948717,4075.384615
179,4398.974358,4530.769230,4523.076923,4263.589743,4504.102564,4203.589743,4428.205128,4215.897435,4235.897435,4504.615384,4187.179487,4657.435897,4008.205128,4062.051282
180,4397.435897,4519.487179,4526.666666,4273.846153,4503.589743,4204.615384,4433.333333,4220.000000,4235.897435,4509.230769,4203.589743,4663.076923,4011.794871,4057.948717
181,4409.230769,4522.051282,4532.307692,4271.282051,4500.000000,4210.769230,4441.025641,4220.000000,4245.128205,4512.820512,4195.897435,4664.615384,4015.384615,4062.564102
182,4410.769230,4528.205128,4530.769230,4265.128205,4497.948717,4211.282051,4443.076923,4215.897435,4236.923076,4506.153846,4180.512820,4658.974358,4009.743589,4062.564102
183,4400.512820,4525.128205,4529.230769,4270.769230,4497.435897,4210.256410,4442.051282,4215.384615,4229.743589,4507.179487,4182.051282,4657.948717,4007.179487,4060.000000
184,4397.435897,4524.615384,4529.230769,4273.333333,4504.102564,4216.410256,4441.025641,4215.384615,4234.358974,4505.641025,4188.205128,4658.461538,4009.230769,4057.948717
185,4397.435897,4524.615384,4523.076923,4266.666666,4507.692307,4217.948717,4433.333333,4206.666666,4223.076923,4496.410256,4186.153846,4651.794871,3993.333334,4046.153846
186,4394.358974,4521.538461,4520.000000,4263.076923,4502.051282,4209.230769,4422.564102,4196.410256,4208.205128,4492.820512,4178.461538,4647.179487,3980.512821,4041.025641
187,4401.025641,4521.538461,4527.179487,4263.076923,4503.076923,4204.102564,4427.692307,4205.641025,4212.820512,4497.435897,4171.794871,4651.282051,3995.384616,4055.897435
188,4406.153846,4522.564102,4533.333333,4263.589743,4505.641025,4208.205128,4440.512820,4217.435897,4223.076923,4500.512820,4178.974358,4657.435897,4008.717948,4064.102564
189,4405.128205,4519.487179,4534.358974,4272.307692,4503.589743,4214.358974,4442.564102,4215.897435,4231.794871,4503.589743,4195.384615,4663.076923,4004.615384,4056.410256
190,4406.153846,4520.512820,4538.461538,4279.487179,4502.051282,4212.307692,4442.051282,4220.512820,4236.410256,4510.256410,4199.487179,4666.666666,4004.102564,4058.974358
191,4412.307692,4533.333333,4539.487179,4277.435897,4503.589743,4211.282051,4444.615384,4231.794871,4237.948717,4516.923076,4199.487179,4667.692307,4011.794871,4070.769230
192,4416.923076,4535.897435,4533.846153,4277.435897,4506.666666,4214.871794,4444.615384,4226.666666,4237.948717,4515.384615,4202.564102,4669.230769,4009.743589,4072.820512
193,4415.897435,4529.743589,4534.358974,4273.846153,4507.179487,4215.897435,4442.564102,4219.487179,4233.846153,4512.307692,4198.974358,4670.769230,4002.051282,4064.615384
194,4415.897435,4531.794871,4544.102564,4268.205128,4504.102564,4217.435897,4445.641025,4228.717948,4237.948717,4515.897435,4198.974358,4670.769230,4003.589743,4060.512820
195,4412.820512,4529.743589,4543.076923,4270.256410,4508.205128,4217.948717,4447.179487,4235.897435,4249.743589,4517.948717,4203.589743,4670.769230,4007.179487,4067.179487
196,4408.717948,4523.076923,4533.846153,4271.794871,4514.358974,4214.871794,4443.589743,4232.307692,4246.153846,4514.871794,4200.512820,4667.179487,4003.076923,4074.358974
197,4414.871794,4533.333333,4537.948717,4274.358974,4510.769230,4216.923076,4449.743589,4231.282051,4243.076923,4521.025641,4197.948717,4666.666666,4006.666666,4075.384615
198,4422.051282,4541.538461,4549.230769,4279.487179,4504.102564,4218.974358,4455.384615,4235.897435,4252.307692,4527.179487,4207.179487,4674.871794,4014.871794,4072.307692
199,4416.410256,4527.692307,4544.102564,4275.384615,4502.051282,4212.307692,4446.153846,4235.384615,4246.153846,4520.000000,4210.256410,4677.435897,4007.692307,4068.717948
200,4409.230769,4520.000000,4536.923076,4263.589743,4496.923076,4203.589743,4438.974358,4226.666666,4230.256410,4509.743589,4201.025641,4669.230769,4001.538461,4068.205128
201,4411.282051,4522.051282,4538.461538,4261.025641,4488.205128,4199.487179,4441.538461,4220.000000,4230.769230,4506.666666,4198.461538,4665.128205,4006.153846,4069.743589
202,4412.307692,4525.128205,4541.538461,4270.769230,4493.333333,4202.564102,4441.025641,4225.128205,4235.384615,4513.846153,4200.512820,4670.769230,4007.692307,4070.769230
203,4413.846153,4534.871794,4542.564102,4281.538461,4504.615384,4210.256410,4447.692307,4233.846153,4238.974358,4519.487179,4205.128205,4675.897435,4009.230769,4070.769230
204,4420.000000,4543.076923,4546.153846,4286.666666,4509.743589,4215.384615,4458.974358,4236.410256,4248.205128,4524.615384,4211.794871,4677.435897,4012.307692,4076.923076
205,4417.948717,4535.384615,4546.153846,4277.435897,4509.743589,4217.435897,4452.307692,4235.897435,4247.179487,4522.564102,4210.256410,4676.923076,4010.769230,4078.974358
206,4409.230769,4523.076923,4539.487179,4263.589743,4501.025641,4214.358974,4441.025641,4232.820512,4233.846153,4509.230769,4195.897435,4671.282051,4002.051282,4068.205128
207,4409.230769,4520.512820,4533.333333,4267.692307,4492.820512,4206.153846,4443.076923,4226.153846,4229.230769,4505.641025,4186.153846,4665.641025,3990.769231,4060.512820
208,4412.820512,4525.128205,4535.384615,4278.974358,4491.794871,4204.102564,4445.641025,4227.179487,4234.358974,4510.769230,4193.846153,4667.692307,3989.230770,4065.128205
209,4408.205128,4526.666666,4540.000000,4275.384615,4490.256410,4207.179487,4442.564102,4229.230769,4232.307692,4507.692307,4199.487179,4668.717948,3995.897436,4068.717948
210,4403.589743,4522.051282,4534.358974,4262.564102,4490.769230,4204.102564,4441.025641,4223.076923,4226.153846,4503.589743,4189.743589,4662.564102,3993.333334,4060.512820
211,4405.128205,4520.000000,4526.153846,4263.076923,4497.435897,4198.974358,4440.512820,4216.923076,4224.102564,4504.615384,4180.512820,4657.948717,3984.615385,4054.358974
212,4406.666666,4524.102564,4527.692307,4268.205128,4494.358974,4201.025641,4439.487179,4217.948717,4222.564102,4504.615384,4185.128205,4656.923076,3982.051283,4054.358974
213,4403.076923,4525.128205,4527.179487,4265.641025,4492.307692,4203.589743,4440.000000,4216.410256,4221.538461,4507.179487,4188.717948,4653.333333,3979.487180,4052.307692
214,4396.923076,4521.025641,4516.410256,4262.564102,4498.974358,4200.512820,4436.923076,4211.794871,4216.923076,4505.128205,4182.564102,4649.230769,3979.487180,4047.179487
215,4398.974358,4519.487179,4513.333333,4265.641025,4496.923076,4201.538461,4432.307692,4213.333333,4217.435897,4492.307692,4182.051282,4651.282051,3989.743590,4051.794871
216,4405.128205,4527.179487,4523.076923,4267.179487,4495.384615,4204.615384,4433.846153,4217.435897,4225.641025,4492.307692,4186.666666,4656.410256,3998.974359,4057.948717
217,4400.000000,4533.333333,4528.205128,4263.589743,4505.641025,4204.102564,4439.487179,4215.384615,4223.076923,4501.025641,4185.128205,4656.923076,3989.230770,4047.692307
218,4397.948717,4538.461538,4526.153846,4269.230769,4508.205128,4205.641025,4441.025641,4212.307692,4217.435897,4506.666666,4186.153846,4658.461538,3978.461539,4043.076923
219,4412.307692,4546.666666,4530.256410,4284.615384,4503.076923,4214.871794,4445.641025,4223.589743,4228.205128,4513.846153,4200.512820,4665.641025,3993.333334,4065.641025
220,4420.000000,4547.179487,4535.897435,4287.179487,4507.179487,4221.025641,4451.282051,4235.897435,4241.538461,4518.461538,4204.102564,4669.743589,4008.205128,4078.461538
221,4406.666666,4540.512820,4529.230769,4279.487179,4511.282051,4214.358974,4448.717948,4226.153846,4234.358974,4508.717948,4189.230769,4661.538461,3991.794872,4059.487179
222,4396.410256,4531.282051,4520.512820,4276.410256,4502.051282,4204.102564,4441.025641,4212.307692,4215.384615,4487.692307,4176.923076,4649.743589,3970.256411,4040.512820
223,4401.538461,4529.230769,4524.102564,4275.897435,4496.410256,4203.076923,4435.897435,4214.871794,4206.666666,4481.538461,4174.358974,4649.230769,3971.794872,4043.076923
224,4406.666666,4531.282051,4526.666666,4273.333333,4502.051282,4203.076923,4437.948717,4216.923076,4212.820512,4495.384615,4175.384615,4653.333333,3975.897436,4051.282051
225,4404.615384,4531.282051,4524.615384,4272.820512,4503.076923,4199.487179,4442.051282,4214.871794,4221.025641,4506.666666,4181.538461,4657.435897,3973.333334,4053.333333
226,4405.641025,4540.000000,4529.230769,4276.410256,4498.974358,4207.692307,4445.128205,4220.000000,4227.179487,4507.179487,4192.307692,4664.615384,3982.051283,4053.333333
227,4411.794871,4551.282051,4533.333333,4278.461538,4504.615384,4217.435897,4444.615384,4222.564102,4234.871794,4507.692307,4196.410256,4669.230769,3994.871795,4057.435897
228,4412.307692,4546.153846,4530.256410,4279.487179,4512.307692,4213.846153,4444.615384,4217.948717,4236.410256,4509.743589,4190.769230,4667.179487,3994.358975,4064.102564
229,4408.205128,4526.666666,4528.717948,4276.923076,4508.205128,4206.666666,4444.102564,4215.897435,4230.769230,4505.128205,4182.564102,4664.615384,3987.179488,4057.435897
230,4404.615384,4520.000000,4526.153846,4266.666666,4500.000000,4204.615384,4442.051282,4215.897435,4227.179487,4501.538461,4181.025641,4661.025641,3984.102565,4043.076923
231,4404.102564,4529.230769,4522.051282,4267.179487,4499.487179,4206.666666,4443.076923,4215.897435,4228.205128,4509.230769,4191.794871,4657.435897,3983.589744,4046.153846
232,4408.717948,4532.820512,4526.153846,4275.384615,4498.974358,4212.820512,4448.205128,4218.974358,4234.358974,4518.461538,4197.948717,4663.076923,3988.205129,4062.564102
233,4410.769230,4530.256410,4529.743589,4272.820512,4495.384615,4216.923076,4449.743589,4221.025641,4237.948717,4513.333333,4189.743589,4668.717948,3992.307693,4065.128205
234,4410.769230,4533.333333,4526.666666,4271.794871,4498.461538,4211.282051,4445.641025,4217.948717,4231.794871,4506.153846,4186.153846,4665.641025,3991.282052,4052.307692
235,4409.743589,4535.897435,4527.179487,4282.051282,4502.051282,4204.102564,4441.538461,4214.358974,4223.076923,4507.179487,4192.820512,4662.564102,3986.153847,4050.256410
236,4404.615384,4532.820512,4528.205128,4282.564102,4500.000000,4202.051282,4437.948717,4210.769230,4219.487179,4502.564102,4190.769230,4662.051282,3981.025642,4060.000000
237,4399.487179,4533.846153,4523.076923,4277.435897,4497.948717,4202.564102,4437.435897,4206.153846,4218.974358,4493.333333,4179.487179,4658.974358,3980.000000,4058.461538
238,4397.948717,4533.846153,4515.384615,4275.384615,4497.948717,4203.076923,4441.025641,4202.051282,4208.717948,4486.153846,4170.256410,4648.717948,3975.897436,4039.487179
239,4395.384615,4523.589743,4512.820512,4267.179487,4500.000000,4205.641025,4442.564102,4199.487179,4200.512820,4480.512820,4165.641025,4642.051282,3969.743590,4031.282051
240,4394.358974,4522.051282,4515.897435,4268.205128,4502.564102,4213.333333,4442.564102,4199.487179,4211.282051,4484.102564,4167.692307,4645.128205,3967.692308,4041.025641
241,4397.948717,4528.717948,4516.923076,4281.025641,4497.948717,4218.974358,4446.666666,4209.743589,4223.589743,4494.358974,4170.769230,4650.256410,3964.102565,4045.128205
242,4394.358974,4524.102564,4514.358974,4279.487179,4493.333333,4212.307692,4444.102564,4217.435897,4217.948717,4492.307692,4166.153846,4649.743589,3961.025642,4035.384615
243,4389.743589,4521.025641,4512.307692,4270.769230,4495.897435,4201.538461,4435.897435,4206.666666,4211.282051,4485.128205,4163.076923,4648.205128,3965.641026,4029.230769
244,4397.948717,4530.256410,4520.512820,4278.461538,4492.307692,4207.179487,4438.461538,4204.102564,4220.512820,4495.384615,4177.435897,4655.897435,3976.923077,4045.128205
245,4405.128205,4533.333333,4528.205128,4284.102564,4490.769230,4216.923076,4445.128205,4217.948717,4229.230769,4506.666666,4193.846153,4663.589743,3978.974359,4060.000000
246,4397.948717,4525.128205,4522.051282,4272.820512,4494.358974,4206.666666,4443.076923,4220.512820,4226.666666,4497.948717,4187.179487,4658.974358,3969.743590,4046.153846
247,4392.820512,4521.025641,4515.897435,4268.205128,4492.307692,4202.051282,4440.512820,4210.769230,4224.102564,4490.256410,4176.410256,4650.256410,3965.128206,4028.717948
248,4393.333333,4524.102564,4517.435897,4276.410256,4492.820512,4212.307692,4444.102564,4207.692307,4218.461538,4492.307692,4178.461538,4650.769230,3967.692308,4035.897435
249,4386.153846,4520.000000,4515.897435,4269.743589,4495.897435,4208.717948,4442.051282,4202.564102,4207.179487,4484.102564,4174.358974,4648.717948,3966.666667,4042.564102
250,4383.076923,4517.435897,4513.333333,4255.897435,4490.769230,4196.410256,4437.435897,4198.461538,4211.794871,4483.076923,4165.128205,4642.051282,3964.102565,4033.333333
251,4393.333333,4525.128205,4518.461538,4265.128205,4491.794871,4204.102564,4444.102564,4211.282051,4233.846153,4506.153846,4172.307692,4649.230769,3972.307693,4034.358974
252,4396.410256,4527.179487,4522.051282,4280.000000,4498.974358,4210.769230,4444.102564,4221.025641,4239.487179,4513.846153,4185.128205,4655.897435,3976.923077,4041.538461
253,4389.743589,4520.512820,4519.487179,4278.974358,4493.846153,4204.102564,4432.307692,4208.205128,4227.179487,4493.846153,4185.641025,4648.717948,3974.871795,4044.102564
254,4393.846153,4526.153846,4520.000000,4279.487179,4492.820512,4206.666666,4431.794871,4200.000000,4224.102564,4488.717948,4186.153846,4648.205128,3978.461539,4048.717948
255,4400.000000,4533.846153,4520.000000,4283.589743,4502.564102,4216.410256,4441.538461,4208.717948,4225.128205,4493.846153,4183.589743,4653.846153,3981.025642,4047.179487
256,4395.897435,4529.230769,4515.897435,4280.512820,4500.000000,4216.410256,4442.564102,4213.846153,4226.666666,4492.820512,4171.794871,4650.769230,3976.410257,4042.564102
257,4394.358974,4525.641025,4518.974358,4276.923076,4493.333333,4211.794871,4442.051282,4212.307692,4233.333333,4497.435897,4172.820512,4648.205128,3973.846154,4052.307692
258,4398.974358,4526.666666,4524.615384,4276.410256,4496.410256,4214.358974,4447.179487,4216.923076,4234.871794,4501.025641,4184.102564,4653.333333,3977.948718,4059.487179
259,4395.897435,4522.564102,4519.487179,4268.205128,4498.461538,4216.923076,4447.179487,4218.974358,4226.666666,4493.333333,4181.025641,4652.307692,3976.410257,4045.128205
