,AF3,F7,F3,FC5,T7,P7,O1,O2,P8,T8,FC6,F4,F8,AF4
0,4371.282051,4523.076923,4527.692307,4277.948717,4460.000000,4198.974358,4440.512820,4230.769230,4248.205128,4469.230769,4196.410256,4636.923076,3957.948718,3989.230770
1,4372.820512,4526.666666,4526.666666,4282.564102,4457.435897,4202.051282,4446.153846,4229.743589,4239.487179,4475.384615,4197.435897,4636.410256,3951.794872,3984.615385
2,4369.230769,4523.589743,4520.512820,4285.641025,4456.923076,4200.000000,4440.000000,4222.564102,4229.743589,4457.948717,4186.666666,4628.717948,3941.538462,3987.692308
3,4375.384615,4526.666666,4524.615384,4284.102564,4457.948717,4198.461538,4436.410256,4225.641025,4235.897435,4455.384615,4187.179487,4630.769230,3948.717949,3992.307693
4,4380.512820,4529.230769,4530.769230,4288.205128,4456.923076,4202.564102,4442.564102,4232.307692,4242.564102,4474.358974,4200.512820,4640.000000,3958.461539,3993.333334
5,4371.282051,4525.641025,4527.179487,4285.128205,4451.282051,4202.051282,4441.538461,4224.102564,4234.871794,4470.769230,4203.076923,4638.461538,3946.666667,3992.307693
6,4365.641025,4517.435897,4522.051282,4275.897435,4442.564102,4195.897435,4432.307692,4213.333333,4228.205128,4447.692307,4191.794871,4631.794871,3935.897436,3986.666667
7,4370.256410,4508.205128,4520.512820,4274.871794,4443.076923,4193.333333,4427.179487,4217.435897,4232.307692,4445.128205,4188.205128,4633.333333,3943.076924,3981.538462
8,4375.897435,4514.358974,4523.076923,4280.000000,4452.820512,4197.948717,4432.820512,4223.076923,4231.282051,4451.282051,4194.871794,4640.000000,3948.717949,3987.179488
9,4377.435897,4523.589743,4529.743589,4285.641025,4457.948717,4203.589743,4444.615384,4222.564102,4229.743589,4449.743589,4202.564102,4642.564102,3947.692308,3996.410257
10,4377.948717,4512.820512,4527.692307,4283.076923,4457.435897,4201.025641,4441.025641,4219.487179,4237.948717,4452.307692,4200.000000,4636.410256,3945.128206,3993.333334
11,4371.282051,4501.538461,4515.384615,4273.333333,4451.282051,4195.384615,4426.153846,4217.435897,4236.923076,4453.846153,4189.230769,4628.205128,3938.461539,3983.589744
12,4369.743589,4512.820512,4516.410256,4275.384615,4446.666666,4197.435897,4432.307692,4218.974358,4233.846153,4461.538461,4188.205128,4630.769230,3943.589744,3987.692308
13,4380.000000,4519.487179,4527.179487,4281.538461,4452.307692,4201.025641,4442.564102,4219.487179,4242.564102,4469.743589,4197.948717,4637.948717,3957.435898,3995.897436
14,4384.102564,4514.871794,4524.615384,4280.000000,4460.512820,4200.000000,4431.794871,4217.435897,4243.076923,4464.102564,4202.564102,4637.948717,3956.923077,3994.358975
15,4382.564102,4518.461538,4521.538461,4283.076923,4459.487179,4198.974358,4425.128205,4217.435897,4235.897435,4452.307692,4199.487179,4637.435897,3951.794872,3989.230770
16,4381.538461,4522.564102,4524.102564,4285.128205,4455.384615,4199.487179,4430.256410,4217.948717,4240.512820,4458.974358,4196.410256,4637.435897,3955.384616,3988.205129
17,4380.512820,4522.564102,4522.051282,4282.051282,4459.487179,4200.000000,4430.256410,4218.461538,4249.743589,4477.435897,4199.487179,4632.820512,3957.948718,3992.820513
18,4381.025641,4523.076923,4522.051282,4285.641025,4466.153846,4204.102564,4433.846153,4218.461538,4246.666666,4476.410256,4209.743589,4633.333333,3956.923077,3993.333334
19,4382.564102,4517.435897,4526.666666,4292.307692,4468.205128,4208.205128,4439.487179,4217.948717,4239.487179,4469.230769,4209.230769,4636.410256,3955.384616,3992.820513
20,4376.923076,4506.153846,4518.974358,4285.641025,4464.615384,4203.076923,4430.769230,4216.410256,4237.948717,4480.000000,4191.282051,4626.153846,3946.666667,3990.256411
21,4369.743589,4506.153846,4508.205128,4274.871794,4458.974358,4198.461538,4425.128205,4213.333333,4234.871794,4488.205128,4180.512820,4614.871794,3937.948718,3978.461539
22,4371.282051,4510.769230,4514.358974,4278.461538,4456.410256,4201.538461,4430.769230,4212.820512,4232.307692,4483.076923,4185.128205,4622.564102,3939.487180,3975.384616
23,4369.743589,4508.205128,4521.025641,4283.589743,4456.923076,4201.538461,4430.256410,4216.923076,4233.846153,4478.974358,4193.846153,4631.282051,3943.589744,3986.666667
24,4362.051282,4507.179487,4517.948717,4277.948717,4456.410256,4198.461538,4428.717948,4215.384615,4236.923076,4480.000000,4194.358974,4623.076923,3939.487180,3986.153847
25,4358.461538,4508.717948,4513.846153,4274.358974,4453.333333,4198.974358,4428.717948,4210.256410,4233.333333,4479.487179,4184.615384,4613.333333,3932.307693,3971.794872
26,4359.487179,4506.153846,4511.794871,4276.923076,4453.846153,4198.974358,4429.230769,4211.282051,4229.230769,4482.051282,4178.974358,4614.871794,3933.333334,3970.256411
27,4361.538461,4505.128205,4514.871794,4278.974358,4462.564102,4200.000000,4436.923076,4214.358974,4234.358974,4488.205128,4184.615384,4620.512820,3940.000000,3977.948718
28,4369.230769,4515.897435,4524.102564,4288.205128,4472.820512,4207.692307,4445.128205,4223.589743,4244.102564,4501.538461,4195.384615,4628.205128,3946.153847,3988.205129
29,4371.282051,4522.564102,4531.794871,4297.948717,4473.846153,4209.230769,4443.076923,4230.256410,4249.230769,4509.230769,4205.641025,4634.358974,3952.820513,3997.435898
30,4361.025641,4512.820512,4529.230769,4290.256410,4469.230769,4200.512820,4442.564102,4226.153846,4245.641025,4496.923076,4209.743589,4631.282051,3955.897436,3992.307693
31,4362.564102,4511.794871,4530.769230,4287.692307,4469.230769,4204.615384,4446.153846,4226.666666,4245.128205,4494.358974,4214.358974,4634.358974,3960.000000,3992.820513
32,4374.871794,4521.025641,4536.923076,4295.384615,4467.692307,4213.333333,4446.153846,4228.205128,4250.256410,4513.846153,4215.897435,4642.564102,3964.102565,4006.666666
33,4368.205128,4518.461538,4532.307692,4288.205128,4456.410256,4204.102564,4444.615384,4217.435897,4247.692307,4513.333333,4209.743589,4636.923076,3961.538462,4000.512820
34,4354.871794,4515.384615,4528.717948,4276.410256,4453.846153,4198.461538,4445.128205,4218.974358,4245.128205,4502.564102,4209.230769,4632.820512,3960.000000,3986.666667
35,4360.512820,4521.025641,4533.846153,4285.641025,4465.128205,4211.282051,4446.666666,4233.846153,4250.769230,4507.179487,4218.461538,4641.025641,3962.051283,3992.307693
36,4368.205128,4521.538461,4537.435897,4299.487179,4472.307692,4216.923076,4448.205128,4232.820512,4253.846153,4508.717948,4219.487179,4644.615384,3960.000000,3998.974359
37,4366.666666,4520.512820,4534.871794,4298.461538,4474.358974,4212.307692,4452.307692,4227.179487,4250.769230,4507.692307,4208.717948,4642.564102,3963.589744,4002.564102
38,4368.717948,4522.564102,4535.384615,4295.897435,4474.871794,4214.871794,4456.410256,4232.307692,4251.794871,4513.846153,4207.692307,4644.102564,3975.384616,4013.333333
39,4370.769230,4521.025641,4533.846153,4295.897435,4477.435897,4216.923076,4456.410256,4231.794871,4250.256410,4508.717948,4213.333333,4644.102564,3970.256411,4006.153846
40,4365.128205,4520.512820,4533.333333,4297.435897,4478.461538,4214.358974,4451.282051,4227.179487,4248.205128,4503.589743,4218.974358,4642.051282,3960.000000,3991.794872
41,4365.641025,4521.538461,4540.000000,4299.487179,4474.871794,4214.358974,4450.769230,4228.717948,4254.871794,4518.461538,4215.384615,4639.487179,3968.717949,4003.076923
42,4370.256410,4523.076923,4538.974358,4297.435897,4469.743589,4211.794871,4452.307692,4231.794871,4253.846153,4524.102564,4203.589743,4637.948717,3973.333334,4012.820512
43,4366.666666,4524.102564,4534.358974,4296.923076,4466.666666,4208.205128,4450.256410,4230.256410,4250.769230,4510.256410,4204.102564,4640.000000,3964.615385,4005.128205
44,4368.717948,4523.589743,4543.076923,4304.102564,4470.256410,4213.333333,4452.820512,4230.769230,4257.948717,4507.692307,4215.897435,4645.641025,3964.102565,4001.025641
45,4378.461538,4524.615384,4551.282051,4305.641025,4475.384615,4219.487179,4457.435897,4235.384615,4260.512820,4512.820512,4218.974358,4647.179487,3968.205129,4000.000000
46,4376.923076,4525.641025,4545.128205,4296.923076,4476.410256,4217.948717,4457.948717,4235.897435,4252.820512,4509.230769,4209.743589,4641.538461,3962.564103,4001.538461
47,4367.692307,4524.615384,4538.461538,4297.435897,4477.948717,4215.897435,4456.410256,4232.820512,4251.794871,4503.076923,4204.615384,4636.923076,3960.512821,4004.102564
48,4368.717948,4522.564102,4538.461538,4300.512820,4478.461538,4216.410256,4454.358974,4230.256410,4253.333333,4502.564102,4200.512820,4633.846153,3960.512821,3997.435898
49,4372.820512,4523.589743,4538.461538,4295.384615,4473.846153,4214.358974,4453.333333,4229.230769,4248.717948,4505.641025,4199.487179,4633.333333,3955.384616,3988.717949
50,4372.307692,4526.153846,4539.487179,4295.384615,4474.358974,4211.282051,4450.769230,4225.128205,4248.717948,4503.589743,4205.641025,4638.974358,3959.487180,3994.871795
51,4369.743589,4524.102564,4537.435897,4297.948717,4473.333333,4204.102564,4444.615384,4217.435897,4246.153846,4491.282051,4194.871794,4639.487179,3962.564103,4004.102564
52,4365.128205,4519.487179,4528.717948,4293.333333,4461.538461,4196.410256,4439.487179,4212.307692,4231.794871,4480.512820,4176.410256,4625.641025,3951.282052,4002.564102
53,4367.692307,4522.051282,4529.230769,4294.871794,4462.051282,4203.076923,4443.589743,4214.871794,4229.743589,4481.538461,4186.666666,4624.615384,3951.282052,4002.051282
54,4375.897435,4526.666666,4540.512820,4301.025641,4474.871794,4215.384615,4447.179487,4222.564102,4241.025641,4488.205128,4208.717948,4638.974358,3963.589744,4005.641025
55,4376.923076,4526.153846,4542.564102,4296.923076,4476.923076,4216.410256,4452.820512,4227.179487,4242.564102,4492.307692,4207.692307,4638.461538,3962.051283,4001.538461
56,4368.205128,4524.102564,4531.282051,4290.769230,4473.846153,4211.282051,4454.358974,4227.179487,4237.948717,4492.820512,4197.435897,4629.743589,3953.846154,3990.769231
57,4364.102564,4521.025641,4527.179487,4292.307692,4470.769230,4212.307692,4449.743589,4228.205128,4242.564102,4488.717948,4200.512820,4630.769230,3956.923077,3995.384616
58,4366.153846,4520.000000,4530.769230,4290.256410,4463.076923,4215.897435,4452.307692,4233.333333,4251.794871,4494.358974,4203.589743,4632.820512,3961.025642,4004.615384
59,4364.615384,4523.589743,4526.153846,4285.128205,4465.128205,4215.897435,4461.025641,4235.897435,4253.846153,4507.179487,4201.025641,4632.307692,3957.435898,3993.846154
60,4365.641025,4521.025641,4524.615384,4283.076923,4471.282051,4216.410256,4461.538461,4233.333333,4249.230769,4498.974358,4201.538461,4632.307692,3955.897436,3986.666667
61,4368.205128,4513.333333,4528.717948,4284.102564,4470.256410,4216.923076,4457.948717,4234.358974,4248.717948,4476.923076,4202.051282,4630.256410,3962.564103,3996.410257
62,4368.205128,4515.384615,4530.256410,4285.128205,4465.641025,4215.897435,4458.461538,4241.538461,4253.846153,4485.641025,4200.512820,4630.769230,3966.666667,4002.564102
63,4369.743589,4524.102564,4531.282051,4287.179487,4466.153846,4215.897435,4460.512820,4246.666666,4261.538461,4510.769230,4203.076923,4636.923076,3967.692308,4003.589743
64,4370.769230,4519.487179,4534.871794,4287.692307,4472.820512,4216.923076,4461.538461,4245.641025,4264.102564,4516.410256,4204.102564,4638.461538,3971.282052,4008.717948
65,4368.717948,4504.615384,4534.871794,4285.641025,4468.205128,4214.871794,4458.461538,4237.948717,4256.923076,4504.615384,4197.948717,4635.897435,3969.743590,4009.743589
66,4373.333333,4509.230769,4532.307692,4287.179487,4463.076923,4214.871794,4457.435897,4233.333333,4247.692307,4495.384615,4206.666666,4638.974358,3965.128206,4003.076923
67,4374.358974,4518.974358,4535.384615,4286.153846,4466.666666,4213.333333,4461.538461,4233.846153,4246.666666,4498.974358,4220.000000,4641.025641,3965.641026,4004.615384
68,4365.641025,4514.358974,4533.333333,4281.025641,4462.051282,4205.128205,4456.410256,4224.615384,4242.051282,4496.923076,4205.641025,4633.333333,3964.102565,4006.153846
69,4362.564102,4511.282051,4525.128205,4277.435897,4450.769230,4199.487179,4449.230769,4212.820512,4230.769230,4486.666666,4188.717948,4626.666666,3958.461539,4001.025641
70,4365.641025,4513.846153,4526.153846,4277.948717,4456.410256,4202.051282,4454.358974,4221.538461,4229.230769,4481.025641,4198.974358,4629.230769,3954.871795,3995.897436
71,4366.666666,4511.282051,4531.794871,4282.564102,4466.153846,4210.256410,4458.974358,4232.307692,4238.974358,4480.512820,4208.205128,4633.333333,3952.820513,3989.230770
72,4366.666666,4507.179487,4528.205128,4285.641025,4463.076923,4212.820512,4454.358974,4222.051282,4243.589743,4484.102564,4199.487179,4627.179487,3953.333334,3988.717949
73,4366.666666,4510.769230,4523.076923,4284.615384,4463.076923,4206.666666,4453.846153,4213.846153,4237.435897,4489.230769,4194.871794,4619.487179,3958.974359,3998.974359
74,4365.641025,4516.923076,4528.205128,4283.589743,4464.102564,4205.128205,4456.923076,4221.538461,4238.461538,4488.717948,4195.897435,4624.102564,3961.025642,4006.666666
75,4365.641025,4523.076923,4534.358974,4289.743589,4459.487179,4213.846153,4457.435897,4232.307692,4249.743589,4484.615384,4197.948717,4633.333333,3961.538462,4002.051282
76,4369.743589,4517.948717,4532.820512,4291.282051,4463.589743,4218.974358,4461.538461,4234.358974,4248.717948,4486.666666,4201.538461,4633.846153,3962.051283,3998.974359
77,4372.307692,4506.666666,4528.205128,4282.051282,4469.743589,4212.820512,4458.974358,4223.076923,4232.820512,4488.205128,4201.025641,4629.743589,3957.435898,4001.025641
78,4370.256410,4507.692307,4527.179487,4276.410256,4465.641025,4205.128205,4448.717948,4213.333333,4226.666666,4488.205128,4199.487179,4627.179487,3956.410257,4002.564102
79,4368.205128,4510.256410,4530.769230,4281.538461,4457.435897,4200.512820,4444.615384,4216.923076,4237.948717,4481.538461,4198.461538,4629.230769,3960.512821,4006.666666
80,4371.282051,4506.666666,4533.333333,4286.153846,4456.410256,4201.538461,4444.102564,4220.512820,4244.102564,4471.282051,4197.435897,4633.846153,3960.512821,4008.717948
81,4372.820512,4510.769230,4531.794871,4284.615384,4459.487179,4203.076923,4442.051282,4215.897435,4237.948717,4474.358974,4203.589743,4635.384615,3956.923077,4003.589743
82,4370.769230,4519.487179,4530.769230,4281.538461,4461.538461,4202.564102,4442.564102,4216.410256,4235.897435,4478.974358,4206.153846,4632.307692,3959.487180,4004.102564
83,4368.205128,4514.871794,4526.153846,4277.435897,4459.487179,4201.025641,4438.461538,4217.948717,4238.974358,4470.256410,4194.358974,4625.128205,3957.948718,4006.153846
84,4360.512820,4504.102564,4517.948717,4271.794871,4452.307692,4197.948717,4427.179487,4207.179487,4229.743589,4461.025641,4184.102564,4617.948717,3945.641026,3995.384616
85,4358.461538,4506.666666,4518.974358,4272.307692,4452.307692,4197.435897,4424.615384,4200.000000,4220.000000,4466.153846,4184.615384,4617.435897,3945.128206,3987.179488
86,4364.615384,4512.307692,4521.538461,4280.512820,4462.564102,4199.487179,4429.743589,4203.076923,4227.692307,4480.000000,4183.076923,4618.461538,3958.974359,3989.230770
87,4361.538461,4508.205128,4515.897435,4280.512820,4461.538461,4193.846153,4425.641025,4204.102564,4233.333333,4480.512820,4189.230769,4617.948717,3960.000000,3989.230770
88,4353.846153,4503.589743,4511.282051,4268.205128,4443.076923,4183.589743,4420.000000,4199.487179,4223.076923,4465.128205,4196.410256,4615.384615,3946.153847,3988.717949
89,4355.897435,4505.641025,4515.897435,4267.692307,4434.871794,4187.179487,4423.076923,4196.410256,4218.974358,4457.948717,4190.769230,4613.333333,3944.102565,3993.846154
90,4363.589743,4507.692307,4521.538461,4276.923076,4451.794871,4199.487179,4431.794871,4203.589743,4228.717948,4471.282051,4193.333333,4618.461538,3954.871795,4001.538461
91,4363.589743,4504.615384,4520.512820,4272.307692,4461.538461,4203.076923,4436.410256,4216.923076,4237.948717,4480.000000,4201.538461,4624.615384,3961.538462,4005.641025
92,4361.025641,4507.692307,4522.051282,4267.692307,4454.871794,4198.461538,4432.307692,4217.435897,4233.846153,4466.666666,4192.820512,4621.025641,3956.410257,3997.948718
93,4362.051282,4517.435897,4521.025641,4273.333333,4453.846153,4199.487179,4426.153846,4202.564102,4221.025641,4452.820512,4180.512820,4615.384615,3944.615385,3988.205129
94,4367.692307,4523.076923,4520.512820,4277.435897,4460.000000,4203.076923,4430.769230,4201.538461,4217.948717,4459.487179,4182.564102,4614.871794,3944.615385,3998.461539
95,4373.846153,4522.051282,4524.615384,4278.461538,4458.974358,4202.051282,4438.974358,4215.384615,4227.692307,4472.307692,4190.256410,4617.948717,3956.410257,4013.846153
96,4373.846153,4515.897435,4525.128205,4276.410256,4449.743589,4200.000000,4435.384615,4212.307692,4231.282051,4470.769230,4199.487179,4618.974358,3959.487180,4012.307692
97,4370.769230,4509.743589,4520.000000,4268.717948,4440.512820,4199.487179,4427.179487,4203.589743,4225.128205,4461.025641,4200.512820,4615.384615,3950.769231,4002.051282
98,4371.794871,4514.871794,4521.538461,4270.769230,4447.179487,4197.948717,4425.641025,4208.717948,4227.179487,4467.179487,4196.410256,4616.923076,3952.307693,4002.564102
99,4381.538461,4524.102564,4534.871794,4284.615384,4462.051282,4202.051282,4432.307692,4220.512820,4241.025641,4487.692307,4208.717948,4633.333333,3969.230770,4017.435897
100,4391.282051,4524.102564,4543.076923,4289.743589,4463.076923,4210.769230,4442.564102,4226.666666,4250.256410,4490.256410,4222.564102,4644.615384,3981.025642,4030.256410
101,4391.794871,4523.076923,4540.000000,4288.205128,4459.487179,4209.743589,4441.538461,4224.615384,4245.641025,4476.923076,4211.794871,4637.948717,3978.974359,4027.692307
102,4386.666666,4524.102564,4535.897435,4287.692307,4459.487179,4202.564102,4434.358974,4219.487179,4236.923076,4475.384615,4203.076923,4630.769230,3973.333334,4022.051282
103,4382.564102,4522.564102,4538.461538,4284.615384,4459.487179,4203.589743,4437.948717,4217.435897,4235.384615,4477.435897,4210.769230,4633.846153,3970.769231,4020.512820
104,4381.538461,4521.538461,4535.897435,4278.974358,4458.974358,4205.641025,4438.461538,4217.435897,4234.871794,4471.794871,4212.307692,4632.820512,3964.615385,4014.871794
105,4381.538461,4520.000000,4528.717948,4276.923076,4460.000000,4201.538461,4428.205128,4212.307692,4230.256410,4471.282051,4204.615384,4625.641025,3963.589744,4013.333333
106,4385.128205,4519.487179,4532.820512,4281.025641,4460.512820,4202.564102,4427.692307,4212.820512,4230.256410,4471.794871,4204.615384,4627.692307,3970.769231,4020.000000
107,4385.128205,4523.076923,4535.897435,4280.000000,4457.948717,4204.102564,4433.333333,4215.897435,4233.333333,4465.641025,4208.205128,4629.743589,3971.282052,4022.564102
108,4374.358974,4519.487179,4525.641025,4274.358974,4453.333333,4201.025641,4427.692307,4206.666666,4228.717948,4462.564102,4200.512820,4620.000000,3959.487180,4013.333333
109,4369.230769,4509.743589,4516.923076,4276.923076,4450.256410,4201.538461,4421.538461,4199.487179,4222.564102,4464.102564,4192.307692,4614.871794,3955.897436,4003.589743
110,4379.487179,4512.820512,4522.564102,4284.102564,4453.333333,4203.589743,4428.205128,4207.692307,4225.641025,4464.615384,4195.384615,4622.564102,3968.717949,4009.230769
111,4388.717948,4526.153846,4534.358974,4285.641025,4460.000000,4203.589743,4433.333333,4219.487179,4234.871794,4471.282051,4203.589743,4629.743589,3975.897436,4023.076923
112,4387.179487,4523.589743,4535.897435,4281.025641,4459.487179,4204.615384,4432.307692,4218.974358,4234.871794,4478.974358,4209.743589,4630.256410,3967.692308,4023.076923
113,4386.666666,4508.205128,4532.820512,4278.974358,4455.897435,4205.128205,4432.820512,4218.461538,4230.256410,4471.282051,4207.179487,4628.717948,3961.025642,4020.512820
114,4386.666666,4505.641025,4531.282051,4280.000000,4458.461538,4202.564102,4433.333333,4219.487179,4233.333333,4463.076923,4201.538461,4624.615384,3963.076924,4023.076923
115,4381.025641,4508.205128,4530.256410,4279.487179,4454.358974,4201.025641,4427.179487,4214.358974,4231.282051,4469.743589,4197.435897,4620.000000,3958.974359,4011.794871
116,4372.307692,4500.000000,4521.538461,4274.358974,4443.076923,4199.487179,4424.102564,4211.282051,4217.948717,4475.897435,4194.871794,4615.384615,3946.666667,3998.974359
117,4370.769230,4495.897435,4518.974358,4274.871794,4449.230769,4202.564102,4434.358974,4214.871794,4220.512820,4476.410256,4198.461538,4614.871794,3945.641026,4003.076923
118,4374.358974,4504.615384,4525.641025,4278.974358,4461.538461,4208.717948,4438.974358,4217.435897,4232.820512,4475.384615,4201.025641,4619.487179,3954.871795,4008.205128
119,4369.230769,4504.615384,4523.076923,4271.794871,4461.538461,4205.641025,4430.256410,4213.846153,4225.128205,4475.897435,4191.282051,4618.974358,3951.794872,4004.102564
120,4363.589743,4493.333333,4517.435897,4267.692307,4457.948717,4201.538461,4425.641025,4212.820512,4217.948717,4487.179487,4186.153846,4615.384615,3942.564103,4003.589743
121,4362.051282,4489.230769,4523.589743,4271.794871,4457.948717,4202.051282,4428.717948,4216.410256,4228.717948,4501.025641,4197.948717,4619.487179,3942.051283,4004.102564
122,4355.897435,4495.897435,4528.205128,4273.333333,4457.435897,4202.051282,4434.871794,4217.435897,4233.333333,4493.333333,4206.153846,4627.179487,3947.179488,4003.589743
123,4357.435897,4502.051282,4527.179487,4276.923076,4461.538461,4208.717948,4442.564102,4218.461538,4228.717948,4482.051282,4205.641025,4625.641025,3953.846154,4007.692307
124,4368.717948,4503.076923,4528.717948,4277.435897,4463.076923,4213.846153,4445.128205,4218.974358,4227.692307,4491.282051,4205.128205,4621.538461,3953.333334,4007.692307
125,4367.692307,4505.641025,4529.230769,4274.871794,4462.051282,4207.179487,4441.538461,4218.974358,4230.256410,4498.461538,4202.051282,4622.051282,3948.205129,4005.128205
126,4355.897435,4502.564102,4523.589743,4273.846153,4460.512820,4200.000000,4440.000000,4216.923076,4226.666666,4493.333333,4198.974358,4620.000000,3948.205129,4002.564102
127,4354.871794,4496.410256,4520.512820,4272.820512,4454.871794,4200.512820,4437.948717,4209.743589,4218.974358,4489.230769,4200.512820,4613.846153,3948.717949,4002.051282
128,4357.435897,4501.538461,4523.076923,4276.410256,4458.974358,4205.128205,4439.487179,4207.692307,4218.974358,4494.871794,4200.512820,4614.358974,3949.230770,4005.128205
129,4357.435897,4507.692307,4528.717948,4285.128205,4471.794871,4214.358974,4444.615384,4214.871794,4229.230769,4505.641025,4199.487179,4620.000000,3952.820513,4006.153846
130,4361.538461,4511.794871,4530.769230,4285.641025,4476.923076,4218.461538,4445.128205,4217.435897,4233.333333,4511.282051,4206.153846,4625.128205,3960.512821,4007.179487
131,4368.205128,4517.948717,4532.307692,4286.153846,4478.461538,4215.384615,4447.692307,4214.358974,4229.743589,4505.641025,4214.871794,4631.282051,3969.743590,4017.948717
132,4367.692307,4517.948717,4532.820512,4290.256410,4473.846153,4215.897435,4450.769230,4216.410256,4230.769230,4496.410256,4212.820512,4631.794871,3971.794872,4022.564102
133,4361.025641,4513.846153,4526.666666,4282.051282,4460.512820,4215.384615,4444.102564,4217.948717,4230.769230,4497.435897,4206.666666,4625.641025,3961.025642,4013.333333
134,4362.564102,4515.897435,4527.692307,4274.871794,4461.538461,4213.333333,4444.615384,4218.461538,4231.794871,4507.692307,4204.615384,4627.179487,3961.538462,4013.846153
135,4366.666666,4518.974358,4535.897435,4288.205128,4476.923076,4215.897435,4460.512820,4221.538461,4237.435897,4512.307692,4205.128205,4634.358974,3976.410257,4025.641025
136,4362.564102,4519.487179,4533.333333,4294.358974,4478.461538,4218.461538,4460.512820,4220.512820,4237.435897,4505.641025,4208.717948,4630.256410,3975.897436,4020.512820
137,4360.512820,4520.512820,4527.179487,4287.692307,4473.846153,4216.923076,4444.102564,4217.435897,4233.846153,4502.564102,4215.897435,4622.564102,3970.769231,4008.205128
138,4363.076923,4520.512820,4530.256410,4287.692307,4473.846153,4215.897435,4447.179487,4217.948717,4235.897435,4515.897435,4218.974358,4627.179487,3973.333334,4008.205128
139,4361.025641,4521.538461,4529.743589,4289.743589,4475.384615,4215.384615,4458.974358,4220.000000,4239.487179,4523.076923,4216.923076,4631.794871,3974.871795,4009.230769
140,4355.384615,4518.461538,4523.589743,4283.076923,4474.871794,4216.923076,4452.820512,4219.487179,4237.435897,4511.282051,4210.256410,4625.128205,3973.333334,4003.589743
141,4351.282051,4505.641025,4522.051282,4275.384615,4465.641025,4212.820512,4441.538461,4216.410256,4232.307692,4497.435897,4201.025641,4618.974358,3969.230770,4002.564102
142,4351.282051,4506.153846,4520.512820,4278.461538,4455.897435,4204.615384,4443.076923,4214.358974,4226.153846,4494.871794,4202.051282,4617.435897,3963.589744,4005.641025
143,4354.871794,4516.410256,4521.025641,4281.025641,4457.948717,4207.179487,4446.666666,4214.871794,4225.641025,4500.512820,4204.102564,4616.410256,3965.128206,4003.076923
144,4356.923076,4512.307692,4523.589743,4270.256410,4460.000000,4209.743589,4445.641025,4215.384615,4227.179487,4502.051282,4200.512820,4621.025641,3969.230770,3999.487180
145,4356.410256,4505.128205,4522.051282,4262.051282,4458.974358,4203.589743,4446.153846,4214.871794,4224.615384,4497.435897,4199.487179,4627.692307,3965.128206,4005.128205
146,4357.948717,4504.102564,4521.538461,4268.205128,4459.487179,4202.051282,4446.666666,4214.358974,4221.538461,4493.333333,4200.000000,4624.102564,3962.051283,4008.205128
147,4357.435897,4507.179487,4525.128205,4276.923076,4460.000000,4206.153846,4443.076923,4211.282051,4219.487179,4491.282051,4196.410256,4618.974358,3964.102565,4005.128205
148,4361.538461,4516.410256,4528.717948,4282.051282,4465.128205,4210.256410,4447.179487,4213.846153,4220.512820,4490.256410,4203.076923,4628.717948,3969.230770,4009.743589
149,4372.307692,4525.128205,4533.846153,4288.717948,4473.333333,4215.897435,4459.487179,4225.128205,4230.256410,4500.512820,4216.410256,4639.487179,3976.410257,4017.948717
150,4371.794871,4521.538461,4536.923076,4286.153846,4475.897435,4216.410256,4457.948717,4225.641025,4235.384615,4515.384615,4212.820512,4635.897435,3977.948718,4015.897435
151,4369.230769,4517.435897,4531.794871,4282.564102,4475.384615,4211.794871,4445.128205,4216.410256,4225.641025,4506.666666,4204.102564,4632.307692,3970.769231,4015.384615
152,4374.871794,4525.641025,4531.282051,4286.666666,4470.256410,4212.307692,4443.076923,4214.358974,4218.974358,4489.230769,4210.256410,4635.384615,3969.230770,4024.102564
153,4371.282051,4524.102564,4534.871794,4286.666666,4466.666666,4212.820512,4445.641025,4218.461538,4224.615384,4493.333333,4213.333333,4631.282051,3972.307693,4023.589743
154,4362.051282,4511.282051,4528.205128,4277.948717,4468.205128,4209.743589,4444.102564,4215.384615,4227.692307,4504.615384,4202.564102,4622.564102,3972.307693,4016.923076
155,4369.230769,4506.666666,4523.589743,4270.256410,4462.564102,4205.641025,4445.128205,4212.820512,4222.564102,4494.871794,4197.948717,4625.128205,3969.743590,4013.846153
156,4371.794871,4508.205128,4527.179487,4268.717948,4454.871794,4200.512820,4445.128205,4215.384615,4216.410256,4475.897435,4201.538461,4627.179487,3962.564103,4008.717948
157,4358.974358,4504.615384,4524.102564,4267.692307,4454.871794,4196.923076,4438.461538,4211.794871,4216.923076,4475.897435,4199.487179,4621.025641,3950.769231,4002.051282
158,4355.384615,4504.102564,4515.897435,4269.743589,4461.538461,4203.589743,4440.000000,4209.743589,4216.410256,4486.666666,4197.435897,4620.000000,3950.769231,4003.076923
159,4364.102564,4514.871794,4517.435897,4274.358974,4469.230769,4212.307692,4448.717948,4213.846153,4215.384615,4491.282051,4202.564102,4621.538461,3966.153847,4011.794871
160,4367.179487,4516.410256,4521.025641,4279.487179,4470.256410,4210.256410,4448.205128,4217.948717,4218.974358,4492.307692,4204.102564,4622.564102,3973.846154,4014.871794
161,4365.128205,4507.179487,4519.487179,4278.461538,4467.692307,4206.666666,4445.641025,4216.923076,4219.487179,4488.205128,4201.538461,4622.564102,3967.692308,4005.128205
162,4365.641025,4506.153846,4523.589743,4275.384615,4467.692307,4207.179487,4453.333333,4216.923076,4220.000000,4485.128205,4206.666666,4625.128205,3963.589744,4002.051282
163,4369.230769,4510.256410,4533.846153,4281.025641,4465.128205,4212.307692,4462.564102,4222.564102,4224.102564,4494.358974,4210.256410,4629.230769,3970.256411,4015.384615
164,4362.564102,4508.717948,4532.820512,4281.538461,4458.974358,4212.307692,4457.948717,4222.051282,4225.128205,4496.923076,4202.051282,4624.615384,3971.794872,4018.461538
165,4352.307692,4504.102564,4521.025641,4270.769230,4458.461538,4202.564102,4450.256410,4213.846153,4217.948717,4481.025641,4193.846153,4615.897435,3960.512821,4004.615384
166,4361.025641,4505.641025,4523.589743,4266.153846,4461.025641,4202.564102,4454.871794,4212.820512,4219.487179,4478.974358,4200.512820,4623.076923,3959.487180,4005.128205
167,4375.897435,4508.205128,4535.384615,4278.461538,4461.025641,4215.384615,4458.461538,4219.487179,4229.743589,4492.307692,4214.358974,4638.461538,3969.230770,4020.512820
168,4370.769230,4507.179487,4534.358974,4284.102564,4460.000000,4211.282051,4448.205128,4218.974358,4225.128205,4486.666666,4216.410256,4634.871794,3968.717949,4018.974358
169,4363.589743,4505.641025,4525.641025,4273.333333,4460.000000,4196.923076,4440.000000,4214.871794,4213.846153,4473.333333,4200.512820,4623.076923,3957.948718,4005.641025
170,4363.589743,4505.641025,4523.589743,4267.179487,4455.384615,4201.025641,4443.076923,4216.410256,4212.820512,4469.743589,4188.205128,4620.000000,3948.205129,4003.589743
171,4360.000000,4506.666666,4520.000000,4267.692307,4450.256410,4204.102564,4439.487179,4218.461538,4210.769230,4469.230769,4189.230769,4618.461538,3949.230770,4006.666666
172,4352.820512,4501.025641,4511.794871,4263.589743,4453.846153,4196.923076,4429.230769,4212.307692,4199.487179,4461.538461,4181.025641,4612.307692,3949.743590,3997.948718
173,4349.743589,4491.282051,4508.717948,4260.000000,4456.923076,4197.948717,4432.307692,4203.076923,4195.384615,4452.820512,4171.794871,4607.692307,3940.000000,3985.128206
174,4357.435897,4495.897435,4513.333333,4267.692307,4453.333333,4201.538461,4442.564102,4205.641025,4209.230769,4466.153846,4185.641025,4614.358974,3943.589744,3989.743590
175,4366.666666,4507.179487,4517.948717,4270.256410,4457.948717,4202.564102,4443.589743,4215.384615,4222.051282,4489.230769,4205.641025,4623.589743,3968.205129,4008.717948
176,4366.153846,4505.641025,4518.461538,4266.153846,4462.051282,4203.076923,4440.000000,4217.948717,4225.641025,4490.769230,4205.128205,4624.615384,3983.076924,4020.512820
177,4369.743589,4501.025641,4520.512820,4269.743589,4457.948717,4202.051282,4441.538461,4217.435897,4224.615384,4480.512820,4197.435897,4624.102564,3984.102565,4023.589743
178,4382.564102,4505.128205,4527.692307,4270.769230,4458.974358,4202.051282,4443.589743,4220.000000,4223.589743,4481.025641,4203.076923,4628.205128,3985.641026,4030.256410
179,4385.641025,4508.717948,4531.794871,4268.717948,4461.025641,4203.076923,4444.102564,4220.512820,4223.589743,4489.230769,4210.256410,4632.307692,3978.974359,4030.769230
180,4380.512820,4508.717948,4531.794871,4274.358974,4455.897435,4203.076923,4444.102564,4218.461538,4224.615384,4490.769230,4206.153846,4632.820512,3970.256411,4023.076923
181,4378.461538,4507.692307,4530.256410,4278.974358,4458.461538,4203.589743,4443.589743,4216.923076,4221.538461,4481.025641,4201.025641,4629.743589,3972.820513,4018.461538
182,4372.820512,4504.615384,4525.641025,4276.410256,4464.102564,4201.538461,4441.538461,4213.333333,4213.846153,4470.769230,4202.564102,4626.153846,3971.282052,4017.435897
183,4373.846153,4504.615384,4525.641025,4277.435897,4463.076923,4202.051282,4441.025641,4213.846153,4215.897435,4475.384615,4206.666666,4628.205128,3971.794872,4023.076923
184,4385.641025,4509.230769,4533.333333,4282.051282,4461.538461,4211.794871,4443.589743,4220.512820,4225.641025,4478.461538,4209.230769,4635.897435,3979.487180,4028.717948
185,4384.615384,4508.205128,4534.871794,4276.923076,4460.000000,4213.333333,4444.615384,4221.025641,4224.102564,4473.846153,4200.000000,4634.871794,3981.538462,4025.641025
186,4373.846153,4499.487179,4527.692307,4272.820512,4454.871794,4203.076923,4442.051282,4215.384615,4209.230769,4476.410256,4188.717948,4624.102564,3974.871795,4019.487179
187,4371.794871,4492.820512,4523.589743,4275.897435,4456.410256,4202.051282,4441.538461,4213.846153,4202.051282,4473.846153,4194.358974,4621.025641,3969.743590,4016.410256
188,4375.384615,4492.820512,4527.692307,4273.846153,4458.974358,4208.205128,4444.102564,4217.435897,4214.358974,4462.564102,4196.923076,4627.179487,3968.717949,4016.923076
189,4379.487179,4500.512820,4532.307692,4266.666666,4456.923076,4204.102564,4445.641025,4219.487179,4221.538461,4463.076923,4193.333333,4633.333333,3967.179488,4022.051282
190,4382.564102,4504.615384,4531.794871,4266.666666,4455.897435,4198.974358,4445.641025,4217.435897,4216.923076,4469.230769,4202.051282,4635.897435,3973.846154,4024.615384
191,4376.923076,4498.461538,4528.717948,4270.769230,4452.820512,4200.512820,4444.615384,4216.923076,4216.923076,4465.641025,4211.282051,4634.358974,3977.435898,4022.051282
192,4366.153846,4493.333333,4527.179487,4266.666666,4448.205128,4201.025641,4443.076923,4217.948717,4218.461538,4466.666666,4203.589743,4631.282051,3967.179488,4019.487179
193,4364.615384,4492.820512,4523.076923,4264.615384,4448.205128,4195.897435,4442.051282,4217.948717,4214.358974,4467.179487,4191.794871,4627.179487,3954.358975,4015.897435
194,4370.769230,4494.358974,4520.512820,4273.333333,4448.717948,4193.333333,4440.000000,4216.410256,4210.256410,4457.435897,4186.666666,4629.230769,3956.410257,4014.871794
195,4373.333333,4497.435897,4526.666666,4276.923076,4443.589743,4198.461538,4441.538461,4217.435897,4212.820512,4462.051282,4192.820512,4632.307692,3966.153847,4018.974358
196,4374.358974,4498.461538,4530.256410,4269.230769,4444.102564,4203.589743,4444.615384,4217.948717,4216.410256,4477.435897,4204.615384,4632.307692,3967.179488,4024.102564
197,4380.000000,4500.000000,4529.230769,4266.666666,4453.333333,4202.564102,4445.128205,4217.948717,4216.410256,4468.717948,4206.666666,4634.871794,3966.666667,4030.256410
198,4383.589743,4506.153846,4528.205128,4270.769230,4450.256410,4200.512820,4442.051282,4217.948717,4214.871794,4454.871794,4201.025641,4636.410256,3969.230770,4029.230769
199,4376.410256,4506.153846,4524.615384,4266.666666,4442.564102,4198.461538,4437.948717,4214.358974,4215.384615,4461.538461,4198.461538,4632.820512,3970.769231,4020.512820
200,4376.923076,4503.076923,4527.692307,4263.589743,4451.794871,4199.487179,4438.461538,4221.538461,4222.564102,4473.846153,4203.589743,4635.384615,3974.871795,4025.128205
201,4390.256410,4507.692307,4536.410256,4271.794871,4464.615384,4205.128205,4443.589743,4234.358974,4236.410256,4482.051282,4210.769230,4645.641025,3980.512821,4031.282051
202,4386.666666,4506.153846,4530.256410,4272.307692,4459.487179,4204.615384,4444.102564,4227.179487,4236.923076,4477.948717,4206.153846,4641.025641,3974.358975,4022.564102
203,4370.769230,4497.948717,4522.051282,4264.615384,4452.820512,4196.923076,4440.000000,4211.282051,4220.512820,4462.564102,4195.384615,4629.230769,3963.076924,4017.948717
204,4375.384615,4501.025641,4528.205128,4268.717948,4456.923076,4200.000000,4441.538461,4214.358974,4217.435897,4467.692307,4196.923076,4632.307692,3969.230770,4027.692307
205,4390.769230,4510.769230,4536.410256,4278.461538,4463.076923,4213.846153,4449.743589,4229.230769,4235.384615,4488.717948,4207.692307,4644.102564,3985.128206,4042.051282
206,4384.615384,4505.128205,4534.358974,4276.923076,4458.974358,4212.820512,4450.769230,4228.717948,4241.538461,4489.230769,4210.256410,4645.641025,3982.051283,4041.538461
207,4372.307692,4490.769230,4527.179487,4267.692307,4447.179487,4199.487179,4442.564102,4217.948717,4228.717948,4471.794871,4204.102564,4634.871794,3963.589744,4024.615384
208,4383.589743,4495.384615,4526.666666,4264.102564,4447.179487,4197.948717,4440.512820,4217.948717,4223.589743,4465.641025,4197.948717,4632.820512,3963.589744,4020.000000
209,4399.487179,4509.743589,4535.897435,4266.153846,4463.076923,4207.179487,4450.256410,4231.794871,4234.358974,4482.051282,4205.128205,4644.102564,3977.948718,4038.974358
210,4393.333333,4506.153846,4537.948717,4266.153846,4471.282051,4208.717948,4451.794871,4238.461538,4237.948717,4493.846153,4212.820512,4647.692307,3975.897436,4043.589743
211,4373.333333,4487.692307,4523.076923,4257.435897,4458.974358,4198.974358,4434.871794,4223.589743,4224.102564,4480.512820,4201.025641,4632.820512,3956.923077,4021.538461
212,4358.974358,4480.000000,4512.307692,4250.256410,4446.666666,4190.769230,4423.589743,4214.358974,4216.923076,4473.333333,4189.230769,4618.974358,3949.230770,4012.820512
213,4365.128205,4490.256410,4517.948717,4257.948717,4452.820512,4196.923076,4433.846153,4224.615384,4228.205128,4494.871794,4195.897435,4627.692307,3964.615385,4023.589743
214,4381.025641,4505.128205,4528.717948,4266.666666,4465.641025,4208.205128,4446.666666,4235.384615,4237.435897,4518.461538,4206.666666,4641.538461,3978.974359,4032.820512
215,4378.974358,4506.666666,4531.282051,4262.051282,4463.589743,4205.641025,4443.076923,4231.282051,4240.000000,4517.435897,4205.641025,4640.000000,3972.307693,4030.769230
216,4364.615384,4493.846153,4522.564102,4260.512820,4454.871794,4200.000000,4437.948717,4227.692307,4236.923076,4503.076923,4200.000000,4630.769230,3964.102565,4020.512820
217,4363.076923,4493.333333,4518.974358,4264.102564,4460.000000,4208.717948,4441.025641,4231.794871,4233.846153,4505.641025,4203.589743,4630.769230,3968.717949,4017.948717
218,4366.153846,4500.512820,4520.512820,4262.564102,4466.153846,4213.846153,4443.076923,4232.307692,4240.000000,4517.948717,4211.794871,4633.846153,3970.769231,4023.589743
219,4365.641025,4496.410256,4521.025641,4262.564102,4465.641025,4208.717948,4442.051282,4231.282051,4243.076923,4516.410256,4212.820512,4633.333333,3971.282052,4030.256410
220,4365.128205,4495.897435,4523.589743,4268.205128,4466.666666,4207.179487,4442.051282,4231.282051,4236.923076,4510.769230,4206.666666,4633.333333,3976.923077,4033.846153
221,4360.000000,4506.666666,4523.589743,4266.666666,4471.282051,4206.153846,4440.000000,4229.230769,4232.820512,4509.230769,4201.538461,4631.282051,3978.974359,4030.256410
222,4356.410256,4508.717948,4521.538461,4262.564102,4472.307692,4205.128205,4439.487179,4228.205128,4234.871794,4510.256410,4201.538461,4631.794871,3976.410257,4026.153846
223,4357.435897,4503.589743,4523.589743,4267.179487,4468.205128,4207.692307,4441.025641,4231.282051,4238.974358,4515.897435,4207.179487,4634.358974,3977.435898,4025.641025
224,4353.846153,4503.589743,4523.589743,4269.743589,4461.025641,4205.128205,4441.538461,4229.743589,4236.923076,4514.358974,4207.179487,4631.794871,3976.923077,4024.615384
225,4357.435897,4505.641025,4523.076923,4269.743589,4456.410256,4204.102564,4441.538461,4225.641025,4232.820512,4505.128205,4203.076923,4630.256410,3976.923077,4026.153846
226,4367.179487,4508.717948,4532.820512,4275.384615,4459.487179,4211.794871,4442.564102,4229.743589,4237.435897,4506.153846,4203.076923,4636.410256,3977.948718,4032.820512
227,4363.589743,4512.307692,4538.974358,4282.051282,4464.102564,4211.282051,4443.076923,4232.820512,4240.512820,4507.692307,4210.769230,4638.974358,3976.923077,4035.384615
228,4357.435897,4508.717948,4533.333333,4280.000000,4462.051282,4199.487179,4441.025641,4228.717948,4236.923076,4509.230769,4213.333333,4634.358974,3978.461539,4034.871794
229,4361.538461,4505.641025,4531.282051,4270.769230,4457.435897,4196.410256,4439.487179,4227.692307,4235.897435,4514.871794,4205.641025,4633.846153,3980.512821,4034.358974
230,4368.205128,4509.743589,4537.435897,4272.307692,4460.512820,4205.641025,4441.538461,4231.282051,4240.000000,4511.794871,4198.974358,4640.512820,3982.051283,4034.871794
231,4370.769230,4511.282051,4543.076923,4278.974358,4469.743589,4213.846153,4445.641025,4235.384615,4242.564102,4509.743589,4206.153846,4647.692307,3984.102565,4042.051282
232,4364.615384,4501.025641,4538.974358,4271.282051,4469.743589,4209.230769,4443.589743,4231.282051,4239.487179,4513.846153,4210.256410,4644.102564,3979.487180,4042.564102
233,4356.923076,4505.128205,4530.769230,4267.179487,4460.000000,4198.974358,4438.461538,4222.051282,4228.205128,4506.666666,4198.974358,4633.846153,3973.846154,4032.307692
234,4363.076923,4520.000000,4532.307692,4276.410256,4457.948717,4202.564102,4441.025641,4221.025641,4226.666666,4504.102564,4198.461538,4638.461538,3977.435898,4033.846153
235,4367.692307,4516.410256,4534.871794,4278.461538,4463.076923,4206.666666,4441.025641,4223.589743,4233.333333,4511.282051,4203.589743,4648.205128,3978.974359,4037.435897
236,4359.487179,4505.641025,4530.769230,4270.769230,4462.564102,4200.512820,4436.410256,4219.487179,4230.256410,4509.743589,4197.435897,4640.000000,3972.307693,4030.769230
237,4355.897435,4511.282051,4531.794871,4273.333333,4461.538461,4202.051282,4433.846153,4215.897435,4229.743589,4505.641025,4197.435897,4631.794871,3971.794872,4029.230769
238,4357.948717,4513.333333,4533.846153,4273.333333,4459.487179,4203.589743,4431.794871,4217.948717,4232.820512,4506.666666,4202.564102,4634.871794,3976.410257,4029.743589
239,4360.512820,4506.153846,4531.794871,4265.641025,4455.897435,4200.512820,4432.307692,4219.487179,4230.769230,4507.179487,4201.025641,4636.410256,3979.487180,4027.179487
240,4368.205128,4513.846153,4534.358974,4272.307692,4462.564102,4206.153846,4441.538461,4220.512820,4233.846153,4508.205128,4203.076923,4637.948717,3980.512821,4034.358974
241,4369.230769,4519.487179,4536.410256,4277.948717,4469.743589,4210.256410,4444.102564,4218.461538,4233.846153,4505.128205,4202.564102,4638.974358,3978.974359,4037.948717
242,4356.923076,4508.717948,4528.205128,4267.692307,4464.615384,4203.589743,4431.282051,4214.871794,4222.051282,4495.897435,4190.256410,4631.794871,3975.384616,4025.128205
243,4350.256410,4503.076923,4522.051282,4265.641025,4455.897435,4197.435897,4424.102564,4215.897435,4217.948717,4487.692307,4186.153846,4627.692307,3971.794872,4015.897435
244,4359.487179,4507.179487,4530.256410,4276.923076,4455.897435,4205.128205,4433.846153,4216.923076,4230.769230,4489.230769,4191.794871,4635.384615,3972.307693,4020.512820
245,4368.205128,4515.897435,4538.974358,4281.025641,4465.641025,4217.948717,4445.128205,4224.102564,4239.487179,4508.717948,4196.923076,4643.076923,3978.461539,4032.307692
246,4365.128205,4516.923076,4535.384615,4276.410256,4469.743589,4215.897435,4442.564102,4230.256410,4235.384615,4521.538461,4197.435897,4639.487179,3979.487180,4036.923076
247,4358.974358,4510.256410,4530.769230,4273.333333,4462.564102,4202.564102,4431.794871,4223.076923,4230.769230,4505.128205,4192.820512,4633.333333,3975.384616,4028.205128
248,4357.435897,4504.102564,4531.794871,4270.769230,4460.000000,4201.538461,4429.230769,4214.871794,4230.769230,4495.897435,4187.179487,4632.820512,3973.846154,4022.564102
249,4362.051282,4508.205128,4531.794871,4273.846153,4464.615384,4207.179487,4435.384615,4214.358974,4231.794871,4503.076923,4186.666666,4633.333333,3975.897436,4026.153846
250,4367.692307,4510.256410,4530.256410,4280.512820,4462.564102,4208.717948,4441.538461,4222.051282,4232.820512,4500.512820,4188.717948,4635.897435,3974.871795,4028.717948
251,4366.153846,4506.666666,4529.230769,4276.923076,4461.538461,4212.820512,4443.589743,4229.743589,4233.333333,4497.435897,4186.153846,4638.461538,3971.794872,4030.769230
252,4360.000000,4508.717948,4527.692307,4268.205128,4465.641025,4211.282051,4440.000000,4227.179487,4230.769230,4498.461538,4185.128205,4634.358974,3972.307693,4029.230769
253,4364.615384,4510.256410,4527.692307,4269.230769,4461.538461,4203.589743,4438.974358,4218.461538,4229.743589,4496.923076,4184.615384,4630.256410,3973.846154,4026.153846
254,4368.205128,4509.743589,4530.769230,4273.846153,4456.923076,4200.000000,4441.538461,4217.435897,4230.256410,4498.974358,4186.153846,4634.871794,3970.769231,4024.615384
255,4361.538461,4509.743589,4530.256410,4272.307692,4461.538461,4203.076923,4441.538461,4218.974358,4229.230769,4502.051282,4186.666666,4635.897435,3970.769231,4027.179487
256,4357.435897,4508.717948,4528.205128,4266.153846,4464.615384,4208.205128,4443.076923,4220.000000,4232.307692,4492.307692,4184.615384,4633.333333,3974.871795,4029.230769
257,4359.487179,4507.692307,4526.153846,4265.641025,4458.974358,4207.179487,4442.051282,4221.538461,4232.307692,4481.538461,4181.538461,4634.871794,3970.256411,4029.230769
258,4357.948717,4506.666666,4522.564102,4268.205128,4453.846153,4199.487179,4432.820512,4215.897435,4227.179487,4482.051282,4172.307692,4631.282051,3965.128206,4023.076923
259,4351.282051,4507.692307,4521.025641,4265.641025,4456.410256,4200.000000,4426.153846,4208.717948,4225.128205,4489.743589,4167.692307,4623.076923,3967.179488,4017.435897
