,AF3,F7,F3,FC5,T7,P7,O1,O2,P8,T8,FC6,F4,F8,AF4
0,4009.743589,4345.128205,4319.487179,4113.333333,4401.538461,3661.025642,4449.230769,4030.256410,4087.692307,4308.717948,4036.410256,4408.717948,3849.743590,3842.564103
1,4019.487179,4348.205128,4323.076923,4111.282051,4397.948717,3650.769231,4440.512820,4025.128205,4082.051282,4308.717948,4022.564102,4409.230769,3852.820513,3847.692308
2,4025.128205,4334.871794,4325.641025,4106.666666,4393.846153,3648.205129,4443.589743,4023.589743,4078.974358,4304.615384,4028.205128,4412.307692,3843.589744,3845.641026
3,4025.128205,4328.717948,4324.102564,4105.128205,4392.307692,3652.307693,4446.153846,4027.692307,4082.051282,4309.743589,4043.589743,4414.871794,3846.153847,3848.717949
4,4024.615384,4332.307692,4316.410256,4104.615384,4396.410256,3651.794872,4442.564102,4027.179487,4079.487179,4316.923076,4033.846153,4406.666666,3851.794872,3848.205129
5,4027.179487,4335.384615,4312.820512,4105.641025,4396.410256,3649.230770,4443.076923,4023.589743,4073.333333,4307.179487,4015.384615,4397.948717,3839.487180,3844.102565
6,4032.307692,4335.897435,4318.461538,4108.717948,4392.820512,3651.282052,4444.615384,4021.025641,4072.820512,4297.948717,4020.000000,4400.000000,3833.333334,3845.128206
7,4035.897435,4335.384615,4318.974358,4108.717948,4393.333333,3649.743590,4444.615384,4019.487179,4075.384615,4303.076923,4027.179487,4402.051282,3843.076924,3847.692308
8,4039.487179,4334.358974,4314.358974,4102.564102,4397.435897,3641.025642,4443.076923,4018.974358,4076.923076,4312.307692,4023.589743,4400.512820,3849.743590,3848.205129
9,4039.487179,4333.333333,4316.410256,4105.641025,4396.923076,3635.384616,4438.461538,4019.487179,4079.487179,4315.897435,4026.666666,4402.051282,3850.769231,3850.769231
10,4033.333333,4340.512820,4324.615384,4115.897435,4395.897435,3638.974359,4439.487179,4025.128205,4083.589743,4315.897435,4034.358974,4408.717948,3860.000000,3858.461539
11,4021.538461,4346.666666,4331.794871,4115.384615,4403.076923,3641.538462,4446.153846,4030.769230,4085.128205,4319.487179,4043.589743,4416.410256,3865.641026,3864.615385
12,4005.128205,4341.025641,4329.230769,4106.666666,4403.589743,3636.923077,4446.153846,4030.256410,4086.153846,4321.538461,4044.615384,4418.461538,3862.564103,3863.076924
13,3987.692308,4341.538461,4325.641025,4107.692307,4396.410256,3634.358975,4443.589743,4033.846153,4092.307692,4322.051282,4032.307692,4413.333333,3865.128206,3860.512821
14,3978.461539,4353.846153,4331.282051,4121.025641,4401.025641,3637.435898,4443.589743,4039.487179,4095.897435,4323.076923,4030.769230,4412.820512,3869.230770,3863.589744
15,3972.307693,4353.846153,4331.282051,4122.564102,4406.153846,3634.871795,4438.461538,4031.282051,4087.692307,4319.487179,4047.692307,4416.923076,3865.641026,3866.666667
16,3952.820513,4340.000000,4322.051282,4111.794871,4397.435897,3629.230770,4434.871794,4022.564102,4078.461538,4314.871794,4046.666666,4412.820512,3860.512821,3862.564103
17,3940.000000,4341.025641,4323.076923,4106.153846,4398.461538,3633.333334,4442.564102,4029.743589,4085.641025,4320.000000,4027.692307,4410.256410,3862.051283,3860.000000
18,3941.025642,4350.769230,4331.282051,4110.769230,4408.717948,3638.974359,4448.717948,4034.871794,4094.871794,4321.538461,4025.128205,4414.358974,3866.153847,3863.076924
19,3933.333334,4345.128205,4327.692307,4115.384615,4404.615384,3638.461539,4444.615384,4027.179487,4086.153846,4308.205128,4026.666666,4412.820512,3862.051283,3862.564103
20,3923.589744,4338.974358,4323.589743,4113.846153,4397.435897,3635.384616,4444.102564,4020.000000,4073.846153,4306.153846,4030.769230,4405.128205,3859.487180,3860.512821
21,3921.025642,4338.461538,4324.102564,4107.692307,4398.461538,3629.743590,4443.589743,4020.512820,4071.794871,4314.358974,4035.897435,4399.487179,3863.076924,3856.410257
22,3911.282052,4333.333333,4317.948717,4101.025641,4397.435897,3626.666667,4431.794871,4017.948717,4071.282051,4307.692307,4022.051282,4395.384615,3862.051283,3847.692308
23,3902.564103,4330.256410,4313.846153,4102.564102,4396.410256,3626.666667,4429.230769,4012.307692,4065.641025,4296.923076,4010.256410,4391.282051,3854.358975,3841.538462
24,3908.205129,4338.974358,4317.435897,4109.743589,4399.487179,3622.564103,4438.461538,4013.846153,4064.615384,4298.461538,4020.000000,4392.820512,3858.461539,3845.641026
25,3906.153847,4344.615384,4315.897435,4108.205128,4402.051282,3619.487180,4437.435897,4018.974358,4071.794871,4308.205128,4027.692307,4396.410256,3862.564103,3845.128206
26,3897.435898,4332.307692,4314.871794,4098.974358,4402.051282,3621.025642,4432.820512,4020.512820,4074.358974,4316.410256,4024.102564,4396.410256,3851.282052,3839.487180
27,3901.025642,4329.230769,4323.589743,4100.512820,4400.000000,3618.974359,4438.974358,4018.974358,4068.717948,4320.512820,4021.538461,4395.384615,3853.333334,3842.564103
28,3909.743590,4344.102564,4330.769230,4111.282051,4401.538461,3616.923077,4446.153846,4021.538461,4070.256410,4321.025641,4017.948717,4402.564102,3867.179488,3848.717949
29,3913.846154,4351.794871,4331.282051,4113.333333,4406.666666,3621.025642,4446.153846,4026.153846,4078.461538,4318.974358,4022.564102,4409.230769,3865.641026,3847.692308
30,3912.820513,4346.153846,4331.794871,4110.256410,4407.179487,3620.512821,4446.153846,4029.743589,4078.974358,4316.410256,4028.205128,4408.205128,3857.948718,3845.641026
31,3911.794872,4341.025641,4328.717948,4107.692307,4401.538461,3611.282052,4443.589743,4026.666666,4069.230769,4311.794871,4023.076923,4407.179487,3854.358975,3846.153847
32,3916.410257,4335.384615,4327.179487,4105.641025,4398.974358,3605.128206,4440.512820,4016.923076,4062.051282,4306.153846,4020.512820,4410.256410,3853.333334,3845.641026
33,3924.615385,4333.333333,4334.358974,4108.205128,4401.538461,3609.230770,4443.589743,4019.487179,4066.153846,4309.230769,4021.025641,4413.333333,3856.923077,3847.179488
34,3931.282052,4345.128205,4338.974358,4109.743589,4406.153846,3616.410257,4446.666666,4028.205128,4071.794871,4318.974358,4026.153846,4413.333333,3866.666667,3852.307693
35,3937.435898,4353.846153,4339.487179,4110.769230,4411.282051,3617.948718,4446.153846,4027.692307,4073.333333,4324.102564,4040.512820,4414.358974,3872.307693,3856.410257
36,3941.538462,4345.641025,4341.025641,4112.820512,4411.282051,3611.282052,4444.615384,4026.666666,4074.871794,4320.512820,4045.641025,4420.000000,3868.205129,3854.358975
37,3942.051283,4337.948717,4342.564102,4114.871794,4407.179487,3606.666667,4442.564102,4031.282051,4077.948717,4316.410256,4035.384615,4422.051282,3863.076924,3854.358975
38,3946.153847,4347.692307,4341.538461,4118.974358,4409.743589,3614.358975,4443.076923,4034.358974,4080.000000,4321.538461,4029.743589,4419.487179,3868.205129,3860.512821
39,3957.435898,4363.589743,4347.692307,4124.102564,4416.410256,3624.102565,4450.769230,4039.487179,4087.179487,4331.282051,4033.846153,4425.128205,3879.487180,3864.615385
40,3968.205129,4361.538461,4354.358974,4124.615384,4416.923076,3623.589744,4454.358974,4047.179487,4093.333333,4332.820512,4038.974358,4432.820512,3882.051283,3866.666667
41,3967.179488,4348.205128,4346.153846,4120.000000,4415.384615,3620.512821,4447.179487,4041.025641,4084.102564,4325.641025,4044.102564,4426.153846,3871.794872,3862.051283
42,3961.538462,4348.717948,4335.384615,4121.538461,4414.358974,3620.000000,4443.076923,4031.282051,4075.897435,4321.025641,4044.102564,4411.282051,3867.179488,3852.307693
43,3967.179488,4357.435897,4337.948717,4122.051282,4412.820512,3620.000000,4445.641025,4032.820512,4080.000000,4324.102564,4036.410256,4410.769230,3874.358975,3849.743590
44,3974.358975,4351.794871,4339.487179,4113.846153,4413.846153,3615.384616,4444.102564,4034.871794,4082.051282,4326.666666,4035.897435,4422.051282,3877.948718,3854.871795
45,3977.948718,4342.564102,4331.794871,4105.128205,4409.743589,3604.615385,4439.487179,4032.820512,4081.538461,4325.641025,4042.051282,4423.589743,3869.230770,3856.410257
46,3982.564103,4345.128205,4330.769230,4105.641025,4404.615384,3602.051283,4440.000000,4032.820512,4082.051282,4323.076923,4038.461538,4416.410256,3863.076924,3853.333334
47,3987.179488,4346.666666,4335.897435,4112.307692,4409.230769,3608.205129,4442.564102,4036.923076,4080.512820,4320.000000,4029.230769,4416.410256,3872.307693,3849.230770
48,3993.333334,4342.051282,4337.948717,4108.205128,4414.871794,3611.282052,4444.615384,4039.487179,4082.051282,4322.051282,4031.282051,4422.564102,3874.871795,3846.153847
49,4002.051282,4343.076923,4341.538461,4103.589743,4412.820512,3616.410257,4446.153846,4037.435897,4090.769230,4328.717948,4041.025641,4426.666666,3866.666667,3849.230770
50,4010.769230,4347.692307,4346.153846,4112.820512,4413.333333,3619.487180,4447.692307,4037.948717,4094.358974,4333.846153,4043.589743,4426.153846,3872.820513,3852.307693
51,4016.923076,4349.743589,4344.615384,4117.948717,4410.769230,3611.794872,4448.205128,4038.461538,4088.717948,4331.794871,4043.076923,4418.461538,3877.948718,3850.256411
52,4019.487179,4345.641025,4338.461538,4105.641025,4404.102564,3603.589744,4445.641025,4032.307692,4080.512820,4323.589743,4040.000000,4411.794871,3866.666667,3847.179488
53,4021.025641,4342.051282,4337.435897,4097.948717,4406.153846,3604.102565,4444.102564,4029.230769,4080.000000,4322.051282,4034.871794,4415.384615,3864.102565,3843.589744
54,4028.205128,4348.717948,4338.461538,4105.641025,4409.743589,3606.666667,4444.102564,4037.435897,4088.205128,4327.692307,4034.871794,4418.974358,3874.358975,3845.641026
55,4033.333333,4345.641025,4334.871794,4107.692307,4407.179487,3605.128206,4444.615384,4037.435897,4085.641025,4322.051282,4026.666666,4412.307692,3870.256411,3847.179488
56,4032.307692,4334.358974,4329.230769,4103.076923,4402.564102,3603.589744,4445.128205,4022.564102,4070.769230,4309.743589,4014.358974,4407.692307,3861.538462,3840.512821
57,4036.410256,4344.102564,4330.256410,4105.128205,4398.974358,3602.564103,4442.564102,4015.897435,4066.666666,4306.153846,4021.538461,4409.743589,3867.179488,3838.461539
58,4044.615384,4356.923076,4333.846153,4105.641025,4402.564102,3601.025642,4437.435897,4016.923076,4069.230769,4308.205128,4036.923076,4411.282051,3870.769231,3842.564103
59,4054.871794,4350.769230,4337.948717,4106.153846,4412.820512,3603.076924,4439.487179,4017.435897,4070.256410,4312.307692,4036.410256,4415.384615,3869.743590,3845.641026
60,4062.564102,4348.717948,4339.487179,4111.794871,4414.358974,3606.666667,4441.025641,4018.974358,4074.871794,4315.384615,4030.256410,4420.000000,3872.820513,3847.179488
61,4060.000000,4350.256410,4332.307692,4107.179487,4404.615384,3602.564103,4431.794871,4018.974358,4073.333333,4310.256410,4026.666666,4411.282051,3869.743590,3844.102565
62,4063.076923,4345.128205,4326.666666,4100.512820,4402.564102,3596.923077,4430.769230,4020.512820,4069.230769,4310.256410,4026.153846,4403.076923,3870.769231,3838.461539
63,4077.435897,4346.666666,4332.820512,4108.717948,4407.692307,3604.102565,4443.076923,4028.205128,4078.461538,4317.948717,4032.307692,4413.333333,3876.410257,3842.051283
64,4083.589743,4350.769230,4334.358974,4108.205128,4409.230769,3609.743590,4450.769230,4034.871794,4085.641025,4318.461538,4030.256410,4417.435897,3870.769231,3843.589744
65,4080.000000,4347.179487,4327.179487,4095.897435,4409.743589,3610.256411,4448.205128,4035.384615,4080.512820,4313.846153,4018.974358,4404.615384,3868.205129,3836.923077
66,4084.615384,4343.076923,4326.153846,4098.974358,4411.282051,3614.358975,4446.153846,4034.358974,4078.461538,4307.179487,4021.538461,4398.461538,3876.923077,3837.435898
67,4094.358974,4346.666666,4328.717948,4108.717948,4413.846153,3616.410257,4452.307692,4032.820512,4078.461538,4303.076923,4028.205128,4404.615384,3873.333334,3840.000000
68,4094.871794,4348.205128,4323.076923,4103.589743,4410.256410,3611.794872,4454.871794,4028.205128,4074.358974,4307.179487,4025.128205,4402.564102,3862.051283,3833.846154
69,4090.256410,4341.025641,4314.358974,4092.820512,4402.564102,3608.205129,4446.666666,4023.076923,4069.743589,4306.153846,4016.923076,4391.794871,3860.512821,3825.641026
70,4094.358974,4337.948717,4315.384615,4090.256410,4399.487179,3605.641026,4441.025641,4023.076923,4067.179487,4302.564102,4013.846153,4390.769230,3852.820513,3824.102565
71,4104.615384,4339.487179,4320.512820,4091.282051,4402.564102,3603.076924,4445.128205,4025.641025,4068.717948,4305.641025,4013.846153,4396.923076,3847.692308,3826.153847
72,4109.743589,4336.923076,4321.538461,4092.307692,4402.051282,3604.615385,4444.615384,4023.076923,4070.769230,4306.666666,4011.282051,4397.435897,3864.102565,3827.692308
73,4114.871794,4339.487179,4324.102564,4094.358974,4397.435897,3604.102565,4441.538461,4020.512820,4072.307692,4306.153846,4016.923076,4398.974358,3871.794872,3827.692308
74,4122.564102,4348.717948,4328.717948,4093.333333,4395.897435,3603.589744,4444.102564,4027.692307,4071.282051,4312.820512,4031.794871,4403.589743,3861.538462,3831.282052
75,4122.564102,4346.666666,4328.717948,4090.769230,4400.512820,3605.641026,4446.666666,4031.282051,4070.256410,4312.307692,4035.897435,4406.153846,3864.102565,3837.948718
76,4122.051282,4345.641025,4329.743589,4098.974358,4407.692307,3607.692308,4447.692307,4030.256410,4074.358974,4308.205128,4027.692307,4411.794871,3878.974359,3844.102565
77,4123.076923,4346.153846,4327.179487,4107.692307,4405.128205,3607.179488,4445.641025,4027.692307,4077.435897,4313.846153,4025.641025,4409.743589,3874.358975,3842.051283
78,4116.923076,4336.923076,4316.410256,4100.512820,4396.923076,3603.589744,4442.564102,4022.051282,4073.333333,4315.384615,4032.307692,4398.974358,3861.538462,3832.820513
79,4116.923076,4343.076923,4315.897435,4091.282051,4395.897435,3603.589744,4444.102564,4022.564102,4073.333333,4312.307692,4034.871794,4400.512820,3870.769231,3833.846154
80,4123.076923,4353.846153,4324.615384,4090.256410,4396.923076,3605.128206,4445.128205,4023.589743,4073.333333,4312.307692,4026.153846,4404.615384,3876.923077,3838.461539
81,4121.538461,4342.051282,4323.076923,4095.897435,4398.974358,3604.102565,4437.435897,4018.974358,4068.717948,4310.256410,4020.000000,4399.487179,3865.128206,3834.871795
82,4121.025641,4336.410256,4316.923076,4102.564102,4401.025641,3604.102565,4432.307692,4018.461538,4067.179487,4305.128205,4022.051282,4396.923076,3862.564103,3832.820513
83,4121.538461,4346.666666,4313.333333,4095.384615,4393.846153,3603.589744,4432.307692,4020.512820,4066.666666,4300.000000,4016.923076,4392.820512,3866.153847,3831.282052
84,4118.974358,4346.153846,4311.282051,4084.615384,4392.307692,3603.589744,4433.333333,4017.948717,4067.692307,4301.025641,4014.358974,4388.205128,3861.538462,3827.692308
85,4127.692307,4341.538461,4317.435897,4090.769230,4398.461538,3605.128206,4440.000000,4022.051282,4077.435897,4313.846153,4025.128205,4397.435897,3864.102565,3832.307693
86,4138.461538,4345.641025,4323.076923,4097.435897,4398.461538,3605.641026,4441.025641,4028.205128,4078.974358,4318.974358,4033.333333,4405.128205,3872.820513,3838.974359
87,4136.923076,4344.615384,4321.538461,4091.282051,4395.384615,3603.589744,4434.871794,4022.564102,4067.692307,4306.666666,4020.512820,4400.000000,3870.769231,3836.410257
88,4135.897435,4346.153846,4322.564102,4092.820512,4396.923076,3603.589744,4433.333333,4019.487179,4069.230769,4304.102564,4011.794871,4397.948717,3864.102565,3833.333334
89,4138.974358,4353.333333,4320.512820,4096.410256,4397.435897,3607.179488,4437.948717,4021.025641,4072.820512,4306.153846,4020.000000,4396.923076,3863.589744,3833.846154
90,4138.974358,4351.282051,4316.923076,4091.794871,4396.923076,3609.743590,4440.000000,4020.000000,4063.076923,4300.512820,4026.153846,4392.820512,3867.179488,3834.871795
91,4137.948717,4341.538461,4320.512820,4095.897435,4396.410256,3609.743590,4436.923076,4017.435897,4057.948717,4296.923076,4021.025641,4391.794871,3866.153847,3832.820513
92,4137.435897,4336.923076,4322.564102,4103.589743,4395.384615,3605.128206,4433.333333,4013.846153,4062.564102,4300.512820,4014.871794,4393.333333,3858.461539,3830.256411
93,4137.948717,4341.025641,4320.512820,4096.923076,4397.948717,3609.230770,4433.333333,4013.333333,4063.589743,4303.076923,4012.307692,4393.846153,3857.948718,3831.794872
94,4140.512820,4345.128205,4321.025641,4088.717948,4397.948717,3616.923077,4436.923076,4015.384615,4061.025641,4301.025641,4009.230769,4392.307692,3861.025642,3832.820513
95,4138.974358,4344.102564,4320.000000,4090.256410,4396.923076,3611.282052,4438.461538,4013.846153,4060.000000,4298.461538,4014.358974,4390.769230,3855.897436,3831.282052
96,4135.384615,4344.615384,4318.974358,4093.846153,4397.435897,3608.717949,4440.512820,4012.307692,4061.538461,4300.512820,4020.000000,4393.846153,3854.358975,3834.871795
97,4134.358974,4351.282051,4324.102564,4101.538461,4398.461538,3618.461539,4445.641025,4018.461538,4067.692307,4310.769230,4021.025641,4398.461538,3863.589744,3844.102565
98,4137.435897,4355.384615,4328.205128,4105.641025,4400.512820,3622.564103,4448.717948,4027.179487,4075.384615,4316.410256,4025.128205,4397.435897,3869.743590,3846.153847
99,4136.923076,4348.205128,4325.641025,4093.846153,4400.000000,3616.923077,4450.256410,4026.666666,4074.871794,4307.692307,4018.974358,4396.923076,3862.564103,3844.102565
100,4125.641025,4336.923076,4320.000000,4084.615384,4396.923076,3617.435898,4446.666666,4018.461538,4067.179487,4300.512820,4016.410256,4395.897435,3861.025642,3845.641026
101,4123.076923,4338.974358,4321.025641,4093.333333,4395.897435,3618.974359,4443.076923,4021.025641,4067.692307,4310.769230,4036.923076,4398.461538,3873.333334,3846.666667
102,4135.897435,4349.743589,4328.205128,4100.000000,4399.487179,3620.512821,4448.205128,4034.871794,4082.051282,4328.205128,4043.589743,4407.179487,3882.051283,3849.230770
103,4138.461538,4350.769230,4326.666666,4094.871794,4401.025641,3622.564103,4454.358974,4036.410256,4090.769230,4328.205128,4024.102564,4406.153846,3881.025642,3851.282052
104,4130.256410,4343.076923,4317.948717,4092.307692,4398.461538,3619.487180,4452.307692,4026.666666,4081.538461,4318.974358,4019.487179,4395.384615,3877.435898,3847.692308
105,4133.846153,4345.128205,4318.461538,4093.333333,4403.589743,3618.974359,4450.769230,4026.153846,4074.358974,4324.102564,4035.897435,4398.974358,3877.948718,3851.794872
106,4141.538461,4354.871794,4325.641025,4097.435897,4413.333333,3621.538462,4456.410256,4032.820512,4081.025641,4328.205128,4046.153846,4411.794871,3886.153847,3862.564103
107,4140.512820,4359.487179,4330.769230,4101.025641,4406.666666,3621.025642,4457.435897,4031.282051,4088.205128,4321.025641,4049.230769,4410.769230,3894.871795,3864.615385
108,4137.435897,4353.846153,4329.230769,4102.051282,4397.948717,3618.461539,4452.307692,4024.615384,4086.666666,4317.435897,4043.589743,4402.564102,3890.769231,3861.025642
109,4135.384615,4348.717948,4329.230769,4101.538461,4405.641025,3617.948718,4455.384615,4025.641025,4083.076923,4323.076923,4030.769230,4402.051282,3885.128206,3862.564103
110,4137.948717,4367.692307,4335.384615,4103.589743,4413.846153,3623.076924,4463.076923,4033.846153,4089.743589,4329.743589,4035.384615,4411.794871,3894.358975,3867.692308
111,4141.025641,4381.025641,4336.410256,4109.743589,4413.333333,3626.666667,4461.025641,4032.307692,4095.384615,4330.256410,4047.179487,4414.358974,3902.564103,3868.205129
112,4131.282051,4361.025641,4328.205128,4112.820512,4410.769230,3621.538462,4455.897435,4019.487179,4085.128205,4326.153846,4045.641025,4402.051282,3890.256411,3863.076924
113,4122.564102,4351.794871,4326.666666,4108.717948,4408.717948,3620.512821,4456.410256,4018.974358,4077.948717,4326.153846,4044.615384,4400.512820,3877.435898,3860.000000
114,4127.179487,4367.692307,4331.794871,4099.487179,4408.205128,3628.205129,4458.974358,4025.641025,4083.589743,4325.641025,4037.948717,4407.692307,3884.615385,3862.564103
115,4124.102564,4366.153846,4326.153846,4098.974358,4407.692307,3625.641026,4457.435897,4023.076923,4080.512820,4317.948717,4024.102564,4400.512820,3888.205129,3862.051283
116,4119.487179,4354.358974,4322.051282,4108.717948,4408.205128,3621.025642,4456.923076,4018.974358,4078.461538,4316.410256,4031.794871,4394.871794,3884.615385,3861.025642
117,4130.256410,4363.589743,4328.717948,4110.256410,4414.358974,3627.692308,4459.487179,4025.128205,4084.102564,4324.102564,4043.589743,4403.076923,3889.230770,3864.102565
118,4130.769230,4370.256410,4327.692307,4100.000000,4410.769230,3628.717949,4458.974358,4029.743589,4081.538461,4322.564102,4031.794871,4404.102564,3888.205129,3865.641026
119,4124.102564,4358.461538,4323.589743,4098.461538,4398.974358,3620.512821,4457.948717,4030.256410,4078.974358,4323.076923,4029.743589,4395.897435,3883.076924,3864.615385
120,4131.794871,4352.307692,4326.666666,4106.666666,4399.487179,3620.512821,4460.000000,4033.333333,4083.589743,4325.641025,4038.461538,4400.512820,3887.179488,3865.641026
121,4139.487179,4362.051282,4327.692307,4105.641025,4408.205128,3623.076924,4458.974358,4035.897435,4083.076923,4318.974358,4037.435897,4408.717948,3889.743590,3868.205129
122,4132.307692,4365.641025,4324.615384,4101.538461,4407.692307,3619.487180,4454.871794,4033.846153,4077.435897,4315.897435,4037.948717,4404.615384,3877.435898,3866.666667
123,4125.641025,4353.846153,4323.589743,4101.025641,4403.589743,3617.435898,4453.846153,4026.666666,4074.871794,4319.487179,4035.897435,4394.871794,3867.692308,3859.487180
124,4126.666666,4350.256410,4320.512820,4100.000000,4408.205128,3621.538462,4457.435897,4020.512820,4072.307692,4316.923076,4018.974358,4392.307692,3871.282052,3856.923077
125,4127.692307,4357.435897,4315.384615,4101.538461,4410.256410,3620.512821,4461.025641,4019.487179,4070.256410,4311.794871,4012.820512,4394.358974,3869.230770,3857.435898
126,4124.615384,4350.256410,4309.743589,4098.461538,4400.000000,3609.743590,4453.333333,4013.333333,4063.076923,4307.692307,4020.512820,4387.692307,3855.897436,3849.743590
127,4120.512820,4337.435897,4307.692307,4088.717948,4392.820512,3601.538462,4442.564102,4007.179487,4058.974358,4306.666666,4018.974358,4380.000000,3850.769231,3843.589744
128,4121.538461,4345.128205,4315.897435,4091.282051,4401.538461,3605.128206,4448.205128,4014.358974,4068.205128,4311.282051,4015.897435,4384.102564,3863.589744,3852.820513
129,4122.051282,4361.025641,4324.102564,4103.076923,4405.641025,3608.205129,4455.897435,4024.102564,4073.333333,4313.333333,4021.538461,4394.358974,3869.230770,3862.564103
130,4120.000000,4356.410256,4328.205128,4106.153846,4402.564102,3605.128206,4454.358974,4028.717948,4071.794871,4313.846153,4037.435897,4398.974358,3861.025642,3865.128206
131,4122.564102,4346.153846,4331.282051,4103.076923,4404.615384,3605.641026,4453.846153,4030.256410,4073.846153,4315.897435,4043.589743,4397.948717,3865.641026,3866.666667
132,4127.692307,4354.358974,4327.692307,4100.000000,4405.128205,3603.589744,4447.692307,4024.615384,4072.820512,4307.179487,4024.615384,4392.820512,3873.846154,3866.153847
133,4134.871794,4365.641025,4322.051282,4101.025641,4401.538461,3592.820513,4438.461538,4014.871794,4070.256410,4302.051282,4013.846153,4388.717948,3868.205129,3863.589744
134,4141.025641,4363.076923,4320.512820,4104.615384,4403.589743,3587.179488,4433.846153,4014.358974,4069.230769,4312.307692,4025.641025,4391.282051,3865.128206,3864.615385
135,4137.948717,4354.871794,4316.923076,4101.538461,4406.153846,3586.666667,4430.256410,4015.897435,4064.615384,4315.897435,4025.128205,4390.256410,3872.307693,3862.051283
136,4141.538461,4350.256410,4316.923076,4098.461538,4403.589743,3586.153847,4430.769230,4011.794871,4066.666666,4309.743589,4014.358974,4386.153846,3871.794872,3860.512821
137,4160.000000,4355.897435,4326.153846,4102.051282,4407.692307,3590.256411,4441.025641,4012.307692,4074.871794,4309.743589,4028.205128,4392.307692,3873.333334,3870.769231
138,4164.615384,4364.102564,4328.205128,4103.589743,4415.384615,3594.871795,4445.128205,4020.000000,4073.846153,4315.897435,4041.538461,4395.384615,3882.051283,3873.333334
139,4158.461538,4360.512820,4323.589743,4102.564102,4416.410256,3592.307693,4440.512820,4023.076923,4070.256410,4321.538461,4031.794871,4390.769230,3877.948718,3863.589744
140,4166.153846,4354.871794,4325.128205,4105.641025,4411.794871,3590.769231,4443.076923,4019.487179,4072.820512,4320.512820,4019.487179,4392.820512,3876.923077,3868.717949
141,4176.410256,4362.051282,4326.153846,4102.051282,4410.256410,3591.282052,4447.179487,4020.000000,4074.358974,4310.769230,4020.512820,4397.948717,3891.282052,3880.000000
142,4171.282051,4363.076923,4325.128205,4094.358974,4412.820512,3590.769231,4443.076923,4020.512820,4066.666666,4304.615384,4033.333333,4394.358974,3887.179488,3872.307693
143,4167.692307,4349.743589,4325.641025,4094.871794,4408.205128,3586.153847,4436.410256,4011.282051,4057.435897,4308.717948,4032.820512,4388.205128,3864.615385,3860.512821
144,4170.256410,4342.051282,4322.564102,4096.410256,4397.435897,3577.435898,4429.743589,4005.641025,4058.461538,4311.794871,4009.743589,4381.538461,3862.564103,3861.538462
145,4168.717948,4343.589743,4317.435897,4089.743589,4399.487179,3576.923077,4427.179487,4011.794871,4067.179487,4312.307692,4004.102564,4377.948717,3878.461539,3862.051283
146,4172.307692,4347.692307,4323.076923,4092.307692,4411.282051,3586.666667,4434.358974,4021.025641,4072.307692,4316.410256,4027.179487,4388.205128,3881.538462,3862.564103
147,4182.051282,4349.743589,4331.794871,4103.589743,4413.333333,3589.230770,4438.974358,4024.102564,4076.410256,4320.000000,4040.000000,4397.948717,3872.820513,3868.717949
148,4191.282051,4352.820512,4333.846153,4108.205128,4410.256410,3585.641026,4433.846153,4023.076923,4081.538461,4318.974358,4033.846153,4397.435897,3883.076924,3875.384616
149,4198.461538,4359.487179,4335.897435,4108.205128,4413.333333,3586.666667,4434.871794,4024.102564,4083.589743,4321.025641,4028.205128,4402.051282,3901.025642,3881.538462
150,4206.153846,4363.589743,4341.025641,4107.179487,4414.871794,3588.205129,4444.102564,4029.743589,4084.102564,4329.230769,4035.897435,4412.307692,3895.384616,3882.564103
151,4212.307692,4367.179487,4343.076923,4106.153846,4415.384615,3588.205129,4445.128205,4036.410256,4091.282051,4336.923076,4054.358974,4415.384615,3890.256411,3880.000000
152,4216.410256,4370.769230,4340.512820,4113.846153,4417.948717,3590.769231,4444.102564,4040.000000,4096.410256,4338.974358,4054.358974,4411.794871,3897.948718,3886.153847
153,4215.384615,4364.615384,4340.000000,4118.461538,4417.435897,3586.153847,4447.179487,4037.948717,4091.794871,4330.769230,4035.384615,4407.692307,3896.923077,3890.769231
154,4212.307692,4354.358974,4340.512820,4106.153846,4414.871794,3584.615385,4445.128205,4033.333333,4085.128205,4327.179487,4031.282051,4408.205128,3893.846154,3885.641026
155,4213.333333,4358.461538,4338.461538,4099.487179,4412.820512,3584.102565,4434.871794,4027.179487,4078.461538,4329.743589,4044.102564,4411.282051,3895.897436,3883.076924
156,4215.897435,4365.128205,4340.000000,4110.769230,4412.820512,3578.974359,4430.256410,4023.076923,4073.846153,4322.564102,4051.282051,4410.769230,3890.256411,3884.615385
157,4218.974358,4362.564102,4345.128205,4113.846153,4413.333333,3581.025642,4436.410256,4024.615384,4078.974358,4316.923076,4050.769230,4408.717948,3886.666667,3888.205129
158,4217.435897,4363.076923,4346.666666,4106.666666,4414.358974,3586.666667,4440.512820,4030.769230,4085.641025,4324.615384,4047.179487,4413.846153,3896.923077,3894.871795
159,4208.205128,4362.564102,4343.076923,4107.692307,4415.384615,3581.025642,4433.846153,4030.769230,4082.564102,4329.743589,4041.538461,4416.410256,3898.974359,3892.307693
160,4195.897435,4352.820512,4334.358974,4105.641025,4409.230769,3569.743590,4421.025641,4021.538461,4075.384615,4318.974358,4040.000000,4403.076923,3885.641026,3880.512821
161,4186.153846,4343.589743,4327.692307,4094.871794,4395.384615,3570.256411,4416.410256,4015.384615,4072.820512,4307.692307,4033.333333,4393.846153,3877.435898,3877.435898
162,4186.666666,4345.641025,4330.769230,4092.307692,4398.461538,3573.846154,4422.564102,4018.461538,4069.230769,4307.179487,4023.589743,4402.564102,3881.025642,3880.512821
163,4185.641025,4352.820512,4334.358974,4096.923076,4409.743589,3572.820513,4423.076923,4017.948717,4065.128205,4310.256410,4022.564102,4405.641025,3883.589744,3879.487180
164,4173.333333,4348.717948,4325.128205,4095.897435,4403.076923,3571.794872,4412.820512,4008.717948,4066.666666,4310.769230,4029.743589,4393.846153,3878.974359,3875.384616
165,4171.794871,4342.564102,4325.641025,4101.538461,4398.461538,3571.282052,4410.769230,4013.333333,4072.820512,4315.384615,4044.615384,4396.923076,3874.871795,3880.000000
166,4180.512820,4347.179487,4339.487179,4106.666666,4405.128205,3573.333334,4417.435897,4022.564102,4075.384615,4320.000000,4048.717948,4413.846153,3882.564103,3889.743590
167,4175.897435,4353.846153,4338.974358,4096.923076,4402.051282,3571.794872,4414.358974,4014.871794,4072.820512,4314.358974,4029.230769,4409.230769,3887.692308,3886.153847
168,4171.794871,4355.384615,4332.307692,4095.384615,4397.948717,3569.230770,4410.256410,4010.256410,4073.333333,4311.794871,4018.974358,4396.923076,3877.948718,3882.051283
169,4182.051282,4358.461538,4339.487179,4109.743589,4405.641025,3571.282052,4413.846153,4022.564102,4077.948717,4317.435897,4034.871794,4403.076923,3874.871795,3891.282052
170,4187.179487,4363.076923,4341.538461,4116.410256,4408.205128,3575.384616,4414.358974,4026.666666,4078.974358,4317.435897,4041.025641,4408.717948,3891.282052,3898.461539
171,4178.974358,4359.487179,4330.256410,4099.487179,4400.512820,3573.846154,4408.205128,4016.923076,4073.333333,4313.846153,4027.692307,4401.538461,3893.333334,3891.794872
172,4171.282051,4351.282051,4326.153846,4092.307692,4397.948717,3570.256411,4403.076923,4014.871794,4069.743589,4315.897435,4028.717948,4396.923076,3880.000000,3884.102565
173,4171.794871,4352.307692,4333.333333,4111.794871,4403.076923,3573.846154,4405.641025,4015.897435,4072.820512,4317.948717,4046.666666,4402.051282,3883.589744,3886.666667
174,4169.743589,4355.897435,4328.717948,4115.897435,4402.564102,3570.256411,4403.076923,4008.205128,4067.179487,4312.307692,4039.487179,4400.512820,3881.538462,3885.641026
175,4157.948717,4349.230769,4315.384615,4089.230769,4390.256410,3559.487180,4390.769230,3999.487180,4056.410256,4306.666666,4008.717948,4388.205128,3865.128206,3874.358975
176,4146.153846,4341.025641,4314.871794,4080.000000,4386.153846,3556.410257,4385.641025,4000.512820,4057.948717,4304.102564,4006.153846,4383.589743,3864.102565,3869.743590
177,4141.538461,4346.153846,4324.615384,4098.974358,4397.948717,3564.615385,4393.333333,4005.641025,4063.076923,4306.666666,4031.794871,4390.256410,3878.461539,3878.461539
178,4134.358974,4350.256410,4326.153846,4102.051282,4401.538461,3571.282052,4399.487179,4006.153846,4058.974358,4306.666666,4038.461538,4396.410256,3882.051283,3880.512821
179,4125.641025,4346.153846,4322.564102,4089.743589,4392.820512,3565.641026,4394.358974,4005.641025,4058.974358,4298.974358,4023.589743,4395.897435,3872.307693,3876.410257
180,4122.051282,4345.128205,4324.102564,4088.717948,4389.743589,3563.076924,4385.128205,4007.692307,4068.205128,4299.487179,4016.410256,4393.846153,3866.153847,3878.461539
181,4122.564102,4349.230769,4328.205128,4100.512820,4397.435897,3569.230770,4388.717948,4013.846153,4072.307692,4315.897435,4024.102564,4398.974358,3872.820513,3885.641026
182,4124.615384,4357.435897,4335.897435,4111.794871,4407.179487,3576.923077,4401.538461,4023.076923,4077.435897,4324.102564,4043.076923,4409.743589,3882.564103,3894.871795
183,4125.128205,4363.589743,4343.076923,4112.820512,4409.743589,3580.512821,4401.538461,4024.615384,4085.641025,4316.410256,4051.794871,4416.923076,3880.512821,3897.435898
184,4118.461538,4355.384615,4338.974358,4104.102564,4404.615384,3577.948718,4392.820512,4018.974358,4082.564102,4310.769230,4037.435897,4413.333333,3877.435898,3891.282052
185,4105.128205,4344.615384,4329.230769,4096.923076,4400.000000,3573.333334,4390.256410,4016.923076,4071.794871,4312.307692,4028.205128,4404.102564,3875.384616,3881.538462
186,4096.923076,4345.128205,4327.179487,4104.102564,4395.384615,3570.256411,4386.666666,4017.435897,4069.743589,4311.794871,4037.435897,4396.923076,3874.358975,3877.435898
187,4096.410256,4349.230769,4330.256410,4107.179487,4394.871794,3573.333334,4385.641025,4016.410256,4074.871794,4313.846153,4042.564102,4398.974358,3878.461539,3882.051283
188,4087.179487,4342.564102,4328.205128,4094.358974,4394.358974,3572.307693,4387.692307,4013.333333,4071.794871,4312.307692,4027.692307,4396.410256,3870.769231,3881.025642
189,4074.871794,4333.333333,4322.051282,4083.076923,4389.230769,3571.282052,4385.641025,4008.205128,4065.128205,4305.641025,4012.820512,4383.076923,3859.487180,3867.179488
190,4073.333333,4334.358974,4315.897435,4085.641025,4383.076923,3572.820513,4381.538461,4005.128205,4060.512820,4302.051282,4020.512820,4382.564102,3863.589744,3863.076924
191,4074.358974,4333.846153,4315.384615,4090.256410,4380.512820,3569.743590,4381.025641,4007.179487,4061.025641,4301.538461,4030.769230,4390.769230,3870.256411,3870.256411
192,4066.153846,4327.179487,4318.461538,4089.230769,4383.589743,3570.256411,4382.564102,4007.692307,4063.076923,4301.538461,4024.102564,4385.128205,3865.128206,3869.230770
193,4060.000000,4328.205128,4316.410256,4085.128205,4384.615384,3573.333334,4384.615384,4007.179487,4063.076923,4298.461538,4018.461538,4377.435897,3861.538462,3861.025642
194,4061.538461,4332.820512,4312.820512,4083.076923,4384.102564,3573.846154,4385.128205,4009.743589,4063.589743,4296.923076,4022.564102,4381.538461,3863.589744,3862.564103
195,4060.512820,4331.282051,4313.846153,4091.282051,4382.564102,3571.794872,4380.512820,4009.230769,4063.589743,4300.512820,4015.897435,4383.589743,3864.102565,3865.641026
196,4052.820512,4332.820512,4313.333333,4093.333333,4381.025641,3573.333334,4377.435897,4004.615384,4063.589743,4300.000000,4007.692307,4380.512820,3867.692308,3862.564103
197,4048.205128,4337.435897,4311.282051,4075.897435,4384.102564,3574.358975,4377.948717,4003.589743,4062.051282,4295.384615,4017.948717,4381.025641,3868.205129,3862.051283
198,4047.692307,4335.384615,4314.358974,4072.307692,4385.128205,3573.333334,4373.333333,4005.641025,4058.461538,4295.897435,4025.641025,4383.076923,3864.102565,3867.179488
199,4045.641025,4338.974358,4323.076923,4094.358974,4383.589743,3577.948718,4373.846153,4007.692307,4055.897435,4302.051282,4017.948717,4387.692307,3866.666667,3872.307693
200,4038.461538,4347.179487,4324.102564,4099.487179,4383.076923,3586.153847,4381.538461,4008.205128,4061.538461,4296.410256,4014.358974,4389.743589,3872.820513,3870.769231
201,4031.794871,4340.000000,4318.461538,4086.666666,4387.179487,3588.205129,4382.051282,4006.153846,4062.564102,4289.230769,4018.974358,4385.128205,3866.153847,3866.153847
202,4020.512820,4330.256410,4318.974358,4086.153846,4387.179487,3587.179488,4377.948717,4003.076923,4052.307692,4296.410256,4021.538461,4380.512820,3851.282052,3866.153847
203,4000.512820,4335.897435,4319.487179,4090.256410,4382.051282,3585.641026,4377.435897,3999.487180,4048.717948,4296.923076,4011.282051,4381.025641,3853.333334,3863.589744
204,3982.051283,4342.051282,4318.461538,4089.230769,4381.025641,3586.666667,4375.897435,4000.512820,4056.410256,4287.179487,4002.051282,4380.512820,3863.589744,3860.512821
205,3969.230770,4332.820512,4319.487179,4088.205128,4382.051282,3587.692308,4374.871794,4006.153846,4061.025641,4289.743589,4013.846153,4382.051282,3863.076924,3864.102565
206,3953.846154,4330.256410,4319.487179,4085.641025,4379.487179,3587.692308,4377.435897,4012.820512,4064.102564,4303.076923,4028.717948,4386.153846,3867.179488,3868.717949
207,3936.410257,4337.948717,4321.025641,4085.128205,4377.948717,3585.641026,4375.384615,4013.333333,4068.205128,4304.102564,4027.179487,4390.769230,3875.384616,3866.666667
208,3929.743590,4336.923076,4325.128205,4087.692307,4383.076923,3586.153847,4375.384615,4011.282051,4069.743589,4295.897435,4019.487179,4394.871794,3875.384616,3867.692308
209,3925.128206,4331.282051,4325.641025,4087.179487,4383.076923,3589.230770,4376.923076,4012.820512,4071.282051,4293.846153,4020.512820,4390.256410,3867.179488,3867.179488
210,3910.256411,4335.384615,4322.051282,4088.717948,4377.948717,3589.230770,4374.871794,4012.820512,4071.794871,4297.435897,4027.179487,4386.153846,3867.692308,3864.102565
211,3894.871795,4344.102564,4324.615384,4096.923076,4378.461538,3588.717949,4376.923076,4011.794871,4068.717948,4304.615384,4034.871794,4391.282051,3877.435898,3864.615385
212,3883.589744,4341.538461,4327.179487,4095.897435,4381.538461,3588.717949,4376.923076,4011.282051,4066.153846,4304.102564,4032.307692,4394.358974,3874.871795,3865.128206
213,3873.846154,4331.794871,4323.076923,4085.641025,4382.051282,3589.743590,4369.743589,4010.256410,4068.205128,4299.487179,4025.641025,4387.179487,3864.615385,3864.615385
214,3862.564103,4332.307692,4316.410256,4082.564102,4382.051282,3589.230770,4365.641025,4003.076923,4066.153846,4296.410256,4022.564102,4378.974358,3869.230770,3862.051283
215,3844.102565,4340.512820,4314.358974,4087.692307,4380.512820,3588.205129,4368.717948,3994.871795,4055.897435,4287.179487,4009.230769,4377.948717,3871.794872,3854.358975
216,3822.564103,4334.358974,4315.897435,4088.205128,4377.948717,3590.769231,4372.820512,3995.897436,4047.179487,4277.948717,4000.000000,4377.948717,3857.948718,3849.230770
217,3808.717949,4318.461538,4314.871794,4082.051282,4372.307692,3590.769231,4375.384615,4002.051282,4051.794871,4284.102564,4009.230769,4375.384615,3851.282052,3846.666667
218,3804.102565,4325.641025,4317.948717,4080.000000,4374.358974,3588.717949,4374.871794,4007.179487,4063.589743,4294.358974,4016.410256,4376.410256,3863.076924,3847.692308
219,3800.000000,4340.512820,4321.025641,4085.128205,4382.564102,3593.846154,4371.794871,4005.128205,4061.025641,4294.871794,4014.871794,4382.564102,3868.717949,3854.358975
220,3797.435898,4335.384615,4317.435897,4093.846153,4382.051282,3596.923077,4367.179487,4001.025641,4051.794871,4288.205128,4016.923076,4383.076923,3868.717949,3855.384616
221,3797.435898,4332.820512,4315.384615,4089.743589,4375.384615,3592.820513,4364.102564,4005.128205,4054.871794,4283.589743,4017.948717,4379.487179,3865.641026,3849.230770
222,3804.615385,4338.974358,4317.435897,4078.461538,4373.846153,3589.743590,4366.666666,4011.794871,4065.128205,4286.666666,4013.846153,4381.538461,3860.512821,3846.666667
223,3813.333334,4335.384615,4317.435897,4082.564102,4373.846153,3588.717949,4367.179487,4009.743589,4063.589743,4294.871794,4017.948717,4385.128205,3868.717949,3850.256411
224,3817.435898,4330.256410,4321.538461,4095.897435,4375.384615,3588.205129,4365.641025,4004.102564,4061.025641,4298.461538,4017.948717,4384.615384,3883.076924,3854.871795
225,3825.128206,4345.128205,4327.692307,4098.974358,4382.051282,3598.974359,4369.230769,4006.153846,4068.205128,4297.948717,4018.974358,4388.717948,3886.153847,3861.025642
226,3833.846154,4357.948717,4326.666666,4090.256410,4382.564102,3606.153847,4372.820512,4007.692307,4067.179487,4298.974358,4035.897435,4397.435897,3879.487180,3866.153847
227,3828.717949,4348.717948,4322.564102,4086.153846,4378.461538,3601.538462,4369.230769,4000.512820,4056.410256,4298.974358,4035.897435,4394.358974,3877.435898,3863.076924
228,3824.102565,4335.384615,4323.076923,4091.282051,4382.564102,3601.538462,4368.717948,3996.410257,4055.897435,4295.384615,4011.282051,4385.641025,3880.512821,3855.897436
229,3828.717949,4337.948717,4325.128205,4094.871794,4383.589743,3604.102565,4371.282051,4000.512820,4061.025641,4292.307692,4007.179487,4385.641025,3878.974359,3853.846154
230,3829.743590,4349.230769,4325.128205,4092.307692,4380.000000,3601.025642,4367.692307,4004.615384,4059.487179,4291.282051,4026.666666,4386.153846,3876.923077,3852.307693
231,3830.256411,4348.717948,4324.102564,4092.307692,4380.512820,3600.512821,4367.692307,4005.641025,4059.487179,4295.384615,4031.282051,4383.076923,3875.384616,3849.230770
232,3834.358975,4339.487179,4325.128205,4095.384615,4382.564102,3603.076924,4371.282051,4009.743589,4063.589743,4298.974358,4015.897435,4384.102564,3872.820513,3849.230770
233,3836.410257,4339.487179,4325.641025,4094.871794,4382.051282,3603.076924,4374.358974,4014.358974,4065.128205,4297.435897,4007.179487,4386.153846,3879.487180,3851.282052
234,3841.025642,4346.666666,4322.564102,4093.846153,4382.051282,3603.589744,4377.948717,4014.358974,4065.641025,4296.923076,4021.538461,4384.615384,3886.153847,3855.897436
235,3845.641026,4351.794871,4325.128205,4093.846153,4383.076923,3604.615385,4380.000000,4016.923076,4065.128205,4302.051282,4034.871794,4389.230769,3877.948718,3859.487180
236,3838.461539,4346.153846,4325.128205,4093.846153,4378.461538,3597.948718,4376.410256,4017.435897,4062.051282,4301.538461,4021.538461,4388.205128,3870.256411,3853.333334
237,3831.282052,4330.769230,4317.435897,4094.871794,4371.794871,3589.230770,4371.282051,4010.769230,4060.000000,4290.256410,4005.641025,4380.512820,3873.846154,3845.128206
238,3833.846154,4329.743589,4314.358974,4092.307692,4368.717948,3589.743590,4371.282051,4008.205128,4062.051282,4283.076923,4010.256410,4381.025641,3873.846154,3846.153847
239,3833.333334,4340.512820,4311.794871,4078.974358,4366.153846,3590.769231,4368.205128,4006.666666,4054.871794,4281.025641,4013.333333,4378.974358,3861.025642,3838.974359
240,3826.153847,4335.384615,4305.128205,4071.794871,4363.589743,3587.692308,4361.538461,3999.487180,4045.128205,4278.461538,3999.487180,4367.179487,3850.769231,3825.641026
241,3833.846154,4320.000000,4307.692307,4084.102564,4368.717948,3591.794872,4365.128205,3998.461539,4050.769230,4278.974358,3991.282052,4366.666666,3863.076924,3832.307693
242,3854.358975,4331.282051,4322.051282,4097.948717,4380.000000,3604.102565,4378.974358,4007.692307,4061.538461,4288.205128,4003.589743,4383.076923,3881.025642,3848.717949
243,3857.435898,4348.205128,4325.128205,4090.769230,4381.025641,3608.717949,4384.102564,4009.230769,4060.512820,4296.923076,4021.538461,4391.282051,3875.384616,3850.256411
244,3848.205129,4334.358974,4314.871794,4075.897435,4370.769230,3602.564103,4375.897435,4003.076923,4054.358974,4293.846153,4024.102564,4385.641025,3862.051283,3841.538462
245,3855.897436,4323.589743,4318.974358,4076.923076,4366.666666,3601.025642,4375.384615,4008.717948,4057.948717,4288.717948,4020.000000,4386.666666,3871.282052,3843.589744
246,3869.743590,4338.974358,4331.282051,4089.743589,4378.974358,3606.666667,4380.000000,4017.948717,4064.615384,4292.307692,4023.589743,4395.384615,3886.666667,3851.794872
247,3867.179488,4341.025641,4324.615384,4093.333333,4384.102564,3606.153847,4378.461538,4015.384615,4065.641025,4298.974358,4013.333333,4395.897435,3885.641026,3849.743590
248,3866.153847,4328.717948,4317.435897,4086.153846,4376.410256,3602.051283,4372.307692,4009.230769,4061.538461,4297.948717,4007.692307,4389.743589,3875.897436,3844.102565
249,3876.923077,4337.435897,4329.230769,4088.717948,4377.948717,3603.076924,4370.256410,4007.692307,4060.000000,4296.923076,4022.564102,4389.743589,3875.897436,3848.717949
250,3880.000000,4344.615384,4328.205128,4089.743589,4384.102564,3603.076924,4369.743589,4005.128205,4059.487179,4298.974358,4018.461538,4389.743589,3884.102565,3847.692308
251,3874.358975,4327.179487,4312.307692,4078.461538,4376.410256,3598.974359,4363.076923,4002.564102,4051.794871,4290.256410,3996.923077,4379.487179,3876.410257,3833.846154
252,3880.000000,4325.128205,4314.871794,4076.410256,4373.333333,3601.538462,4363.076923,4002.051282,4048.717948,4278.461538,4004.615384,4376.923076,3862.564103,3832.307693
253,3894.358975,4341.538461,4326.153846,4088.205128,4379.487179,3603.076924,4372.820512,4002.051282,4053.333333,4283.076923,4021.538461,4389.230769,3870.256411,3844.102565
254,3908.205129,4344.615384,4329.743589,4094.358974,4381.025641,3604.102565,4381.538461,4009.230769,4058.974358,4301.025641,4020.000000,4399.487179,3890.769231,3851.794872
255,3919.487180,4342.564102,4335.897435,4095.384615,4383.589743,3612.820513,4387.692307,4023.076923,4065.641025,4310.256410,4029.230769,4404.102564,3900.512821,3857.435898
256,3927.179488,4349.230769,4340.000000,4092.820512,4388.717948,3616.410257,4394.871794,4029.743589,4073.333333,4305.128205,4033.846153,4407.692307,3894.358975,3858.461539
257,3926.666667,4346.666666,4334.871794,4087.179487,4387.692307,3608.205129,4396.923076,4025.128205,4074.358974,4296.923076,4018.461538,4403.076923,3881.538462,3851.282052
258,3916.410257,4333.846153,4326.153846,4087.179487,4380.512820,3603.076924,4391.282051,4013.333333,4059.487179,4291.794871,4015.384615,4387.179487,3875.897436,3841.538462
259,3911.794872,4330.256410,4321.025641,4089.743589,4376.410256,3604.102565,4388.717948,4005.128205,4045.641025,4286.666666,4014.358974,4379.487179,3874.871795,3835.384616
