,AF3,F7,F3,FC5,T7,P7,O1,O2,P8,T8,FC6,F4,F8,AF4
0,4394.358974,4519.487179,4527.179487,4255.384615,4508.717948,4246.666666,4436.410256,4223.076923,4230.769230,4485.641025,4229.230769,4645.641025,3986.153847,4040.512820
1,4391.794871,4516.923076,4528.717948,4250.256410,4508.717948,4251.282051,4443.589743,4227.692307,4241.025641,4493.333333,4235.384615,4649.743589,3986.153847,4050.256410
2,4388.717948,4515.897435,4527.179487,4247.692307,4491.282051,4253.846153,4444.615384,4230.256410,4245.128205,4501.538461,4237.435897,4652.820512,3987.692308,4062.051282
3,4390.769230,4513.333333,4529.743589,4253.333333,4489.230769,4257.435897,4448.205128,4234.358974,4247.179487,4502.564102,4238.461538,4653.846153,3992.307693,4059.487179
4,4390.256410,4512.820512,4529.743589,4255.384615,4500.512820,4253.846153,4451.794871,4235.384615,4249.743589,4499.487179,4233.333333,4652.307692,3996.410257,4052.820512
5,4389.230769,4519.487179,4527.692307,4248.717948,4497.948717,4230.256410,4447.692307,4233.333333,4246.666666,4502.051282,4231.794871,4653.333333,3992.307693,4048.205128
6,4387.179487,4513.333333,4528.717948,4248.717948,4488.717948,4194.358974,4444.615384,4226.666666,4236.923076,4498.461538,4235.897435,4652.820512,3978.974359,4043.589743
7,4380.000000,4503.076923,4531.794871,4255.897435,4490.256410,4183.589743,4445.128205,4217.948717,4236.923076,4492.820512,4232.307692,4651.794871,3971.282052,4051.794871
8,4378.461538,4509.230769,4532.307692,4255.897435,4497.435897,4191.794871,4446.666666,4217.948717,4241.025641,4492.820512,4230.256410,4653.846153,3978.974359,4055.384615
9,4382.051282,4512.820512,4527.179487,4248.717948,4495.384615,4195.897435,4445.128205,4217.948717,4232.820512,4484.615384,4234.358974,4650.256410,3981.538462,4038.974358
10,4382.564102,4504.102564,4521.025641,4245.128205,4487.179487,4202.564102,4439.487179,4213.846153,4225.641025,4482.051282,4229.230769,4643.589743,3969.230770,4035.384615
11,4380.512820,4504.102564,4516.410256,4241.538461,4486.153846,4213.846153,4432.307692,4214.871794,4230.256410,4491.282051,4216.410256,4641.538461,3960.512821,4047.692307
12,4377.435897,4506.153846,4518.974358,4239.487179,4488.717948,4212.307692,4431.794871,4214.871794,4232.307692,4488.717948,4215.897435,4644.615384,3964.102565,4045.128205
13,4381.025641,4503.589743,4527.179487,4245.641025,4488.205128,4212.307692,4439.487179,4215.384615,4229.743589,4484.615384,4229.230769,4652.307692,3972.820513,4040.000000
14,4394.358974,4510.769230,4531.794871,4252.820512,4487.692307,4239.487179,4445.641025,4225.641025,4240.000000,4491.794871,4238.974358,4660.000000,3983.076924,4054.871794
15,4398.974358,4521.025641,4532.307692,4254.871794,4490.769230,4267.179487,4444.615384,4233.333333,4249.230769,4501.025641,4233.333333,4657.435897,3986.153847,4066.666666
16,4390.769230,4515.384615,4532.820512,4254.871794,4494.358974,4267.179487,4443.076923,4229.743589,4244.102564,4507.692307,4225.128205,4651.282051,3980.000000,4056.410256
17,4388.717948,4504.102564,4530.769230,4254.358974,4493.333333,4261.025641,4442.051282,4229.230769,4240.000000,4510.769230,4232.307692,4653.333333,3980.512821,4041.538461
18,4386.153846,4504.615384,4523.589743,4246.153846,4488.205128,4264.102564,4442.564102,4229.743589,4241.538461,4504.102564,4240.000000,4652.820512,3983.589744,4045.641025
19,4376.410256,4509.743589,4517.948717,4237.948717,4489.230769,4257.948717,4440.512820,4223.589743,4237.435897,4498.461538,4232.820512,4644.102564,3982.051283,4058.974358
20,4370.256410,4502.051282,4512.820512,4235.384615,4492.307692,4243.589743,4432.307692,4217.948717,4229.743589,4498.461538,4225.641025,4635.384615,3976.923077,4051.282051
21,4376.410256,4496.410256,4513.846153,4241.538461,4490.769230,4245.641025,4431.794871,4217.948717,4232.307692,4500.512820,4231.282051,4638.974358,3973.333334,4035.384615
22,4381.025641,4503.589743,4517.435897,4248.717948,4487.179487,4251.282051,4439.487179,4217.948717,4238.461538,4498.461538,4236.923076,4644.615384,3972.820513,4036.923076
23,4378.461538,4508.205128,4516.923076,4248.717948,4488.205128,4244.615384,4442.564102,4217.948717,4235.897435,4492.307692,4232.307692,4641.025641,3975.897436,4045.128205
24,4380.512820,4511.794871,4513.846153,4245.641025,4500.512820,4231.282051,4440.000000,4216.923076,4228.717948,4490.769230,4225.128205,4637.435897,3980.000000,4047.179487
25,4381.025641,4516.410256,4514.871794,4249.230769,4507.179487,4203.076923,4437.435897,4212.820512,4226.153846,4489.230769,4223.076923,4637.948717,3977.435898,4041.538461
26,4376.410256,4515.897435,4520.000000,4256.923076,4495.384615,4177.948717,4438.974358,4214.358974,4230.256410,4483.589743,4227.179487,4642.051282,3971.794872,4036.923076
27,4372.307692,4513.846153,4524.102564,4254.358974,4488.717948,4187.692307,4442.051282,4220.000000,4234.358974,4483.589743,4235.384615,4648.717948,3971.282052,4038.974358
28,4372.820512,4511.794871,4527.692307,4248.717948,4493.846153,4212.820512,4443.589743,4218.974358,4232.820512,4489.743589,4234.358974,4654.871794,3980.000000,4044.102564
29,4377.948717,4507.179487,4530.256410,4250.256410,4493.333333,4220.000000,4443.076923,4220.000000,4231.794871,4498.974358,4222.051282,4652.820512,3982.564103,4051.794871
30,4382.051282,4509.743589,4530.769230,4249.230769,4489.743589,4214.358974,4444.615384,4229.230769,4240.000000,4505.128205,4224.615384,4652.820512,3971.282052,4055.897435
31,4383.589743,4516.410256,4532.307692,4248.717948,4491.282051,4207.692307,4445.128205,4235.897435,4248.717948,4503.076923,4247.692307,4658.974358,3971.794872,4055.897435
32,4382.564102,4512.307692,4534.871794,4249.230769,4493.333333,4201.025641,4442.564102,4230.256410,4247.179487,4494.358974,4253.333333,4658.461538,3985.128206,4053.846153
33,4376.410256,4507.692307,4530.769230,4246.153846,4493.846153,4203.589743,4441.538461,4220.000000,4234.871794,4487.179487,4232.820512,4648.717948,3979.487180,4046.666666
34,4372.820512,4506.666666,4527.692307,4246.153846,4491.282051,4211.794871,4441.025641,4214.358974,4225.641025,4482.564102,4222.051282,4645.128205,3962.564103,4038.461538
35,4379.487179,4504.102564,4530.769230,4249.743589,4488.205128,4224.102564,4441.538461,4215.897435,4232.307692,4484.102564,4230.256410,4650.256410,3963.589744,4037.435897
36,4382.051282,4504.615384,4530.769230,4249.230769,4487.692307,4233.846153,4439.487179,4218.461538,4237.435897,4488.717948,4236.410256,4648.717948,3970.256411,4040.000000
37,4374.358974,4513.333333,4527.179487,4247.692307,4490.256410,4226.153846,4438.974358,4214.871794,4228.205128,4489.743589,4232.820512,4643.076923,3967.179488,4042.564102
38,4373.846153,4518.974358,4527.692307,4250.769230,4491.794871,4218.974358,4442.564102,4213.846153,4225.128205,4495.384615,4229.743589,4647.692307,3972.820513,4042.051282
39,4385.641025,4516.923076,4534.358974,4251.794871,4492.820512,4224.615384,4444.615384,4222.564102,4238.461538,4503.589743,4242.051282,4656.410256,3984.615385,4045.641025
40,4395.897435,4517.435897,4536.923076,4253.846153,4497.948717,4220.000000,4445.128205,4231.282051,4248.205128,4504.615384,4256.923076,4657.435897,3988.205129,4062.051282
41,4396.410256,4523.076923,4534.358974,4260.512820,4496.923076,4217.948717,4448.717948,4232.307692,4246.153846,4501.025641,4253.333333,4656.923076,3992.307693,4072.820512
42,4392.820512,4528.205128,4532.820512,4266.666666,4491.282051,4223.589743,4450.769230,4232.820512,4244.615384,4502.564102,4244.102564,4655.897435,3994.871795,4065.128205
43,4386.153846,4519.487179,4531.282051,4261.025641,4490.769230,4208.717948,4446.153846,4234.358974,4245.641025,4506.666666,4245.641025,4652.820512,3988.717949,4051.794871
44,4380.512820,4507.692307,4528.717948,4251.282051,4490.769230,4193.333333,4444.102564,4227.692307,4241.025641,4501.538461,4253.846153,4652.307692,3986.666667,4043.589743
45,4386.666666,4513.846153,4529.230769,4253.846153,4484.615384,4201.025641,4445.641025,4225.128205,4238.974358,4496.923076,4260.000000,4656.410256,3989.230770,4049.230769
46,4395.384615,4522.564102,4529.743589,4257.948717,4485.128205,4197.435897,4447.692307,4231.794871,4245.641025,4502.564102,4256.923076,4657.948717,3986.153847,4065.641025
47,4386.153846,4511.282051,4525.641025,4250.769230,4493.333333,4175.897435,4445.128205,4226.666666,4241.538461,4501.025641,4247.692307,4652.820512,3980.000000,4061.538461
48,4371.794871,4498.974358,4524.102564,4242.564102,4488.717948,4164.615384,4432.307692,4212.307692,4227.179487,4486.666666,4244.102564,4648.205128,3976.410257,4042.051282
49,4373.333333,4505.128205,4525.128205,4247.692307,4476.923076,4165.641025,4426.153846,4211.282051,4222.564102,4485.641025,4245.641025,4648.717948,3970.256411,4040.000000
50,4380.512820,4509.743589,4527.179487,4250.769230,4479.487179,4174.358974,4437.435897,4217.948717,4226.666666,4491.282051,4249.230769,4651.282051,3968.717949,4049.743589
51,4385.128205,4507.179487,4531.794871,4246.153846,4488.205128,4178.974358,4445.641025,4218.461538,4229.743589,4490.256410,4255.384615,4655.897435,3973.846154,4054.358974
52,4389.230769,4511.794871,4533.846153,4253.846153,4492.307692,4170.769230,4442.564102,4217.948717,4232.820512,4491.794871,4262.051282,4661.025641,3980.512821,4055.384615
53,4384.615384,4521.025641,4531.794871,4262.564102,4498.974358,4163.589743,4444.615384,4224.615384,4232.307692,4491.794871,4262.051282,4659.487179,3989.743590,4057.435897
54,4378.461538,4522.564102,4529.230769,4254.358974,4507.179487,4170.256410,4445.641025,4228.717948,4230.256410,4491.282051,4256.410256,4653.333333,3991.794872,4059.487179
55,4384.615384,4522.051282,4531.282051,4251.794871,4506.153846,4180.000000,4442.051282,4229.230769,4236.410256,4501.538461,4253.333333,4651.794871,3982.564103,4061.025641
56,4390.256410,4521.538461,4531.282051,4261.538461,4504.102564,4174.358974,4445.641025,4232.820512,4243.589743,4508.205128,4251.794871,4652.820512,3976.410257,4050.769230
57,4380.512820,4513.333333,4520.512820,4256.923076,4500.000000,4166.153846,4448.717948,4231.794871,4240.512820,4496.923076,4249.230769,4645.641025,3975.897436,4038.461538
58,4368.205128,4502.564102,4508.205128,4243.076923,4490.769230,4169.743589,4443.589743,4223.589743,4230.769230,4485.641025,4254.871794,4634.871794,3975.897436,4045.128205
59,4369.743589,4503.589743,4511.282051,4242.564102,4488.205128,4166.153846,4444.615384,4227.179487,4233.846153,4490.769230,4262.564102,4637.948717,3981.538462,4056.923076
60,4381.538461,4515.897435,4518.974358,4251.282051,4496.410256,4155.384615,4456.923076,4237.435897,4247.179487,4498.461538,4263.076923,4648.205128,3983.589744,4056.923076
61,4384.615384,4522.051282,4517.435897,4256.410256,4499.487179,4170.769230,4461.538461,4235.384615,4246.153846,4496.410256,4256.923076,4644.102564,3972.307693,4046.153846
62,4379.487179,4519.487179,4515.384615,4255.384615,4497.948717,4196.410256,4457.948717,4230.256410,4234.358974,4490.769230,4255.897435,4638.974358,3965.128206,4040.512820
63,4379.487179,4521.025641,4520.000000,4252.820512,4502.564102,4189.743589,4460.000000,4232.307692,4235.897435,4492.307692,4262.051282,4645.128205,3977.948718,4051.794871
64,4377.948717,4523.589743,4517.435897,4250.256410,4504.102564,4166.153846,4458.461538,4231.794871,4240.000000,4490.769230,4257.435897,4643.589743,3987.692308,4056.923076
65,4367.179487,4513.333333,4508.205128,4246.153846,4493.846153,4157.948717,4446.666666,4221.538461,4230.769230,4481.538461,4237.948717,4626.666666,3968.717949,4036.410256
66,4362.564102,4502.051282,4507.179487,4247.692307,4487.692307,4164.615384,4439.487179,4212.307692,4224.102564,4480.512820,4235.384615,4620.512820,3949.230770,4023.076923
67,4369.743589,4508.205128,4515.384615,4252.307692,4490.256410,4170.769230,4445.641025,4220.000000,4230.769230,4490.256410,4254.358974,4634.871794,3962.564103,4038.461538
68,4376.410256,4522.564102,4521.025641,4248.205128,4489.230769,4169.743589,4450.256410,4233.846153,4234.871794,4492.307692,4256.410256,4645.641025,3977.435898,4052.307692
69,4373.333333,4523.076923,4521.025641,4245.641025,4489.743589,4167.179487,4446.153846,4229.230769,4231.794871,4490.256410,4243.076923,4644.615384,3972.820513,4046.666666
70,4368.717948,4509.743589,4518.974358,4249.743589,4491.794871,4168.205128,4443.589743,4221.538461,4227.692307,4489.743589,4243.589743,4642.564102,3972.307693,4037.435897
71,4371.794871,4502.051282,4517.435897,4248.205128,4490.769230,4168.205128,4445.128205,4224.615384,4226.666666,4490.256410,4255.897435,4646.666666,3976.410257,4042.564102
72,4373.333333,4506.666666,4517.948717,4246.153846,4492.820512,4158.974358,4444.102564,4224.615384,4230.769230,4490.769230,4263.076923,4651.794871,3973.846154,4049.230769
73,4366.666666,4507.179487,4516.410256,4250.769230,4493.846153,4148.717948,4440.000000,4221.025641,4232.307692,4491.282051,4263.589743,4649.743589,3971.794872,4036.410256
74,4363.076923,4503.076923,4513.846153,4248.717948,4490.769230,4157.435897,4443.076923,4220.512820,4229.743589,4488.205128,4257.948717,4643.076923,3973.846154,4029.743589
75,4368.717948,4509.743589,4513.333333,4240.000000,4491.794871,4167.692307,4442.564102,4223.076923,4231.282051,4491.794871,4255.897435,4645.641025,3981.538462,4047.692307
76,4375.897435,4519.487179,4517.948717,4242.564102,4495.384615,4161.025641,4434.358974,4226.153846,4237.435897,4501.025641,4268.717948,4652.820512,3989.230770,4061.025641
77,4381.025641,4520.000000,4525.641025,4252.307692,4494.358974,4149.743589,4436.410256,4231.282051,4238.461538,4501.538461,4278.461538,4654.358974,3984.102565,4058.974358
78,4382.564102,4522.051282,4525.641025,4255.384615,4492.820512,4145.128205,4445.128205,4233.333333,4237.435897,4497.435897,4272.820512,4654.358974,3981.025642,4055.384615
79,4372.820512,4518.974358,4518.974358,4245.128205,4495.384615,4132.820512,4438.974358,4222.051282,4233.846153,4488.717948,4261.538461,4647.179487,3983.589744,4047.179487
80,4359.487179,4507.692307,4511.794871,4233.333333,4493.846153,4111.282051,4428.717948,4208.205128,4222.051282,4479.487179,4252.307692,4634.871794,3978.974359,4036.410256
81,4367.179487,4511.282051,4513.333333,4241.025641,4490.769230,4106.153846,4435.897435,4208.205128,4217.435897,4482.051282,4248.717948,4636.923076,3977.948718,4038.974358
82,4383.589743,4520.512820,4523.076923,4257.435897,4490.256410,4116.410256,4445.641025,4218.974358,4227.692307,4484.615384,4261.538461,4648.205128,3980.000000,4053.846153
83,4380.000000,4516.923076,4529.230769,4256.410256,4495.897435,4126.666666,4444.102564,4221.538461,4236.923076,4490.769230,4278.974358,4650.769230,3980.000000,4057.948717
84,4370.769230,4517.948717,4529.743589,4246.666666,4501.025641,4134.358974,4442.051282,4217.435897,4233.333333,4500.512820,4277.435897,4648.717948,3983.589744,4050.256410
85,4374.358974,4528.205128,4527.179487,4246.153846,4496.410256,4142.051282,4443.076923,4214.358974,4225.128205,4496.923076,4264.102564,4646.666666,3984.102565,4045.641025
86,4376.410256,4526.153846,4524.615384,4249.230769,4496.923076,4140.512820,4443.076923,4214.871794,4223.589743,4483.589743,4257.435897,4645.128205,3973.846154,4047.179487
87,4372.307692,4514.358974,4523.589743,4248.717948,4499.487179,4135.384615,4445.128205,4216.410256,4224.615384,4478.974358,4262.051282,4645.641025,3966.666667,4044.615384
88,4371.794871,4506.153846,4526.153846,4251.794871,4497.435897,4144.615384,4445.128205,4218.974358,4225.128205,4483.076923,4267.692307,4645.641025,3968.717949,4037.948717
89,4374.358974,4509.230769,4527.692307,4257.435897,4496.923076,4155.384615,4443.076923,4225.641025,4228.205128,4488.205128,4262.564102,4647.179487,3973.333334,4040.512820
90,4376.923076,4524.102564,4529.230769,4256.923076,4496.923076,4153.846153,4447.692307,4228.717948,4232.820512,4493.333333,4260.000000,4651.282051,3978.974359,4049.743589
91,4374.871794,4527.692307,4529.743589,4249.230769,4491.794871,4142.564102,4448.717948,4221.025641,4228.205128,4490.256410,4262.051282,4650.256410,3975.897436,4049.230769
92,4370.769230,4512.307692,4524.615384,4246.666666,4486.153846,4129.743589,4442.051282,4214.871794,4216.410256,4481.538461,4255.897435,4645.641025,3964.615385,4037.948717
93,4372.307692,4507.179487,4526.666666,4250.769230,4492.307692,4131.794871,4442.051282,4215.384615,4216.410256,4480.512820,4251.282051,4649.743589,3966.666667,4038.974358
94,4375.897435,4514.358974,4531.282051,4250.256410,4500.000000,4147.179487,4444.102564,4215.384615,4223.589743,4483.589743,4256.923076,4652.820512,3975.897436,4049.743589
95,4371.794871,4515.384615,4523.076923,4246.666666,4497.435897,4157.435897,4436.923076,4213.333333,4222.051282,4484.615384,4263.589743,4645.641025,3977.948718,4051.794871
96,4368.205128,4515.384615,4517.435897,4246.666666,4491.794871,4162.051282,4433.333333,4214.871794,4220.512820,4482.564102,4263.589743,4642.564102,3976.923077,4043.589743
97,4375.897435,4523.076923,4524.615384,4255.384615,4494.871794,4176.410256,4440.512820,4218.461538,4226.666666,4488.205128,4255.384615,4647.692307,3977.435898,4039.487179
98,4383.076923,4526.666666,4528.717948,4264.615384,4501.538461,4193.846153,4444.615384,4217.948717,4226.666666,4495.384615,4251.794871,4651.282051,3979.487180,4047.692307
99,4378.461538,4523.589743,4527.179487,4263.076923,4500.512820,4198.974358,4444.102564,4218.461538,4222.564102,4492.307692,4263.076923,4651.282051,3982.051283,4056.410256
100,4372.820512,4524.615384,4525.641025,4254.358974,4503.589743,4198.461538,4444.102564,4227.692307,4228.205128,4489.743589,4271.282051,4651.282051,3983.589744,4053.333333
101,4373.846153,4525.128205,4525.128205,4251.282051,4507.179487,4184.615384,4444.102564,4233.333333,4236.923076,4494.358974,4266.666666,4651.282051,3985.128206,4044.102564
102,4374.358974,4517.435897,4524.615384,4249.230769,4501.025641,4165.641025,4443.589743,4227.179487,4233.333333,4493.846153,4260.000000,4651.282051,3984.102565,4044.615384
103,4372.307692,4512.820512,4524.615384,4244.102564,4493.846153,4167.179487,4440.000000,4218.461538,4223.076923,4487.692307,4254.871794,4646.153846,3980.512821,4050.256410
104,4373.846153,4516.923076,4522.564102,4252.307692,4490.769230,4170.256410,4433.333333,4215.897435,4218.974358,4482.051282,4255.384615,4643.076923,3979.487180,4052.820512
105,4374.358974,4524.102564,4525.128205,4260.512820,4492.820512,4150.769230,4437.948717,4218.461538,4221.025641,4481.025641,4263.589743,4651.794871,3977.435898,4051.282051
106,4372.307692,4525.128205,4530.769230,4253.333333,4494.871794,4140.512820,4443.076923,4220.512820,4224.615384,4485.128205,4267.179487,4661.025641,3971.794872,4046.153846
107,4377.435897,4524.102564,4531.794871,4250.256410,4493.333333,4150.256410,4439.487179,4218.974358,4224.102564,4487.692307,4255.897435,4656.923076,3973.333334,4046.153846
108,4381.538461,4523.076923,4527.692307,4263.076923,4493.333333,4156.410256,4438.974358,4217.948717,4220.000000,4482.564102,4238.974358,4646.666666,3983.076924,4050.769230
109,4376.410256,4520.512820,4525.641025,4266.666666,4492.820512,4166.666666,4438.461538,4214.871794,4214.358974,4475.384615,4237.435897,4643.589743,3984.615385,4046.153846
110,4370.769230,4521.025641,4527.692307,4256.923076,4492.307692,4187.179487,4431.794871,4211.794871,4212.820512,4471.794871,4246.666666,4643.076923,3970.769231,4034.358974
111,4372.307692,4522.564102,4529.230769,4256.410256,4491.794871,4192.820512,4429.743589,4214.358974,4212.820512,4474.358974,4246.666666,4642.051282,3961.538462,4034.871794
112,4378.461538,4524.102564,4529.743589,4263.589743,4492.307692,4188.205128,4437.948717,4217.948717,4213.846153,4483.076923,4242.051282,4647.692307,3976.410257,4046.666666
113,4385.641025,4523.589743,4532.820512,4266.153846,4493.846153,4181.538461,4442.051282,4216.923076,4217.435897,4489.743589,4246.153846,4652.820512,3992.307693,4053.846153
114,4390.769230,4521.538461,4533.333333,4264.615384,4493.846153,4164.615384,4440.512820,4216.923076,4220.512820,4492.820512,4247.692307,4649.743589,3987.692308,4056.410256
115,4389.230769,4521.538461,4534.871794,4263.076923,4491.282051,4146.666666,4446.153846,4218.974358,4224.102564,4499.487179,4244.615384,4654.871794,3987.179488,4057.435897
116,4384.615384,4525.128205,4540.000000,4263.589743,4493.846153,4139.487179,4453.333333,4220.512820,4226.666666,4503.076923,4246.666666,4666.153846,3996.923077,4060.000000
117,4388.205128,4526.153846,4544.102564,4268.717948,4499.487179,4144.615384,4451.282051,4223.589743,4226.666666,4498.974358,4254.871794,4665.641025,3993.333334,4059.487179
118,4395.897435,4522.564102,4543.076923,4272.307692,4497.435897,4152.820512,4451.282051,4224.102564,4228.205128,4496.410256,4256.923076,4662.564102,3987.179488,4055.897435
119,4394.871794,4521.025641,4537.948717,4270.769230,4493.333333,4154.871794,4457.948717,4221.025641,4226.666666,4498.461538,4251.794871,4663.076923,3990.256411,4055.384615
120,4384.102564,4521.025641,4530.256410,4263.589743,4492.307692,4147.179487,4453.333333,4217.435897,4218.974358,4493.846153,4244.615384,4655.384615,3986.153847,4055.897435
121,4377.435897,4520.512820,4526.153846,4253.333333,4494.358974,4144.102564,4448.205128,4214.871794,4217.948717,4485.641025,4238.461538,4645.641025,3975.384616,4051.794871
122,4385.128205,4521.025641,4531.794871,4256.410256,4501.538461,4155.897435,4457.435897,4222.564102,4234.358974,4498.974358,4247.692307,4653.333333,3980.000000,4053.846153
123,4397.948717,4523.076923,4538.974358,4272.307692,4508.205128,4171.282051,4463.076923,4235.384615,4250.769230,4521.025641,4263.076923,4669.230769,3994.871795,4059.487179
124,4398.461538,4523.589743,4536.410256,4273.846153,4508.717948,4177.948717,4453.846153,4234.871794,4242.564102,4515.897435,4259.487179,4666.666666,3996.923077,4056.410256
125,4387.179487,4521.025641,4527.692307,4262.051282,4503.589743,4171.794871,4450.769230,4226.153846,4227.692307,4497.435897,4243.589743,4652.307692,3985.641026,4052.820512
126,4381.538461,4522.564102,4527.692307,4259.487179,4500.512820,4164.615384,4457.948717,4228.205128,4231.282051,4501.538461,4246.153846,4652.820512,3980.000000,4061.025641
127,4385.128205,4530.769230,4534.871794,4270.769230,4503.076923,4164.615384,4457.948717,4233.846153,4236.923076,4512.307692,4261.025641,4661.538461,3983.589744,4064.102564
128,4389.230769,4531.794871,4535.897435,4278.974358,4507.179487,4163.589743,4449.743589,4231.794871,4232.820512,4504.102564,4260.512820,4661.538461,3986.153847,4052.307692
129,4389.743589,4527.692307,4534.871794,4273.333333,4505.128205,4158.974358,4443.589743,4227.692307,4230.769230,4494.358974,4257.435897,4660.512820,3989.230770,4051.282051
130,4391.794871,4532.820512,4543.076923,4269.230769,4502.564102,4161.538461,4444.615384,4227.692307,4234.358974,4501.538461,4261.538461,4665.128205,3987.692308,4068.205128
131,4396.923076,4542.051282,4550.256410,4279.487179,4505.641025,4181.025641,4452.307692,4231.794871,4239.487179,4509.743589,4260.000000,4668.205128,3979.487180,4071.794871
132,4396.923076,4538.461538,4548.205128,4284.102564,4508.205128,4201.538461,4458.974358,4236.923076,4243.589743,4506.153846,4255.897435,4669.230769,3980.000000,4060.512820
133,4394.358974,4524.615384,4545.641025,4274.358974,4506.153846,4199.487179,4456.923076,4236.923076,4238.974358,4504.615384,4256.410256,4669.230769,3999.487180,4068.717948
134,4395.384615,4524.615384,4548.205128,4269.230769,4504.615384,4182.564102,4456.410256,4234.358974,4238.461538,4512.820512,4260.000000,4669.743589,4014.358974,4083.076923
135,4397.435897,4531.794871,4551.282051,4274.871794,4503.076923,4188.205128,4457.435897,4232.820512,4245.641025,4516.923076,4263.076923,4671.282051,4009.230769,4072.820512
136,4396.410256,4529.230769,4550.256410,4277.948717,4500.512820,4206.153846,4452.307692,4231.794871,4243.076923,4521.538461,4264.615384,4669.743589,4002.564102,4061.025641
137,4390.256410,4527.179487,4547.692307,4274.871794,4499.487179,4193.333333,4446.153846,4231.794871,4236.923076,4526.666666,4261.538461,4666.153846,4004.102564,4069.230769
138,4385.128205,4528.205128,4548.205128,4273.846153,4501.538461,4177.435897,4446.666666,4228.205128,4236.923076,4514.358974,4261.025641,4667.179487,4005.128205,4078.461538
139,4392.820512,4525.641025,4550.769230,4277.948717,4505.641025,4191.282051,4448.205128,4226.666666,4236.410256,4504.102564,4265.128205,4670.256410,4007.179487,4075.384615
140,4397.435897,4528.717948,4550.256410,4277.435897,4508.205128,4204.102564,4447.179487,4227.179487,4231.794871,4511.794871,4263.589743,4667.179487,4001.025641,4065.641025
141,4388.205128,4537.948717,4547.179487,4272.820512,4503.589743,4199.487179,4448.205128,4223.076923,4231.794871,4512.820512,4254.358974,4659.487179,3989.743590,4059.487179
142,4386.153846,4540.000000,4549.743589,4274.871794,4499.487179,4201.025641,4457.435897,4223.589743,4239.487179,4508.205128,4252.307692,4664.615384,3998.974359,4068.717948
143,4396.410256,4535.897435,4553.846153,4282.051282,4506.153846,4200.000000,4465.641025,4233.846153,4246.666666,4516.410256,4269.230769,4677.948717,4020.000000,4086.666666
144,4395.897435,4531.282051,4549.230769,4282.051282,4511.794871,4189.230769,4459.487179,4234.871794,4242.051282,4515.897435,4277.435897,4675.897435,4015.384615,4085.641025
145,4385.641025,4531.282051,4542.051282,4273.846153,4505.128205,4193.846153,4453.846153,4229.743589,4236.923076,4502.051282,4264.102564,4666.666666,3998.461539,4065.641025
146,4388.205128,4537.948717,4544.615384,4274.358974,4501.025641,4202.051282,4457.948717,4232.307692,4238.974358,4504.102564,4257.948717,4668.717948,4003.076923,4062.564102
147,4390.256410,4538.461538,4547.692307,4282.564102,4506.153846,4191.794871,4455.384615,4234.358974,4238.461538,4513.333333,4266.153846,4671.282051,4011.282051,4076.923076
148,4378.461538,4532.307692,4542.564102,4281.538461,4505.128205,4184.102564,4445.128205,4229.743589,4240.512820,4512.307692,4268.205128,4667.692307,4002.051282,4082.564102
149,4375.384615,4528.717948,4538.461538,4270.256410,4495.384615,4186.666666,4441.538461,4224.615384,4241.538461,4503.076923,4266.666666,4666.666666,3993.333334,4072.820512
150,4380.000000,4523.076923,4536.923076,4265.641025,4496.410256,4185.128205,4445.128205,4219.487179,4233.846153,4492.307692,4262.564102,4665.128205,3991.282052,4056.410256
151,4376.410256,4521.025641,4535.897435,4270.256410,4503.589743,4182.564102,4444.102564,4216.923076,4228.717948,4491.282051,4252.307692,4661.538461,3991.794872,4053.846153
152,4381.025641,4532.820512,4541.025641,4278.461538,4504.615384,4176.923076,4446.153846,4220.000000,4236.410256,4507.179487,4252.307692,4665.641025,4000.512820,4072.307692
153,4387.692307,4538.974358,4543.589743,4282.051282,4508.717948,4167.179487,4451.282051,4225.128205,4243.589743,4518.461538,4263.076923,4669.230769,4006.153846,4079.487179
154,4377.948717,4528.717948,4535.897435,4273.333333,4509.230769,4167.179487,4448.205128,4221.538461,4241.025641,4504.615384,4260.512820,4664.102564,3993.846154,4062.564102
155,4372.820512,4524.615384,4530.256410,4261.025641,4493.846153,4175.384615,4441.538461,4213.333333,4230.256410,4490.769230,4246.153846,4660.512820,3982.051283,4056.410256
156,4382.564102,4534.871794,4533.846153,4263.589743,4487.692307,4185.641025,4444.102564,4214.871794,4227.179487,4500.512820,4244.615384,4665.128205,3992.820513,4071.282051
157,4385.641025,4541.538461,4539.487179,4277.435897,4500.512820,4211.794871,4451.282051,4222.051282,4240.000000,4512.820512,4254.358974,4667.179487,4007.179487,4079.487179
158,4384.615384,4540.000000,4542.564102,4282.051282,4507.692307,4234.871794,4450.256410,4221.538461,4247.179487,4507.179487,4255.897435,4662.564102,4004.102564,4072.820512
159,4382.564102,4535.897435,4538.974358,4278.461538,4506.153846,4222.564102,4445.641025,4216.923076,4238.974358,4496.410256,4248.205128,4657.948717,3989.743590,4063.076923
160,4377.435897,4533.333333,4536.923076,4275.897435,4505.128205,4204.615384,4444.615384,4217.435897,4232.307692,4495.897435,4244.102564,4656.923076,3984.102565,4058.461538
161,4373.333333,4532.307692,4535.897435,4270.256410,4505.128205,4207.179487,4444.615384,4218.461538,4232.307692,4503.076923,4245.128205,4656.410256,3987.692308,4056.410256
162,4370.769230,4526.153846,4532.820512,4264.102564,4508.205128,4205.128205,4443.076923,4214.358974,4232.307692,4507.179487,4243.589743,4651.282051,3987.692308,4052.820512
163,4373.846153,4528.205128,4537.435897,4266.153846,4503.076923,4201.538461,4442.564102,4216.923076,4238.461538,4504.102564,4249.230769,4654.871794,3992.820513,4054.871794
164,4381.538461,4537.435897,4541.538461,4270.769230,4492.820512,4214.871794,4451.282051,4228.205128,4245.128205,4508.717948,4263.589743,4665.641025,4001.025641,4062.564102
165,4383.076923,4530.256410,4536.410256,4267.692307,4493.846153,4224.615384,4456.410256,4233.846153,4244.102564,4510.769230,4265.641025,4666.666666,3998.974359,4070.256410
166,4380.512820,4517.435897,4534.871794,4263.589743,4500.512820,4211.794871,4449.743589,4231.282051,4242.051282,4505.128205,4258.461538,4661.538461,3996.410257,4074.871794
167,4379.487179,4527.692307,4540.512820,4265.128205,4498.974358,4200.512820,4442.051282,4231.282051,4240.000000,4506.666666,4260.000000,4662.051282,3999.487180,4067.692307
168,4379.487179,4537.948717,4542.051282,4270.769230,4498.461538,4204.615384,4445.128205,4232.307692,4238.461538,4507.179487,4263.589743,4663.076923,4001.538461,4053.846153
169,4381.025641,4529.230769,4539.487179,4275.897435,4504.615384,4211.794871,4447.179487,4231.794871,4241.025641,4505.641025,4264.615384,4664.102564,4001.025641,4060.512820
170,4376.923076,4522.051282,4536.410256,4274.358974,4507.179487,4211.794871,4443.589743,4232.820512,4244.102564,4507.179487,4266.153846,4666.153846,4004.102564,4077.948717
171,4370.769230,4525.641025,4532.820512,4266.153846,4504.102564,4212.307692,4442.564102,4231.282051,4243.589743,4505.641025,4264.615384,4658.974358,3999.487180,4073.846153
172,4377.435897,4535.384615,4533.846153,4260.512820,4502.564102,4227.179487,4450.256410,4231.282051,4247.692307,4509.230769,4265.128205,4653.846153,3992.820513,4060.512820
173,4386.666666,4541.025641,4537.435897,4268.717948,4505.128205,4235.384615,4460.512820,4243.076923,4256.923076,4523.076923,4263.076923,4662.051282,4002.564102,4058.974358
174,4382.564102,4533.846153,4540.000000,4279.487179,4507.692307,4223.589743,4459.487179,4250.769230,4261.538461,4526.666666,4259.487179,4666.153846,4012.820512,4064.615384
175,4377.948717,4529.743589,4543.589743,4276.410256,4507.692307,4217.435897,4456.410256,4249.230769,4262.051282,4521.538461,4271.282051,4664.102564,4011.282051,4072.820512
176,4381.538461,4535.897435,4545.128205,4267.179487,4507.692307,4215.897435,4460.000000,4248.205128,4261.538461,4521.538461,4282.051282,4664.615384,4009.230769,4077.948717
177,4384.615384,4533.333333,4540.512820,4266.153846,4505.128205,4197.948717,4454.358974,4242.564102,4260.000000,4510.256410,4269.743589,4662.564102,4010.769230,4073.846153
178,4383.589743,4528.717948,4538.974358,4273.333333,4505.128205,4172.820512,4444.615384,4234.358974,4250.256410,4496.410256,4257.435897,4658.974358,4003.076923,4066.666666
179,4375.897435,4531.282051,4537.948717,4270.256410,4503.589743,4164.102564,4444.615384,4228.205128,4235.384615,4494.871794,4254.358974,4656.923076,3989.743590,4059.487179
180,4366.666666,4529.743589,4533.333333,4263.589743,4497.948717,4167.179487,4447.179487,4222.051282,4229.230769,4495.897435,4243.076923,4654.358974,3985.128206,4054.358974
181,4369.230769,4525.128205,4535.897435,4265.128205,4500.000000,4176.923076,4443.076923,4219.487179,4234.871794,4497.435897,4247.179487,4656.923076,3989.743590,4055.384615
182,4380.512820,4526.666666,4544.615384,4269.230769,4507.179487,4181.538461,4443.076923,4222.051282,4239.487179,4498.974358,4264.102564,4664.615384,3994.358975,4062.051282
183,4382.564102,4528.205128,4541.025641,4270.769230,4505.641025,4175.897435,4444.615384,4217.435897,4232.307692,4497.435897,4257.435897,4665.128205,3991.282052,4069.230769
184,4372.307692,4521.025641,4532.820512,4266.666666,4496.923076,4162.564102,4434.871794,4204.102564,4218.974358,4486.153846,4235.897435,4655.897435,3982.051283,4063.076923
185,4363.589743,4510.769230,4529.743589,4258.461538,4489.230769,4153.846153,4429.743589,4197.435897,4214.871794,4475.897435,4228.205128,4648.717948,3975.384616,4048.205128
186,4363.076923,4511.282051,4528.717948,4254.871794,4488.205128,4167.692307,4438.974358,4206.666666,4225.641025,4487.692307,4245.128205,4651.282051,3979.487180,4049.230769
187,4371.794871,4521.538461,4536.410256,4259.487179,4490.769230,4186.666666,4449.230769,4223.076923,4236.410256,4507.179487,4267.692307,4662.564102,3995.897436,4063.589743
188,4383.076923,4523.589743,4543.589743,4261.538461,4495.897435,4191.282051,4451.282051,4231.282051,4241.025641,4509.743589,4274.358974,4669.230769,4005.641025,4069.743589
189,4383.076923,4522.564102,4538.461538,4267.179487,4500.512820,4191.794871,4455.384615,4231.794871,4243.076923,4504.102564,4268.717948,4665.128205,4002.564102,4064.615384
190,4371.794871,4526.666666,4530.256410,4274.358974,4498.974358,4201.025641,4456.410256,4222.564102,4231.794871,4495.897435,4258.974358,4655.384615,3994.871795,4056.923076
191,4364.615384,4523.589743,4525.641025,4265.641025,4496.410256,4201.538461,4444.615384,4206.153846,4214.358974,4484.615384,4247.692307,4648.717948,3984.102565,4054.358974
192,4369.230769,4520.512820,4524.102564,4257.435897,4500.512820,4183.589743,4436.410256,4205.128205,4214.871794,4487.692307,4248.205128,4648.717948,3976.410257,4056.410256
193,4374.358974,4523.589743,4525.128205,4264.102564,4498.461538,4171.794871,4438.974358,4214.871794,4222.564102,4495.384615,4259.487179,4648.717948,3981.025642,4052.820512
194,4372.307692,4523.076923,4527.692307,4267.179487,4490.769230,4174.871794,4442.051282,4215.897435,4224.615384,4490.256410,4253.846153,4647.692307,3987.692308,4048.205128
195,4370.769230,4522.564102,4528.205128,4259.487179,4490.256410,4176.410256,4441.538461,4214.871794,4229.743589,4488.205128,4248.717948,4647.179487,3987.692308,4049.743589
196,4374.358974,4523.589743,4529.743589,4258.974358,4494.871794,4171.794871,4442.564102,4218.461538,4232.820512,4492.820512,4261.025641,4649.743589,3983.076924,4055.897435
197,4379.487179,4523.589743,4534.358974,4264.102564,4495.897435,4166.153846,4444.102564,4216.410256,4225.641025,4489.743589,4265.641025,4658.974358,3982.564103,4065.128205
198,4384.102564,4522.564102,4544.102564,4263.589743,4494.358974,4158.974358,4441.538461,4213.333333,4220.000000,4485.641025,4260.512820,4665.128205,3988.205129,4065.128205
199,4381.025641,4522.564102,4546.666666,4266.666666,4488.205128,4158.974358,4436.923076,4212.820512,4217.435897,4484.102564,4262.051282,4660.000000,3986.666667,4057.435897
200,4373.333333,4523.589743,4536.410256,4279.487179,4489.743589,4168.205128,4436.410256,4213.846153,4217.435897,4482.051282,4265.641025,4654.871794,3978.974359,4058.461538
201,4375.384615,4525.641025,4532.820512,4278.974358,4501.538461,4175.897435,4440.000000,4215.384615,4226.153846,4486.666666,4266.666666,4656.923076,3979.487180,4061.025641
202,4381.025641,4525.641025,4540.512820,4262.051282,4504.102564,4179.487179,4442.051282,4215.897435,4236.410256,4493.846153,4274.871794,4659.487179,3986.153847,4057.435897
203,4382.051282,4520.000000,4542.051282,4255.897435,4495.384615,4187.179487,4443.589743,4223.076923,4235.384615,4495.384615,4283.076923,4664.615384,3990.256411,4060.000000
204,4383.589743,4520.512820,4542.051282,4267.692307,4491.794871,4194.358974,4444.102564,4231.794871,4236.410256,4499.487179,4280.512820,4673.333333,3998.974359,4070.769230
205,4383.076923,4530.769230,4546.666666,4276.410256,4490.769230,4204.615384,4444.102564,4233.333333,4246.666666,4507.692307,4276.923076,4673.333333,4002.564102,4073.333333
206,4385.128205,4540.512820,4548.205128,4277.948717,4495.384615,4212.820512,4448.205128,4233.333333,4253.333333,4507.179487,4286.666666,4671.794871,3996.410257,4071.282051
207,4393.846153,4537.435897,4547.179487,4276.923076,4501.538461,4206.666666,4452.307692,4235.384615,4251.282051,4507.692307,4296.410256,4677.948717,3997.948718,4071.794871
208,4394.358974,4521.538461,4548.205128,4268.717948,4498.461538,4200.512820,4449.230769,4234.871794,4245.128205,4512.820512,4287.692307,4677.435897,3999.487180,4065.128205
209,4380.000000,4506.153846,4540.512820,4259.487179,4497.435897,4198.461538,4445.128205,4225.641025,4236.923076,4503.589743,4272.820512,4667.692307,3989.743590,4053.846153
210,4370.256410,4504.615384,4530.256410,4257.948717,4502.051282,4193.333333,4443.589743,4217.435897,4233.333333,4489.743589,4269.230769,4660.512820,3982.051283,4059.487179
211,4374.871794,4520.512820,4532.820512,4263.076923,4497.948717,4187.692307,4443.076923,4216.923076,4231.794871,4488.717948,4271.282051,4660.000000,3986.153847,4070.769230
212,4383.076923,4537.435897,4535.384615,4266.153846,4489.743589,4185.641025,4442.051282,4218.461538,4228.717948,4490.769230,4266.666666,4658.461538,3991.794872,4059.487179
213,4387.692307,4541.538461,4530.256410,4268.717948,4496.410256,4183.589743,4439.487179,4216.923076,4230.769230,4490.256410,4267.692307,4655.384615,3992.307693,4050.256410
214,4389.743589,4541.025641,4535.897435,4273.846153,4506.153846,4181.538461,4440.000000,4217.435897,4235.384615,4494.871794,4284.102564,4657.435897,3992.820513,4067.179487
215,4388.717948,4538.974358,4543.076923,4273.333333,4501.025641,4185.128205,4443.589743,4217.948717,4234.358974,4496.923076,4296.410256,4664.102564,3989.743590,4078.461538
216,4381.538461,4530.769230,4535.384615,4265.128205,4493.846153,4185.641025,4443.589743,4220.000000,4232.820512,4490.769230,4285.641025,4663.589743,3984.102565,4066.153846
217,4374.871794,4523.589743,4532.307692,4260.000000,4497.948717,4188.717948,4445.641025,4226.153846,4231.794871,4488.717948,4266.153846,4658.461538,3985.128206,4056.410256
218,4380.000000,4522.051282,4541.025641,4266.666666,4508.205128,4195.897435,4449.743589,4223.076923,4229.743589,4489.230769,4263.589743,4657.435897,3988.205129,4058.461538
219,4390.769230,4526.153846,4543.589743,4268.717948,4506.153846,4197.948717,4448.717948,4220.000000,4235.384615,4491.794871,4273.333333,4662.564102,3987.179488,4065.641025
220,4395.897435,4534.358974,4543.589743,4265.128205,4501.538461,4194.358974,4453.333333,4229.230769,4245.128205,4502.051282,4280.512820,4670.769230,3988.717949,4075.384615
221,4389.743589,4534.358974,4546.153846,4265.128205,4503.589743,4190.256410,4456.410256,4232.820512,4245.641025,4511.282051,4283.076923,4672.820512,3992.820513,4074.871794
222,4375.897435,4525.128205,4535.384615,4264.102564,4501.538461,4184.102564,4445.641025,4227.179487,4240.000000,4507.179487,4281.025641,4661.025641,3994.358975,4060.512820
223,4367.692307,4521.025641,4522.051282,4263.076923,4501.538461,4178.974358,4444.615384,4228.717948,4238.974358,4496.923076,4264.102564,4648.205128,3989.230770,4049.230769
224,4369.743589,4522.564102,4524.615384,4265.128205,4503.589743,4192.307692,4456.410256,4236.410256,4243.589743,4495.897435,4249.230769,4647.179487,3978.974359,4044.615384
225,4371.794871,4518.974358,4533.333333,4266.153846,4505.641025,4209.230769,4455.897435,4235.384615,4244.615384,4498.974358,4259.487179,4652.307692,3974.871795,4048.205128
226,4376.410256,4520.000000,4532.307692,4262.051282,4506.666666,4205.641025,4445.128205,4225.128205,4237.435897,4497.435897,4269.230769,4655.897435,3975.384616,4054.358974
227,4378.461538,4521.538461,4529.230769,4261.025641,4507.179487,4202.564102,4441.538461,4215.897435,4232.307692,4493.846153,4258.461538,4654.358974,3973.333334,4049.743589
228,4373.846153,4510.769230,4529.743589,4261.538461,4503.076923,4213.333333,4442.564102,4213.846153,4231.794871,4493.846153,4245.128205,4649.230769,3973.333334,4044.102564
229,4370.256410,4505.641025,4529.230769,4258.461538,4495.897435,4219.487179,4442.051282,4215.897435,4229.743589,4494.358974,4247.692307,4647.179487,3973.846154,4045.128205
230,4371.282051,4515.897435,4527.179487,4256.410256,4493.846153,4222.564102,4442.051282,4223.076923,4228.717948,4489.230769,4255.897435,4647.692307,3970.256411,4042.564102
231,4375.897435,4524.615384,4526.153846,4260.512820,4495.897435,4226.666666,4449.230769,4232.820512,4234.358974,4491.282051,4258.461538,4649.230769,3972.820513,4044.615384
232,4380.512820,4521.025641,4526.153846,4263.589743,4500.000000,4218.974358,4458.974358,4227.692307,4233.846153,4498.461538,4249.743589,4651.794871,3984.102565,4052.307692
233,4381.538461,4518.461538,4524.615384,4262.564102,4501.538461,4214.358974,4458.974358,4216.923076,4231.282051,4497.435897,4244.615384,4653.846153,3988.205129,4046.666666
234,4381.025641,4521.538461,4526.153846,4272.307692,4501.025641,4229.743589,4451.794871,4215.897435,4235.384615,4495.897435,4255.897435,4656.410256,3982.051283,4044.102564
235,4383.076923,4524.615384,4529.743589,4278.461538,4503.076923,4243.076923,4446.666666,4208.717948,4231.794871,4503.076923,4262.051282,4656.923076,3976.923077,4060.512820
236,4385.128205,4526.153846,4527.692307,4267.692307,4500.512820,4248.205128,4441.538461,4194.871794,4224.102564,4503.589743,4250.256410,4650.769230,3976.410257,4062.051282
237,4384.102564,4523.589743,4525.128205,4258.974358,4491.794871,4256.923076,4442.564102,4201.538461,4226.666666,4489.743589,4241.538461,4642.051282,3972.307693,4042.564102
238,4375.897435,4521.025641,4526.153846,4262.051282,4489.230769,4257.435897,4454.358974,4225.128205,4233.333333,4487.692307,4247.179487,4641.538461,3968.717949,4040.000000
239,4361.025641,4523.076923,4528.717948,4263.589743,4492.820512,4246.153846,4462.051282,4237.948717,4241.538461,4502.051282,4256.923076,4646.666666,3972.307693,4047.692307
240,4350.769230,4518.461538,4527.692307,4261.538461,4490.769230,4243.589743,4458.974358,4234.871794,4246.666666,4503.076923,4260.000000,4648.717948,3971.282052,4042.051282
241,4350.769230,4512.820512,4527.692307,4263.589743,4488.717948,4246.153846,4455.897435,4231.794871,4242.051282,4493.333333,4262.051282,4651.794871,3969.230770,4042.051282
242,4351.282051,4517.948717,4529.743589,4263.589743,4495.384615,4234.871794,4456.923076,4234.358974,4241.538461,4500.000000,4269.230769,4657.948717,3973.333334,4045.128205
243,4343.589743,4523.076923,4530.256410,4261.538461,4498.461538,4225.128205,4449.230769,4232.307692,4248.205128,4510.769230,4274.358974,4661.025641,3973.333334,4040.512820
244,4343.076923,4523.076923,4530.769230,4267.179487,4498.461538,4236.923076,4443.076923,4226.153846,4249.230769,4511.282051,4267.179487,4661.025641,3975.897436,4051.282051
245,4350.256410,4522.564102,4533.333333,4271.794871,4499.487179,4244.102564,4452.307692,4227.692307,4246.666666,4513.333333,4263.589743,4663.589743,3986.666667,4072.307692
246,4344.102564,4518.461538,4532.820512,4268.205128,4496.923076,4233.333333,4460.000000,4231.282051,4244.615384,4514.358974,4269.230769,4662.564102,3985.641026,4066.153846
247,4335.897435,4523.076923,4529.230769,4267.179487,4497.948717,4225.128205,4459.487179,4230.769230,4241.538461,4505.641025,4265.641025,4656.923076,3975.897436,4051.282051
248,4338.974358,4538.461538,4532.307692,4268.717948,4508.205128,4232.307692,4462.051282,4230.769230,4242.564102,4505.128205,4260.512820,4661.025641,3976.410257,4051.794871
249,4334.358974,4533.846153,4534.358974,4265.128205,4511.282051,4245.128205,4465.128205,4233.333333,4238.974358,4509.743589,4266.153846,4663.076923,3980.000000,4052.820512
250,4323.589743,4517.948717,4532.307692,4266.153846,4504.615384,4254.871794,4461.025641,4230.256410,4231.282051,4503.076923,4265.641025,4657.435897,3976.410257,4054.871794
251,4323.589743,4521.025641,4533.333333,4269.743589,4505.641025,4252.820512,4458.461538,4221.538461,4231.794871,4491.794871,4254.358974,4653.333333,3968.717949,4058.974358
252,4323.076923,4528.717948,4534.871794,4267.179487,4506.666666,4246.666666,4457.948717,4220.000000,4231.794871,4491.794871,4250.769230,4652.307692,3960.512821,4051.794871
253,4320.512820,4522.564102,4533.333333,4264.615384,4501.025641,4257.435897,4456.410256,4230.769230,4235.897435,4504.102564,4258.461538,4654.358974,3964.102565,4046.153846
254,4325.128205,4520.512820,4537.435897,4265.641025,4503.589743,4276.410256,4458.461538,4237.948717,4249.743589,4513.333333,4268.717948,4663.589743,3976.923077,4054.358974
255,4327.692307,4529.230769,4539.487179,4268.717948,4508.205128,4287.179487,4459.487179,4234.871794,4253.846153,4514.358974,4271.794871,4668.717948,3980.000000,4064.615384
256,4327.179487,4537.435897,4534.871794,4274.871794,4508.717948,4298.461538,4457.948717,4232.307692,4245.641025,4515.384615,4268.205128,4663.076923,3981.025642,4068.717948
257,4328.717948,4540.000000,4532.820512,4276.923076,4505.641025,4303.589743,4460.000000,4233.333333,4246.153846,4517.948717,4272.820512,4660.000000,3992.820513,4071.282051
258,4322.564102,4535.384615,4532.820512,4270.256410,4506.153846,4284.102564,4459.487179,4230.769230,4249.230769,4515.897435,4274.871794,4657.435897,3990.769231,4063.589743
259,4308.717948,4525.641025,4526.666666,4260.512820,4507.179487,4263.589743,4450.256410,4221.538461,4236.923076,4503.589743,4260.512820,4649.743589,3968.717949,4045.641025
