,AF3,F7,F3,FC5,T7,P7,O1,O2,P8,T8,FC6,F4,F8,AF4
0,4373.846153,4479.487179,4547.179487,4255.384615,4509.230769,4217.948717,4433.846153,4217.435897,4231.282051,4554.358974,4115.897435,4626.666666,3877.948718,3976.410257
1,4371.794871,4487.692307,4551.794871,4254.358974,4504.615384,4213.846153,4434.358974,4215.897435,4228.717948,4561.538461,4108.205128,4628.205128,3880.512821,3973.846154
2,4365.641025,4486.153846,4548.717948,4253.333333,4506.666666,4211.794871,4430.769230,4215.897435,4227.179487,4563.076923,4111.282051,4628.717948,3881.025642,3966.153847
3,4363.589743,4484.615384,4547.692307,4256.410256,4506.153846,4212.820512,4432.820512,4213.846153,4224.615384,4549.743589,4116.923076,4626.666666,3877.435898,3965.641026
4,4366.666666,4485.128205,4548.717948,4255.897435,4498.461538,4214.358974,4435.384615,4206.153846,4218.974358,4538.974358,4109.743589,4624.102564,3873.333334,3976.923077
5,4367.179487,4480.512820,4545.128205,4251.794871,4498.461538,4212.820512,4430.256410,4204.615384,4219.487179,4550.256410,4107.179487,4624.102564,3872.307693,3976.410257
6,4368.717948,4478.974358,4546.666666,4259.487179,4506.153846,4213.333333,4432.820512,4215.384615,4230.769230,4564.615384,4115.384615,4628.717948,3880.512821,3969.230770
7,4377.948717,4489.230769,4557.435897,4269.743589,4509.743589,4218.461538,4442.051282,4223.076923,4237.435897,4561.538461,4123.589743,4635.384615,3885.641026,3981.538462
8,4381.538461,4489.743589,4556.923076,4260.000000,4506.666666,4215.897435,4437.435897,4217.948717,4230.256410,4552.820512,4120.000000,4631.282051,3874.871795,3988.717949
9,4369.743589,4473.333333,4541.538461,4248.205128,4501.538461,4206.666666,4431.282051,4212.820512,4221.025641,4548.205128,4102.564102,4615.384615,3856.923077,3973.333334
10,4365.128205,4469.743589,4537.435897,4249.230769,4500.512820,4208.205128,4439.487179,4216.410256,4222.051282,4543.076923,4092.820512,4613.333333,3848.205129,3963.076924
11,4375.897435,4484.102564,4545.641025,4252.820512,4500.512820,4214.871794,4445.641025,4218.461538,4225.641025,4539.487179,4101.025641,4621.025641,3848.205129,3971.282052
12,4382.051282,4484.615384,4547.692307,4249.743589,4500.000000,4213.846153,4444.615384,4216.410256,4227.692307,4540.000000,4108.717948,4620.000000,3850.769231,3977.948718
13,4376.923076,4470.256410,4541.025641,4245.128205,4500.000000,4209.230769,4443.076923,4215.384615,4227.692307,4538.974358,4103.589743,4616.923076,3847.692308,3975.897436
14,4373.846153,4470.256410,4537.435897,4244.102564,4498.974358,4207.692307,4441.025641,4214.358974,4222.564102,4541.538461,4097.435897,4615.384615,3841.025642,3973.846154
15,4375.384615,4482.564102,4540.000000,4245.128205,4497.948717,4209.230769,4442.051282,4215.384615,4218.461538,4539.487179,4099.487179,4616.410256,3841.538462,3970.256411
16,4382.051282,4488.205128,4541.538461,4247.179487,4501.538461,4214.871794,4444.615384,4224.102564,4224.102564,4537.948717,4104.615384,4618.461538,3846.666667,3970.256411
17,4386.153846,4480.000000,4538.974358,4241.025641,4507.179487,4218.461538,4442.564102,4230.256410,4232.820512,4544.102564,4103.076923,4616.410256,3848.205129,3974.871795
18,4380.000000,4475.897435,4538.974358,4237.435897,4505.128205,4214.871794,4440.000000,4227.179487,4231.282051,4541.538461,4096.410256,4614.358974,3850.769231,3972.820513
19,4382.051282,4489.230769,4547.692307,4248.717948,4499.487179,4212.820512,4442.051282,4227.692307,4225.641025,4537.435897,4103.589743,4622.564102,3857.948718,3974.871795
20,4397.435897,4498.461538,4555.384615,4253.846153,4499.487179,4214.358974,4443.076923,4233.333333,4225.641025,4548.717948,4117.435897,4625.641025,3861.025642,3988.205129
21,4400.000000,4492.307692,4550.256410,4249.230769,4499.487179,4211.794871,4440.512820,4233.333333,4230.256410,4551.794871,4113.846153,4621.025641,3855.384616,3986.666667
22,4383.589743,4482.051282,4541.025641,4244.615384,4495.384615,4205.641025,4436.923076,4230.769230,4231.794871,4541.025641,4103.076923,4620.000000,3848.205129,3971.794872
23,4379.487179,4480.512820,4542.564102,4243.589743,4497.948717,4207.692307,4438.974358,4230.769230,4237.435897,4544.615384,4109.743589,4621.538461,3850.256411,3978.974359
24,4394.871794,4488.717948,4553.333333,4250.256410,4506.153846,4217.948717,4447.179487,4235.897435,4244.102564,4551.282051,4120.512820,4627.692307,3864.102565,3993.846154
25,4401.025641,4496.923076,4554.871794,4257.948717,4503.076923,4218.461538,4444.615384,4231.794871,4230.256410,4539.487179,4115.897435,4629.743589,3868.717949,3989.743590
26,4393.333333,4498.974358,4551.794871,4259.487179,4498.974358,4211.794871,4438.461538,4217.435897,4211.282051,4525.641025,4112.820512,4620.000000,3856.923077,3978.974359
27,4389.743589,4496.923076,4550.256410,4260.000000,4506.666666,4213.333333,4441.025641,4211.794871,4213.846153,4526.666666,4114.358974,4617.948717,3848.717949,3975.897436
28,4392.820512,4491.282051,4544.615384,4260.000000,4507.692307,4216.410256,4441.538461,4213.333333,4218.461538,4529.743589,4105.641025,4618.974358,3847.692308,3978.461539
29,4394.871794,4490.769230,4542.051282,4259.487179,4500.000000,4212.820512,4439.487179,4213.333333,4214.871794,4527.179487,4101.538461,4612.820512,3847.179488,3982.051283
30,4393.333333,4496.410256,4545.641025,4256.923076,4494.358974,4206.153846,4440.000000,4216.923076,4221.025641,4526.666666,4108.205128,4612.307692,3849.230770,3980.512821
31,4384.102564,4487.179487,4541.538461,4249.230769,4490.256410,4201.025641,4433.846153,4217.948717,4220.512820,4522.051282,4109.230769,4613.846153,3848.205129,3975.384616
32,4379.487179,4478.974358,4536.410256,4245.128205,4493.333333,4202.051282,4429.230769,4214.871794,4207.179487,4515.384615,4101.538461,4609.743589,3844.102565,3972.307693
33,4384.615384,4487.692307,4540.512820,4249.230769,4493.846153,4203.589743,4432.307692,4215.384615,4207.179487,4516.923076,4091.794871,4610.256410,3845.641026,3972.820513
34,4381.025641,4493.846153,4542.051282,4245.128205,4488.717948,4202.564102,4430.256410,4215.897435,4216.410256,4520.512820,4092.820512,4611.794871,3842.564103,3974.358975
35,4383.076923,4490.256410,4537.435897,4242.051282,4495.384615,4202.564102,4426.666666,4215.384615,4216.923076,4520.512820,4106.666666,4610.256410,3836.410257,3979.487180
36,4394.871794,4490.256410,4543.076923,4248.205128,4501.538461,4207.692307,4431.794871,4217.948717,4220.000000,4529.230769,4115.384615,4617.435897,3849.743590,3986.153847
37,4392.307692,4490.769230,4549.743589,4250.769230,4495.384615,4214.871794,4438.461538,4219.487179,4224.615384,4538.974358,4109.743589,4622.051282,3860.512821,3983.589744
38,4383.589743,4492.820512,4545.128205,4247.692307,4495.384615,4217.435897,4441.025641,4222.564102,4222.564102,4526.153846,4109.230769,4616.923076,3848.205129,3978.461539
39,4392.307692,4504.102564,4545.641025,4253.333333,4506.153846,4216.410256,4443.589743,4230.256410,4225.128205,4517.948717,4114.871794,4621.538461,3847.692308,3983.589744
40,4401.025641,4510.256410,4555.897435,4265.128205,4510.769230,4223.589743,4448.717948,4234.358974,4232.307692,4531.282051,4115.384615,4630.256410,3866.153847,3991.794872
41,4396.410256,4506.153846,4557.435897,4266.666666,4511.282051,4232.820512,4449.743589,4233.846153,4233.333333,4539.487179,4116.923076,4629.230769,3872.307693,3998.974359
42,4393.333333,4502.051282,4552.820512,4262.051282,4511.794871,4227.179487,4446.153846,4234.871794,4231.282051,4537.435897,4118.974358,4628.205128,3868.205129,4002.051282
43,4392.307692,4504.102564,4554.358974,4262.051282,4509.230769,4217.948717,4442.051282,4231.794871,4228.717948,4537.435897,4117.435897,4630.769230,3866.666667,3997.435898
44,4386.153846,4503.076923,4551.282051,4256.923076,4504.102564,4216.923076,4438.461538,4222.564102,4222.564102,4534.871794,4114.871794,4625.641025,3863.076924,3982.051283
45,4381.538461,4493.333333,4546.153846,4248.205128,4497.948717,4216.923076,4435.384615,4218.974358,4228.717948,4527.692307,4112.820512,4621.025641,3862.051283,3974.358975
46,4385.128205,4487.692307,4552.307692,4247.179487,4493.333333,4213.846153,4434.871794,4220.512820,4235.897435,4525.641025,4107.692307,4623.589743,3866.153847,3983.589744
47,4385.641025,4486.153846,4550.769230,4245.641025,4491.794871,4210.256410,4431.794871,4216.923076,4223.076923,4521.538461,4103.076923,4622.051282,3864.102565,3986.153847
48,4377.435897,4491.794871,4538.461538,4244.615384,4495.384615,4210.769230,4427.179487,4211.794871,4212.307692,4520.512820,4109.743589,4616.923076,3859.487180,3974.358975
49,4379.487179,4502.051282,4542.564102,4257.948717,4502.051282,4214.358974,4429.743589,4221.025641,4227.179487,4536.410256,4116.923076,4622.051282,3869.230770,3980.000000
50,4383.076923,4501.025641,4551.794871,4262.564102,4501.025641,4210.769230,4430.769230,4227.179487,4236.410256,4535.384615,4109.230769,4627.179487,3878.461539,3991.282052
51,4372.820512,4488.205128,4542.564102,4246.666666,4491.794871,4203.589743,4423.589743,4210.769230,4215.897435,4507.692307,4097.435897,4618.461538,3861.538462,3976.410257
52,4375.384615,4486.666666,4539.487179,4243.589743,4488.717948,4206.666666,4422.564102,4201.538461,4204.615384,4504.615384,4109.230769,4617.435897,3846.153847,3967.179488
53,4387.692307,4497.948717,4545.641025,4253.846153,4498.461538,4213.846153,4431.282051,4213.333333,4220.000000,4529.230769,4123.076923,4627.692307,3856.923077,3983.589744
54,4382.051282,4499.487179,4544.102564,4251.282051,4501.538461,4215.384615,4436.923076,4218.974358,4230.256410,4534.871794,4119.487179,4630.769230,3873.846154,3989.743590
55,4384.102564,4497.948717,4547.179487,4251.282051,4498.974358,4217.948717,4440.000000,4221.025641,4231.282051,4524.102564,4121.538461,4630.256410,3875.897436,3986.666667
56,4396.410256,4501.025641,4556.410256,4261.538461,4503.076923,4218.461538,4444.615384,4230.256410,4232.820512,4526.153846,4125.641025,4635.897435,3868.717949,3991.794872
57,4393.333333,4498.974358,4552.820512,4260.512820,4504.102564,4214.358974,4443.589743,4231.282051,4231.794871,4529.743589,4116.923076,4634.358974,3862.051283,3990.256411
58,4386.666666,4493.333333,4550.256410,4260.512820,4498.974358,4215.897435,4442.051282,4230.256410,4232.307692,4526.666666,4116.923076,4631.282051,3863.589744,3982.564103
59,4387.179487,4493.846153,4558.461538,4265.128205,4496.923076,4217.948717,4446.666666,4234.358974,4235.384615,4527.179487,4119.487179,4632.307692,3868.205129,3982.564103
60,4377.948717,4487.692307,4551.794871,4251.282051,4495.384615,4210.769230,4443.589743,4225.641025,4226.666666,4516.923076,4103.076923,4622.051282,3859.487180,3979.487180
61,4369.743589,4475.897435,4536.923076,4235.897435,4491.282051,4205.128205,4432.820512,4212.307692,4215.897435,4503.076923,4093.333333,4611.282051,3845.641026,3969.743590
62,4378.974358,4481.538461,4534.871794,4244.102564,4488.717948,4209.230769,4433.333333,4214.871794,4215.384615,4510.256410,4097.435897,4613.846153,3844.102565,3969.230770
63,4381.538461,4493.333333,4541.538461,4250.769230,4490.256410,4211.282051,4442.051282,4223.076923,4213.846153,4524.102564,4097.435897,4615.897435,3850.769231,3978.974359
64,4373.846153,4490.256410,4540.512820,4247.179487,4495.384615,4212.820512,4445.128205,4232.820512,4221.025641,4524.102564,4101.538461,4615.897435,3851.794872,3980.512821
65,4372.820512,4482.051282,4538.461538,4246.153846,4500.512820,4215.897435,4446.666666,4236.410256,4238.974358,4518.974358,4108.205128,4617.435897,3843.076924,3969.230770
66,4371.794871,4477.948717,4536.923076,4238.974358,4494.871794,4212.820512,4441.025641,4225.128205,4233.333333,4511.794871,4096.410256,4612.820512,3838.461539,3960.512821
67,4367.179487,4480.000000,4534.871794,4233.846153,4487.692307,4209.743589,4429.743589,4213.333333,4209.743589,4500.000000,4085.641025,4608.717948,3841.025642,3963.589744
68,4370.769230,4490.769230,4542.564102,4244.615384,4495.384615,4215.384615,4433.846153,4215.384615,4210.256410,4508.205128,4097.435897,4617.435897,3849.230770,3972.307693
69,4378.974358,4494.358974,4546.153846,4250.769230,4502.564102,4217.435897,4444.615384,4218.461538,4220.512820,4517.948717,4108.205128,4621.538461,3855.897436,3971.794872
70,4378.974358,4482.051282,4537.948717,4245.128205,4495.897435,4211.794871,4441.538461,4213.846153,4212.307692,4502.051282,4104.615384,4614.358974,3851.282052,3969.743590
71,4377.948717,4480.000000,4534.871794,4246.153846,4492.820512,4210.256410,4437.948717,4212.307692,4214.358974,4500.512820,4107.179487,4614.358974,3848.717949,3980.000000
72,4380.000000,4490.769230,4544.615384,4249.743589,4501.025641,4213.846153,4442.564102,4215.897435,4226.666666,4518.461538,4116.410256,4621.538461,3858.974359,3986.666667
73,4379.487179,4491.282051,4550.256410,4248.205128,4503.076923,4215.897435,4441.025641,4217.435897,4221.025641,4520.512820,4112.307692,4626.153846,3866.666667,3979.487180
74,4381.025641,4486.666666,4545.128205,4250.769230,4500.512820,4215.384615,4433.846153,4217.435897,4219.487179,4515.384615,4110.769230,4627.692307,3863.076924,3980.000000
75,4384.615384,4487.692307,4546.666666,4255.384615,4501.538461,4212.307692,4432.307692,4218.461538,4229.743589,4519.487179,4119.487179,4630.256410,3863.589744,3985.641026
76,4377.435897,4485.641025,4548.717948,4250.256410,4499.487179,4209.230769,4430.769230,4217.435897,4225.128205,4515.897435,4113.846153,4626.153846,3858.974359,3977.435898
77,4370.769230,4482.564102,4546.666666,4250.769230,4498.974358,4211.282051,4430.256410,4216.410256,4222.051282,4510.256410,4106.153846,4621.538461,3845.641026,3967.692308
78,4382.564102,4491.282051,4549.743589,4263.589743,4502.564102,4211.794871,4431.794871,4218.974358,4232.307692,4523.589743,4120.000000,4628.205128,3855.897436,3975.384616
79,4392.820512,4495.897435,4551.794871,4267.692307,4495.384615,4207.179487,4427.692307,4218.461538,4226.153846,4525.641025,4129.230769,4630.256410,3877.948718,3988.717949
80,4387.692307,4488.205128,4546.153846,4258.461538,4489.743589,4203.589743,4424.102564,4213.846153,4213.846153,4510.256410,4114.358974,4621.538461,3873.333334,3989.743590
81,4385.128205,4484.615384,4547.692307,4255.897435,4493.846153,4204.615384,4430.256410,4213.846153,4217.948717,4505.128205,4107.179487,4617.948717,3860.512821,3981.025642
82,4385.641025,4490.769230,4556.410256,4263.589743,4494.871794,4206.153846,4433.333333,4216.923076,4218.461538,4506.666666,4113.846153,4621.538461,3861.538462,3980.000000
83,4381.025641,4491.282051,4551.282051,4262.051282,4494.871794,4206.153846,4427.692307,4217.948717,4215.897435,4506.153846,4110.256410,4620.512820,3864.102565,3983.076924
84,4372.820512,4480.000000,4542.051282,4251.282051,4493.333333,4204.102564,4426.666666,4216.923076,4224.102564,4505.128205,4098.461538,4613.846153,3859.487180,3971.794872
85,4364.102564,4470.256410,4537.948717,4242.564102,4491.282051,4201.025641,4427.179487,4213.333333,4220.512820,4504.102564,4098.974358,4606.666666,3851.282052,3962.564103
86,4370.256410,4475.897435,4537.948717,4248.205128,4492.307692,4205.641025,4427.692307,4211.282051,4212.307692,4507.179487,4111.282051,4608.205128,3849.743590,3975.384616
87,4382.051282,4489.743589,4548.717948,4262.051282,4490.769230,4211.794871,4434.358974,4215.897435,4226.153846,4518.461538,4114.871794,4617.948717,3858.974359,3987.692308
88,4376.410256,4490.769230,4553.333333,4260.000000,4490.769230,4210.769230,4440.000000,4217.948717,4233.846153,4522.564102,4109.230769,4617.435897,3866.153847,3975.897436
89,4367.179487,4485.641025,4543.589743,4255.384615,4493.333333,4208.717948,4441.538461,4216.410256,4224.615384,4515.897435,4107.692307,4610.769230,3865.641026,3962.564103
90,4369.743589,4481.538461,4541.538461,4260.000000,4491.794871,4212.820512,4442.564102,4217.948717,4225.128205,4518.974358,4108.205128,4615.384615,3863.589744,3966.153847
91,4379.487179,4477.948717,4551.282051,4257.435897,4491.282051,4215.897435,4442.564102,4221.025641,4234.358974,4525.128205,4111.282051,4620.512820,3863.589744,3976.923077
92,4383.589743,4480.000000,4555.384615,4252.820512,4500.512820,4214.358974,4444.615384,4225.128205,4235.384615,4522.564102,4124.102564,4621.025641,3869.743590,3986.153847
93,4377.948717,4482.051282,4553.333333,4261.538461,4504.102564,4216.410256,4445.128205,4222.564102,4236.923076,4518.461538,4133.333333,4619.487179,3869.743590,3986.666667
94,4373.333333,4483.076923,4550.256410,4268.205128,4500.000000,4217.435897,4442.051282,4216.410256,4235.384615,4526.153846,4127.692307,4616.923076,3866.666667,3979.487180
95,4382.564102,4483.076923,4547.692307,4258.974358,4497.435897,4214.871794,4442.564102,4214.358974,4228.717948,4532.820512,4120.512820,4615.897435,3875.897436,3981.025642
96,4385.641025,4482.564102,4549.230769,4254.871794,4493.333333,4214.358974,4442.564102,4209.743589,4231.282051,4525.128205,4112.820512,4616.923076,3877.435898,3977.948718
97,4378.974358,4481.025641,4548.205128,4260.000000,4494.871794,4214.358974,4438.974358,4203.076923,4233.333333,4518.461538,4111.282051,4614.871794,3872.820513,3970.769231
98,4382.564102,4487.179487,4542.564102,4265.641025,4501.538461,4216.410256,4439.487179,4201.538461,4223.076923,4517.948717,4121.538461,4608.205128,3875.897436,3979.487180
99,4379.487179,4495.384615,4540.512820,4267.179487,4500.512820,4216.923076,4437.435897,4200.512820,4212.307692,4515.897435,4118.974358,4599.487179,3869.230770,3979.487180
100,4365.641025,4485.128205,4538.461538,4258.461538,4496.410256,4213.846153,4434.871794,4197.435897,4216.410256,4512.307692,4098.461538,4596.410256,3861.538462,3962.051283
101,4371.794871,4474.358974,4537.948717,4252.307692,4502.564102,4214.358974,4437.948717,4200.000000,4230.256410,4516.410256,4101.025641,4603.076923,3876.410257,3966.153847
102,4387.179487,4481.025641,4541.025641,4254.358974,4509.230769,4216.923076,4435.897435,4203.589743,4237.435897,4521.538461,4119.487179,4606.666666,3883.589744,3984.615385
103,4385.128205,4494.358974,4541.538461,4259.487179,4500.000000,4208.717948,4432.820512,4204.102564,4233.333333,4522.564102,4124.615384,4604.102564,3875.384616,3983.589744
104,4378.974358,4495.384615,4541.025641,4261.025641,4492.307692,4201.025641,4436.410256,4203.589743,4227.692307,4527.692307,4125.128205,4606.153846,3879.487180,3975.384616
105,4383.589743,4488.205128,4542.051282,4262.051282,4499.487179,4207.179487,4439.487179,4206.666666,4229.743589,4529.230769,4127.692307,4607.692307,3887.179488,3974.871795
106,4381.538461,4489.743589,4540.512820,4264.615384,4503.076923,4208.717948,4438.974358,4213.846153,4236.410256,4528.717948,4121.538461,4606.666666,3883.589744,3978.461539
107,4376.410256,4489.743589,4540.000000,4264.102564,4497.435897,4206.666666,4442.564102,4215.897435,4235.897435,4534.871794,4118.974358,4606.666666,3882.564103,3977.948718
108,4377.435897,4488.205128,4539.487179,4262.051282,4500.512820,4211.794871,4444.102564,4211.282051,4231.282051,4533.333333,4125.641025,4607.692307,3887.179488,3973.333334
109,4377.948717,4489.230769,4538.974358,4261.025641,4502.051282,4209.743589,4438.461538,4207.179487,4237.435897,4521.025641,4117.948717,4602.051282,3885.641026,3973.333334
110,4376.923076,4488.205128,4536.410256,4258.461538,4489.743589,4200.000000,4429.743589,4203.076923,4237.435897,4521.538461,4097.948717,4592.820512,3874.871795,3970.256411
111,4379.487179,4488.205128,4534.871794,4253.846153,4484.615384,4200.000000,4430.769230,4197.948717,4218.461538,4529.230769,4101.025641,4594.358974,3874.358975,3966.153847
112,4382.051282,4489.230769,4537.948717,4250.769230,4490.769230,4203.076923,4441.538461,4201.025641,4220.512820,4525.641025,4125.128205,4604.102564,3887.692308,3974.358975
113,4378.461538,4488.717948,4541.025641,4253.333333,4491.282051,4200.000000,4444.102564,4212.820512,4243.589743,4524.102564,4134.358974,4605.128205,3890.769231,3982.051283
114,4378.461538,4487.692307,4539.487179,4259.487179,4491.794871,4201.025641,4441.025641,4216.410256,4242.051282,4528.205128,4126.153846,4601.025641,3880.000000,3978.974359
115,4381.538461,4492.820512,4539.487179,4265.128205,4497.948717,4203.589743,4442.051282,4207.692307,4227.179487,4528.205128,4122.051282,4604.102564,3878.974359,3973.846154
116,4372.820512,4490.769230,4537.948717,4260.512820,4497.435897,4200.000000,4434.871794,4200.000000,4227.692307,4520.512820,4120.000000,4603.076923,3880.000000,3973.333334
117,4367.179487,4482.051282,4535.897435,4254.358974,4492.820512,4196.923076,4426.666666,4198.974358,4231.794871,4515.384615,4123.589743,4600.000000,3875.384616,3972.820513
118,4384.102564,4485.128205,4544.102564,4263.076923,4497.948717,4205.128205,4435.384615,4206.153846,4233.333333,4525.128205,4130.769230,4607.692307,3876.923077,3972.820513
119,4395.897435,4492.820512,4554.358974,4277.435897,4509.230769,4216.410256,4447.692307,4215.384615,4236.410256,4532.820512,4128.717948,4614.871794,3877.948718,3978.461539
120,4391.282051,4500.000000,4554.871794,4282.564102,4508.717948,4216.410256,4447.692307,4215.384615,4235.897435,4534.358974,4131.282051,4615.384615,3874.358975,3995.384616
121,4396.923076,4504.102564,4553.846153,4278.461538,4504.615384,4213.333333,4444.615384,4213.333333,4237.435897,4536.410256,4129.743589,4616.410256,3870.769231,3998.461539
122,4402.564102,4498.974358,4554.358974,4268.717948,4507.179487,4214.358974,4445.641025,4214.358974,4239.487179,4530.769230,4108.717948,4613.333333,3860.512821,3977.435898
123,4395.897435,4495.384615,4554.358974,4266.666666,4506.666666,4216.410256,4447.692307,4213.846153,4232.307692,4523.076923,4113.333333,4608.205128,3853.846154,3977.948718
124,4398.974358,4504.102564,4559.487179,4272.820512,4505.128205,4214.871794,4449.230769,4214.871794,4228.717948,4528.205128,4145.641025,4613.846153,3865.641026,4001.025641
125,4404.615384,4510.769230,4554.871794,4268.205128,4506.153846,4208.717948,4444.615384,4212.820512,4233.333333,4529.230769,4143.589743,4615.384615,3866.666667,3997.948718
126,4391.794871,4503.076923,4540.512820,4260.000000,4501.538461,4200.512820,4436.410256,4203.076923,4231.794871,4518.461538,4114.871794,4602.051282,3846.666667,3978.461539
127,4389.230769,4494.871794,4543.076923,4263.589743,4496.410256,4202.051282,4438.461538,4205.641025,4229.743589,4524.615384,4113.846153,4596.410256,3843.076924,3979.487180
128,4402.051282,4496.923076,4555.384615,4268.205128,4502.051282,4209.230769,4445.128205,4216.410256,4230.256410,4533.333333,4123.589743,4605.641025,3853.333334,3984.615385
129,4402.051282,4510.769230,4551.794871,4266.153846,4506.153846,4208.205128,4446.153846,4218.974358,4227.692307,4529.743589,4123.076923,4607.179487,3853.333334,3986.666667
130,4394.358974,4509.743589,4540.512820,4267.179487,4502.564102,4205.641025,4443.589743,4216.410256,4224.615384,4523.076923,4122.051282,4598.461538,3846.153847,3988.717949
131,4390.256410,4490.769230,4536.923076,4259.487179,4500.000000,4203.589743,4443.589743,4214.871794,4222.564102,4515.384615,4116.410256,4596.410256,3844.102565,3978.461539
132,4389.743589,4486.666666,4536.923076,4251.282051,4497.948717,4205.641025,4446.153846,4215.897435,4225.641025,4515.897435,4112.820512,4600.000000,3848.717949,3971.794872
133,4388.717948,4491.794871,4538.461538,4253.333333,4492.820512,4210.769230,4450.256410,4218.461538,4230.769230,4522.051282,4116.410256,4596.410256,3847.179488,3982.051283
134,4387.179487,4488.717948,4538.974358,4254.358974,4492.307692,4208.717948,4453.846153,4218.461538,4227.692307,4523.076923,4115.384615,4593.846153,3838.974359,3987.179488
135,4389.230769,4489.743589,4539.487179,4251.794871,4494.871794,4206.153846,4452.820512,4216.923076,4225.128205,4521.538461,4112.307692,4597.435897,3836.923077,3977.435898
136,4390.769230,4494.871794,4541.025641,4249.230769,4490.256410,4206.666666,4447.692307,4217.948717,4229.230769,4525.128205,4111.794871,4596.923076,3846.153847,3969.743590
137,4385.128205,4491.282051,4535.897435,4247.692307,4490.256410,4203.589743,4444.615384,4217.435897,4228.205128,4524.102564,4108.717948,4595.897435,3850.769231,3969.230770
138,4382.564102,4489.230769,4534.871794,4252.307692,4500.512820,4207.179487,4446.153846,4217.435897,4230.769230,4520.000000,4112.307692,4597.948717,3849.230770,3975.384616
139,4385.641025,4489.743589,4538.461538,4255.897435,4501.025641,4212.820512,4448.205128,4220.512820,4237.948717,4521.538461,4121.538461,4592.307692,3844.615385,3980.512821
140,4378.461538,4477.435897,4529.743589,4248.717948,4493.333333,4207.179487,4444.102564,4217.948717,4228.205128,4515.384615,4111.282051,4581.538461,3835.384616,3973.333334
141,4371.282051,4468.717948,4520.000000,4240.000000,4497.435897,4201.538461,4442.564102,4212.307692,4215.897435,4503.589743,4103.589743,4583.076923,3833.333334,3965.641026
142,4378.974358,4480.512820,4532.307692,4246.666666,4502.051282,4210.256410,4450.256410,4217.948717,4226.666666,4506.666666,4121.025641,4593.846153,3845.641026,3972.820513
143,4391.794871,4495.897435,4543.589743,4255.384615,4493.333333,4210.256410,4452.307692,4229.230769,4242.564102,4527.179487,4127.179487,4600.512820,3856.923077,3984.615385
144,4390.256410,4487.179487,4538.974358,4253.846153,4488.205128,4202.564102,4448.717948,4229.743589,4240.512820,4534.358974,4117.948717,4602.051282,3857.948718,3981.538462
145,4382.564102,4474.871794,4538.461538,4249.230769,4493.333333,4204.102564,4454.871794,4230.769230,4233.846153,4526.666666,4124.102564,4605.641025,3853.333334,3977.435898
146,4383.076923,4482.564102,4541.538461,4249.743589,4491.794871,4204.102564,4458.974358,4233.846153,4233.846153,4527.179487,4127.179487,4606.666666,3848.205129,3982.564103
147,4382.564102,4484.615384,4537.435897,4250.769230,4484.615384,4198.461538,4445.128205,4224.102564,4228.205128,4528.717948,4112.307692,4600.000000,3845.641026,3984.615385
148,4383.589743,4480.512820,4536.923076,4248.205128,4483.076923,4197.948717,4438.974358,4222.051282,4228.717948,4522.564102,4107.179487,4598.974358,3848.205129,3973.846154
149,4386.153846,4485.128205,4542.564102,4248.205128,4489.743589,4201.538461,4447.692307,4231.794871,4239.487179,4523.076923,4116.923076,4605.641025,3847.179488,3967.179488
150,4380.512820,4487.692307,4541.538461,4247.692307,4493.846153,4201.538461,4444.102564,4223.076923,4230.256410,4524.615384,4120.000000,4604.102564,3848.205129,3976.923077
151,4381.538461,4484.615384,4540.000000,4250.769230,4490.769230,4198.461538,4439.487179,4215.384615,4216.410256,4517.435897,4121.025641,4600.512820,3853.333334,3989.743590
152,4393.333333,4488.205128,4544.102564,4254.871794,4490.769230,4202.564102,4450.256410,4229.230769,4232.820512,4522.564102,4123.589743,4607.692307,3854.358975,3993.333334
153,4392.820512,4493.846153,4546.153846,4249.230769,4492.307692,4205.641025,4455.384615,4232.820512,4241.025641,4526.153846,4117.948717,4610.769230,3856.410257,3986.153847
154,4387.179487,4487.179487,4543.589743,4246.666666,4491.282051,4205.128205,4446.666666,4217.948717,4224.102564,4511.794871,4112.307692,4605.641025,3858.461539,3978.974359
155,4387.692307,4478.974358,4536.923076,4252.820512,4492.307692,4200.512820,4435.897435,4205.128205,4213.333333,4506.153846,4114.358974,4602.564102,3850.769231,3974.871795
156,4381.025641,4482.564102,4533.846153,4251.794871,4492.307692,4197.948717,4429.230769,4198.461538,4214.358974,4516.923076,4114.358974,4600.512820,3847.179488,3973.846154
157,4375.897435,4486.666666,4536.923076,4247.692307,4490.256410,4198.974358,4431.794871,4204.615384,4222.564102,4522.564102,4117.435897,4604.615384,3857.435898,3976.410257
158,4384.615384,4481.025641,4538.974358,4251.282051,4491.794871,4200.000000,4443.076923,4212.820512,4228.205128,4517.435897,4123.589743,4612.820512,3866.153847,3974.358975
159,4386.153846,4482.051282,4538.974358,4251.282051,4493.846153,4200.000000,4446.666666,4206.666666,4218.461538,4512.307692,4118.974358,4610.256410,3865.128206,3972.820513
160,4374.871794,4490.769230,4531.794871,4246.666666,4490.769230,4199.487179,4438.461538,4196.923076,4209.743589,4505.128205,4104.102564,4598.461538,3855.897436,3973.846154
161,4372.820512,4489.743589,4527.692307,4254.871794,4497.435897,4204.615384,4436.410256,4197.948717,4214.358974,4505.641025,4097.948717,4596.410256,3849.230770,3976.410257
162,4386.666666,4489.230769,4535.897435,4264.102564,4503.076923,4208.717948,4443.589743,4207.692307,4222.051282,4519.487179,4114.358974,4604.102564,3860.000000,3982.051283
163,4390.256410,4494.871794,4540.512820,4256.923076,4500.000000,4207.692307,4446.153846,4217.435897,4226.666666,4525.128205,4129.230769,4606.153846,3868.717949,3986.153847
164,4380.000000,4492.307692,4534.358974,4252.820512,4497.948717,4206.666666,4445.128205,4217.948717,4231.282051,4519.487179,4120.000000,4603.589743,3863.589744,3981.538462
165,4381.025641,4490.769230,4534.871794,4266.153846,4497.948717,4205.641025,4447.692307,4215.897435,4228.205128,4521.538461,4114.358974,4605.641025,3863.589744,3976.410257
166,4391.282051,4493.333333,4541.025641,4267.179487,4499.487179,4206.153846,4449.230769,4215.384615,4218.461538,4523.589743,4123.076923,4606.153846,3866.666667,3977.435898
167,4388.205128,4490.256410,4536.923076,4248.205128,4497.435897,4203.589743,4443.589743,4211.282051,4213.333333,4505.641025,4121.538461,4602.564102,3860.512821,3976.923077
168,4382.564102,4485.641025,4536.923076,4247.692307,4496.410256,4205.641025,4447.179487,4215.384615,4227.179487,4506.153846,4118.461538,4605.641025,3864.102565,3982.564103
169,4392.307692,4493.333333,4544.102564,4264.102564,4501.025641,4210.256410,4453.846153,4222.051282,4238.974358,4533.333333,4125.128205,4609.743589,3873.846154,3998.461539
170,4398.974358,4506.666666,4543.076923,4267.179487,4500.000000,4206.153846,4446.153846,4209.230769,4228.205128,4530.256410,4120.000000,4604.615384,3867.692308,3992.820513
171,4392.820512,4510.769230,4538.974358,4262.051282,4496.410256,4205.128205,4440.512820,4202.051282,4215.384615,4509.743589,4103.589743,4602.051282,3864.615385,3971.794872
172,4388.205128,4502.051282,4538.974358,4260.512820,4499.487179,4209.230769,4444.102564,4212.820512,4213.846153,4513.333333,4108.717948,4605.641025,3872.307693,3976.923077
173,4391.794871,4496.923076,4540.512820,4262.564102,4501.025641,4206.666666,4444.102564,4216.410256,4220.512820,4517.435897,4126.153846,4605.641025,3871.282052,3998.461539
174,4391.794871,4502.564102,4540.000000,4262.564102,4496.923076,4204.102564,4441.538461,4212.820512,4229.230769,4504.615384,4125.641025,4603.589743,3862.051283,3992.820513
175,4383.076923,4500.000000,4536.923076,4252.820512,4502.051282,4208.205128,4443.076923,4214.358974,4227.179487,4504.615384,4116.923076,4608.717948,3862.051283,3975.384616
176,4383.076923,4493.846153,4536.923076,4250.769230,4507.692307,4210.256410,4441.025641,4213.846153,4221.538461,4520.000000,4123.589743,4611.794871,3872.820513,3978.461539
177,4393.846153,4498.461538,4540.512820,4260.000000,4502.051282,4207.692307,4444.615384,4212.820512,4228.205128,4521.025641,4133.846153,4608.717948,3876.923077,3989.743590
178,4396.923076,4504.102564,4541.538461,4257.948717,4497.435897,4207.179487,4452.307692,4215.897435,4232.820512,4513.846153,4128.205128,4605.641025,3868.717949,3991.282052
179,4388.717948,4504.102564,4540.000000,4254.358974,4498.974358,4207.692307,4450.769230,4213.846153,4225.641025,4516.410256,4122.564102,4608.205128,3868.717949,3987.692308
180,4385.641025,4502.564102,4539.487179,4262.051282,4504.102564,4209.743589,4447.692307,4212.307692,4226.666666,4521.025641,4125.641025,4611.794871,3884.102565,3984.615385
181,4387.179487,4501.025641,4539.487179,4263.589743,4507.179487,4209.743589,4448.205128,4211.282051,4234.358974,4520.000000,4125.641025,4608.717948,3886.666667,3986.666667
182,4382.564102,4497.435897,4537.435897,4258.461538,4505.128205,4205.641025,4444.102564,4200.000000,4227.179487,4513.333333,4119.487179,4601.025641,3873.333334,3983.589744
183,4381.025641,4500.000000,4536.410256,4261.025641,4507.179487,4205.128205,4441.025641,4196.923076,4217.435897,4510.769230,4115.897435,4598.974358,3874.358975,3978.461539
184,4387.179487,4503.589743,4541.025641,4272.820512,4505.641025,4210.256410,4446.153846,4209.230769,4221.538461,4517.435897,4117.948717,4605.128205,3885.128206,3979.487180
185,4387.692307,4507.179487,4547.179487,4280.512820,4504.102564,4212.307692,4447.692307,4211.794871,4223.589743,4518.461538,4120.000000,4606.666666,3886.153847,3987.692308
186,4380.512820,4506.153846,4544.102564,4271.794871,4508.205128,4208.717948,4444.102564,4201.538461,4215.384615,4513.846153,4121.025641,4602.564102,3882.564103,3991.794872
187,4380.000000,4505.128205,4538.974358,4261.538461,4506.153846,4206.666666,4444.102564,4202.564102,4218.974358,4513.846153,4127.179487,4602.564102,3880.000000,3986.153847
188,4381.025641,4506.666666,4538.461538,4266.153846,4495.897435,4208.205128,4443.589743,4208.717948,4225.128205,4512.820512,4137.435897,4601.025641,3877.435898,3975.897436
189,4377.948717,4497.435897,4537.435897,4267.692307,4495.897435,4203.589743,4443.589743,4204.102564,4213.846153,4504.102564,4140.000000,4600.512820,3878.974359,3978.974359
190,4379.487179,4485.641025,4536.923076,4258.461538,4500.512820,4200.000000,4443.589743,4198.974358,4207.692307,4504.102564,4123.076923,4600.000000,3875.384616,3981.025642
191,4378.974358,4490.769230,4533.846153,4257.435897,4496.410256,4202.051282,4438.461538,4201.025641,4220.512820,4515.897435,4103.589743,4596.410256,3864.102565,3967.692308
192,4373.333333,4502.564102,4529.743589,4265.641025,4494.358974,4204.102564,4436.923076,4203.589743,4232.307692,4523.076923,4111.282051,4597.948717,3867.692308,3969.230770
193,4371.282051,4500.000000,4531.282051,4265.641025,4492.820512,4204.615384,4439.487179,4202.564102,4223.076923,4513.333333,4126.153846,4600.000000,3881.025642,3978.461539
194,4374.358974,4494.358974,4535.384615,4264.102564,4492.307692,4201.538461,4439.487179,4199.487179,4207.692307,4505.128205,4122.564102,4597.435897,3878.974359,3976.410257
195,4381.538461,4501.538461,4537.948717,4272.820512,4497.948717,4205.128205,4439.487179,4203.589743,4211.794871,4516.410256,4121.025641,4602.051282,3876.410257,3981.025642
196,4389.230769,4508.205128,4541.025641,4277.435897,4498.974358,4209.743589,4443.589743,4215.384615,4230.769230,4516.923076,4129.230769,4614.871794,3883.076924,3987.692308
197,4379.487179,4506.153846,4541.538461,4266.153846,4494.871794,4203.589743,4443.589743,4216.923076,4231.794871,4501.025641,4123.589743,4611.282051,3879.487180,3972.820513
198,4363.589743,4500.512820,4538.461538,4257.435897,4494.358974,4198.974358,4441.538461,4206.153846,4216.410256,4510.256410,4118.974358,4600.000000,3873.846154,3967.179488
199,4371.282051,4493.846153,4536.410256,4263.589743,4495.384615,4201.538461,4444.615384,4205.641025,4217.435897,4532.307692,4129.743589,4604.102564,3880.512821,3985.641026
200,4378.974358,4486.153846,4534.358974,4263.589743,4493.333333,4201.025641,4444.615384,4213.333333,4224.615384,4515.897435,4124.615384,4606.666666,3878.974359,3983.589744
201,4369.230769,4488.717948,4533.846153,4254.871794,4492.307692,4198.974358,4443.589743,4211.794871,4221.538461,4491.794871,4109.230769,4600.000000,3867.179488,3964.615385
202,4366.153846,4495.897435,4535.897435,4257.948717,4495.384615,4200.512820,4443.589743,4208.717948,4217.435897,4506.153846,4110.769230,4600.000000,3866.666667,3962.564103
203,4373.333333,4488.205128,4536.923076,4262.564102,4500.512820,4200.000000,4442.051282,4213.846153,4218.974358,4525.128205,4127.179487,4603.076923,3874.871795,3974.358975
204,4375.897435,4484.102564,4536.923076,4264.102564,4502.051282,4202.051282,4442.564102,4216.923076,4225.128205,4522.564102,4141.025641,4601.538461,3885.128206,3984.102565
205,4378.461538,4500.000000,4541.025641,4272.820512,4502.051282,4206.153846,4446.666666,4215.384615,4234.871794,4526.153846,4140.512820,4609.230769,3894.358975,3986.153847
206,4386.153846,4508.205128,4546.153846,4274.871794,4507.179487,4207.179487,4448.717948,4215.897435,4233.846153,4526.153846,4129.230769,4616.410256,3889.743590,3983.589744
207,4382.051282,4501.025641,4542.051282,4261.538461,4507.692307,4202.564102,4445.641025,4214.358974,4223.076923,4507.179487,4117.948717,4608.205128,3875.384616,3974.358975
208,4374.871794,4498.461538,4535.384615,4257.948717,4499.487179,4201.025641,4444.615384,4212.307692,4223.589743,4500.512820,4117.948717,4601.025641,3875.897436,3971.794872
209,4373.846153,4503.076923,4537.435897,4266.153846,4497.948717,4203.589743,4446.666666,4211.282051,4230.769230,4513.846153,4132.307692,4603.589743,3886.153847,3979.487180
210,4370.769230,4498.974358,4540.000000,4261.025641,4500.512820,4201.538461,4443.076923,4203.076923,4227.692307,4516.923076,4139.487179,4604.102564,3883.076924,3980.000000
211,4375.384615,4498.461538,4537.435897,4257.435897,4497.948717,4199.487179,4440.512820,4198.974358,4220.512820,4510.769230,4125.128205,4600.000000,3875.384616,3973.333334
212,4382.051282,4506.666666,4537.948717,4263.589743,4497.948717,4205.641025,4450.769230,4210.769230,4221.025641,4511.282051,4116.923076,4600.000000,3877.948718,3971.794872
213,4375.897435,4503.076923,4541.538461,4264.615384,4501.538461,4209.743589,4460.512820,4217.948717,4225.128205,4507.179487,4124.615384,4602.051282,3880.512821,3972.820513
214,4366.666666,4494.358974,4536.923076,4266.666666,4496.410256,4205.641025,4457.948717,4209.230769,4224.102564,4494.871794,4122.051282,4599.487179,3872.307693,3965.128206
215,4362.564102,4488.717948,4527.179487,4261.538461,4488.205128,4199.487179,4455.384615,4199.487179,4213.846153,4487.692307,4108.205128,4590.256410,3859.487180,3953.333334
216,4359.487179,4479.487179,4522.051282,4249.743589,4490.769230,4198.461538,4457.948717,4198.974358,4203.589743,4488.205128,4103.076923,4583.589743,3851.794872,3955.897436
217,4361.538461,4478.461538,4524.615384,4251.794871,4494.358974,4199.487179,4453.333333,4205.128205,4203.076923,4493.333333,4107.179487,4585.641025,3854.358975,3962.564103
218,4367.179487,4485.641025,4530.769230,4255.897435,4490.256410,4198.461538,4445.641025,4210.769230,4212.307692,4496.923076,4105.641025,4589.230769,3861.025642,3958.461539
219,4364.102564,4483.589743,4530.769230,4252.307692,4488.717948,4197.948717,4449.743589,4211.794871,4217.435897,4497.948717,4105.641025,4591.282051,3862.564103,3955.897436
220,4363.076923,4482.564102,4529.230769,4257.435897,4498.974358,4201.025641,4459.487179,4213.846153,4218.974358,4502.564102,4121.538461,4592.820512,3866.666667,3962.564103
221,4372.307692,4492.307692,4534.871794,4266.153846,4502.564102,4203.076923,4461.538461,4215.384615,4229.230769,4505.641025,4128.717948,4597.435897,3868.717949,3965.128206
222,4375.897435,4496.410256,4538.461538,4261.538461,4493.846153,4200.000000,4456.923076,4209.230769,4229.743589,4501.538461,4113.846153,4597.948717,3863.076924,3962.051283
223,4368.717948,4494.871794,4536.923076,4261.025641,4492.820512,4198.974358,4458.461538,4202.564102,4216.923076,4499.487179,4109.743589,4590.256410,3866.666667,3956.923077
224,4363.076923,4496.410256,4535.384615,4269.230769,4496.923076,4200.000000,4457.435897,4202.051282,4213.846153,4500.512820,4123.589743,4588.205128,3879.487180,3953.846154
225,4376.410256,4500.000000,4539.487179,4266.153846,4496.410256,4199.487179,4451.282051,4204.615384,4222.051282,4502.051282,4127.179487,4595.384615,3883.076924,3971.282052
226,4389.230769,4503.589743,4548.205128,4264.102564,4502.051282,4201.025641,4453.333333,4213.333333,4229.230769,4518.461538,4132.820512,4600.000000,3880.000000,3992.307693
227,4381.025641,4504.615384,4550.256410,4272.820512,4509.743589,4203.589743,4459.487179,4218.974358,4235.897435,4532.307692,4142.051282,4597.948717,3880.000000,3979.487180
228,4375.384615,4501.025641,4546.153846,4274.358974,4503.076923,4202.051282,4458.974358,4212.820512,4237.435897,4521.538461,4138.461538,4598.461538,3887.692308,3965.641026
229,4380.000000,4493.333333,4542.051282,4262.051282,4491.282051,4200.000000,4454.871794,4208.205128,4223.589743,4507.179487,4128.717948,4597.948717,3889.230770,3975.384616
230,4378.974358,4491.794871,4541.538461,4259.487179,4494.358974,4201.025641,4457.948717,4211.794871,4218.461538,4505.128205,4124.102564,4597.435897,3877.435898,3978.461539
231,4376.410256,4497.948717,4548.717948,4269.743589,4501.025641,4202.051282,4461.025641,4216.923076,4232.307692,4511.282051,4121.025641,4604.102564,3879.487180,3971.794872
232,4382.051282,4498.974358,4552.820512,4268.717948,4500.000000,4200.512820,4458.974358,4214.358974,4229.230769,4518.461538,4126.666666,4607.692307,3896.410257,3975.384616
233,4385.641025,4494.871794,4544.102564,4262.564102,4495.897435,4199.487179,4458.974358,4207.692307,4214.871794,4515.384615,4136.410256,4604.102564,3895.384616,3974.871795
234,4385.128205,4496.923076,4547.692307,4264.102564,4495.384615,4201.538461,4461.025641,4211.794871,4226.153846,4511.794871,4141.538461,4607.692307,3884.102565,3968.717949
235,4386.666666,4500.512820,4560.512820,4267.179487,4498.461538,4205.128205,4461.538461,4218.974358,4242.051282,4515.897435,4140.512820,4612.820512,3885.641026,3975.384616
236,4382.564102,4499.487179,4549.230769,4262.564102,4498.974358,4203.076923,4461.538461,4215.384615,4230.769230,4513.846153,4131.794871,4604.615384,3881.025642,3978.461539
237,4383.076923,4493.846153,4534.358974,4254.871794,4495.897435,4199.487179,4454.871794,4210.769230,4224.102564,4504.615384,4123.589743,4597.948717,3873.333334,3974.871795
238,4393.333333,4488.717948,4541.025641,4252.307692,4495.384615,4201.025641,4451.282051,4214.871794,4234.358974,4513.846153,4124.102564,4602.051282,3874.871795,3980.000000
239,4393.846153,4492.307692,4542.564102,4252.820512,4500.000000,4201.538461,4455.384615,4215.384615,4229.230769,4525.641025,4128.717948,4601.025641,3866.153847,3980.512821
240,4380.512820,4492.820512,4536.410256,4249.230769,4495.897435,4201.538461,4450.256410,4210.256410,4215.897435,4512.307692,4127.692307,4595.384615,3850.769231,3969.743590
241,4376.410256,4487.692307,4535.897435,4245.128205,4487.179487,4197.948717,4445.641025,4209.743589,4220.512820,4497.948717,4116.923076,4594.358974,3847.179488,3965.128206
242,4388.205128,4490.769230,4541.025641,4253.333333,4488.205128,4193.333333,4452.307692,4217.435897,4230.256410,4512.820512,4110.769230,4598.974358,3851.282052,3973.333334
243,4386.666666,4491.282051,4540.000000,4261.538461,4487.179487,4192.820512,4449.743589,4218.461538,4222.051282,4522.564102,4120.512820,4598.974358,3850.256411,3975.384616
244,4373.846153,4478.974358,4533.333333,4251.794871,4481.538461,4188.717948,4442.564102,4206.153846,4209.230769,4504.615384,4126.666666,4591.282051,3844.102565,3964.102565
245,4375.897435,4479.487179,4534.358974,4250.256410,4483.076923,4191.282051,4454.358974,4208.205128,4217.948717,4500.512820,4120.000000,4594.358974,3843.589744,3964.615385
246,4383.076923,4490.769230,4541.025641,4261.025641,4489.743589,4198.974358,4465.128205,4224.102564,4231.282051,4517.435897,4118.974358,4606.153846,3848.717949,3977.948718
247,4381.025641,4485.128205,4538.461538,4257.948717,4492.307692,4195.897435,4453.846153,4223.589743,4225.641025,4518.461538,4122.051282,4602.564102,3849.743590,3978.461539
248,4383.589743,4482.051282,4533.333333,4251.794871,4492.307692,4192.307692,4445.128205,4213.846153,4216.410256,4506.153846,4122.564102,4596.410256,3848.205129,3969.230770
249,4388.205128,4489.230769,4537.948717,4256.923076,4488.205128,4195.384615,4448.205128,4215.897435,4213.846153,4498.974358,4120.000000,4601.538461,3848.717949,3967.692308
250,4383.589743,4485.641025,4538.461538,4252.307692,4481.538461,4196.410256,4447.692307,4215.384615,4206.666666,4491.794871,4110.256410,4598.974358,3843.589744,3969.230770
251,4382.564102,4481.025641,4531.794871,4239.487179,4482.564102,4190.769230,4441.025641,4207.179487,4201.538461,4488.205128,4105.128205,4592.820512,3834.358975,3965.128206
252,4387.692307,4489.230769,4532.307692,4243.589743,4489.743589,4192.307692,4442.051282,4210.769230,4212.307692,4502.564102,4117.948717,4600.000000,3841.025642,3970.769231
253,4392.820512,4497.435897,4541.025641,4255.897435,4490.256410,4196.923076,4451.794871,4224.102564,4226.666666,4521.538461,4133.333333,4608.717948,3861.025642,3985.128206
254,4395.897435,4496.923076,4545.641025,4254.358974,4487.692307,4197.948717,4450.256410,4228.205128,4228.717948,4520.512820,4123.076923,4604.102564,3863.589744,3982.564103
255,4392.820512,4495.897435,4541.538461,4248.717948,4488.717948,4195.384615,4440.512820,4217.948717,4225.641025,4509.743589,4111.282051,4599.487179,3856.923077,3975.384616
256,4397.948717,4501.025641,4547.179487,4258.461538,4492.820512,4196.923076,4445.641025,4217.948717,4227.179487,4515.897435,4132.820512,4609.230769,3870.256411,3995.897436
