,AF3,F7,F3,FC5,T7,P7,O1,O2,P8,T8,FC6,F4,F8,AF4
0,4378.974358,4506.666666,4543.589743,4260.000000,4479.487179,4197.948717,4442.564102,4206.153846,4233.333333,4513.846153,4227.692307,4670.256410,4019.487179,4091.282051
1,4379.487179,4510.256410,4548.205128,4256.410256,4478.461538,4194.358974,4441.538461,4204.615384,4234.358974,4515.384615,4227.692307,4670.769230,4019.487179,4094.358974
2,4369.743589,4509.230769,4542.564102,4251.794871,4475.897435,4192.820512,4440.512820,4204.102564,4231.282051,4517.435897,4209.743589,4668.717948,4014.871794,4086.153846
3,4361.025641,4507.179487,4540.512820,4256.410256,4473.846153,4195.384615,4442.051282,4207.692307,4230.256410,4518.461538,4198.974358,4665.128205,4015.384615,4080.000000
4,4362.051282,4511.282051,4545.128205,4257.948717,4478.461538,4190.769230,4442.564102,4215.384615,4232.820512,4516.410256,4201.025641,4665.641025,4015.384615,4079.487179
5,4358.461538,4509.743589,4543.589743,4253.846153,4483.076923,4188.205128,4444.102564,4216.923076,4234.871794,4515.897435,4199.487179,4671.282051,4016.410256,4081.025641
6,4350.256410,4506.153846,4543.076923,4255.384615,4479.487179,4191.794871,4443.076923,4212.820512,4232.820512,4519.487179,4194.358974,4672.307692,4021.025641,4082.564102
7,4352.307692,4514.871794,4549.230769,4260.000000,4481.538461,4194.871794,4446.153846,4217.435897,4236.410256,4526.153846,4192.820512,4672.307692,4027.692307,4085.128205
8,4357.435897,4521.538461,4553.333333,4262.051282,4489.230769,4200.512820,4454.871794,4227.179487,4244.615384,4531.794871,4197.948717,4674.871794,4033.333333,4088.205128
9,4351.794871,4512.820512,4549.230769,4264.102564,4484.102564,4203.076923,4452.307692,4225.128205,4241.025641,4528.717948,4202.051282,4671.794871,4030.769230,4084.102564
10,4346.153846,4511.794871,4548.205128,4266.153846,4479.487179,4197.948717,4448.205128,4218.461538,4237.435897,4525.641025,4202.564102,4671.794871,4026.153846,4077.948717
11,4346.666666,4520.000000,4552.820512,4267.179487,4485.641025,4198.974358,4453.846153,4220.512820,4243.589743,4530.769230,4198.461538,4675.897435,4029.230769,4078.974358
12,4347.179487,4519.487179,4552.307692,4266.666666,4489.743589,4204.615384,4458.974358,4221.025641,4245.128205,4533.846153,4194.358974,4672.307692,4030.769230,4081.025641
13,4346.666666,4518.974358,4548.205128,4265.128205,4488.717948,4205.128205,4453.333333,4214.871794,4241.025641,4528.205128,4194.871794,4669.743589,4028.717948,4081.025641
14,4346.153846,4524.102564,4547.692307,4268.205128,4486.666666,4204.102564,4448.205128,4215.384615,4242.564102,4526.153846,4193.333333,4673.846153,4027.692307,4079.487179
15,4346.153846,4522.564102,4552.820512,4273.333333,4484.615384,4204.615384,4452.307692,4222.051282,4248.205128,4532.307692,4193.846153,4674.871794,4023.589743,4073.333333
16,4347.692307,4520.512820,4551.794871,4270.256410,4487.179487,4205.128205,4457.948717,4226.153846,4246.666666,4533.333333,4196.923076,4676.410256,4021.538461,4071.282051
17,4347.692307,4521.538461,4551.282051,4267.692307,4491.282051,4203.076923,4457.948717,4228.717948,4244.615384,4531.282051,4195.897435,4681.538461,4029.230769,4078.974358
18,4348.717948,4522.564102,4557.948717,4273.333333,4489.743589,4201.538461,4455.384615,4230.769230,4246.666666,4533.333333,4196.410256,4683.589743,4033.846153,4086.153846
19,4353.846153,4524.102564,4560.512820,4275.384615,4486.666666,4201.025641,4458.461538,4232.820512,4247.179487,4536.923076,4203.076923,4683.076923,4030.256410,4083.589743
20,4352.307692,4523.589743,4555.384615,4272.820512,4484.102564,4204.615384,4459.487179,4231.282051,4245.128205,4533.846153,4201.025641,4680.512820,4030.256410,4078.461538
21,4347.692307,4523.076923,4556.410256,4276.410256,4486.153846,4210.769230,4460.000000,4230.256410,4246.666666,4535.897435,4198.461538,4681.025641,4036.410256,4077.948717
22,4350.256410,4526.153846,4561.538461,4280.512820,4492.820512,4209.743589,4461.538461,4235.897435,4252.820512,4540.512820,4204.102564,4684.102564,4038.974358,4077.948717
23,4352.820512,4525.641025,4559.487179,4274.358974,4491.282051,4204.102564,4460.000000,4240.512820,4253.333333,4537.948717,4201.538461,4682.051282,4031.282051,4074.358974
24,4350.256410,4524.615384,4557.948717,4277.435897,4485.641025,4205.641025,4460.512820,4237.435897,4248.205128,4535.897435,4198.974358,4683.076923,4026.153846,4075.384615
25,4345.128205,4526.153846,4558.461538,4279.487179,4487.692307,4205.128205,4459.487179,4233.333333,4243.589743,4534.871794,4201.538461,4685.128205,4029.230769,4077.435897
26,4338.461538,4521.025641,4551.282051,4267.179487,4486.153846,4197.435897,4453.846153,4228.717948,4241.538461,4528.205128,4193.333333,4680.000000,4027.692307,4070.769230
27,4341.538461,4521.025641,4548.205128,4267.692307,4479.487179,4197.435897,4452.820512,4228.205128,4246.153846,4527.692307,4189.743589,4678.974358,4023.589743,4069.230769
28,4352.820512,4535.384615,4557.948717,4282.564102,4482.564102,4207.179487,4458.974358,4237.948717,4255.897435,4536.923076,4205.128205,4687.692307,4031.794871,4078.974358
29,4353.846153,4536.410256,4559.487179,4283.589743,4492.820512,4206.666666,4462.051282,4244.615384,4257.435897,4542.051282,4209.743589,4688.205128,4038.461538,4082.564102
30,4351.282051,4528.205128,4553.846153,4277.435897,4491.282051,4203.589743,4461.025641,4240.512820,4254.358974,4542.564102,4204.615384,4685.128205,4034.871794,4079.487179
31,4355.897435,4532.307692,4557.948717,4281.025641,4489.230769,4208.205128,4462.051282,4243.589743,4260.000000,4547.692307,4211.282051,4690.769230,4035.384615,4083.076923
32,4354.358974,4531.794871,4561.025641,4283.589743,4494.871794,4208.717948,4462.564102,4251.282051,4262.051282,4545.128205,4215.897435,4690.769230,4038.461538,4082.051282
33,4350.769230,4526.666666,4555.897435,4282.051282,4491.794871,4203.076923,4462.051282,4248.205128,4257.435897,4542.564102,4212.307692,4686.666666,4034.358974,4077.435897
34,4359.487179,4529.743589,4557.948717,4284.102564,4487.692307,4205.641025,4463.076923,4247.692307,4262.051282,4549.230769,4216.923076,4690.256410,4033.846153,4082.564102
35,4364.102564,4532.820512,4558.974358,4283.076923,4493.846153,4206.153846,4462.051282,4252.307692,4268.717948,4549.743589,4223.589743,4690.256410,4036.923076,4084.615384
36,4355.897435,4528.717948,4550.769230,4278.974358,4487.179487,4198.461538,4459.487179,4248.205128,4260.000000,4541.538461,4215.384615,4683.589743,4029.743589,4074.358974
37,4354.358974,4527.692307,4548.205128,4273.846153,4477.435897,4198.461538,4459.487179,4240.512820,4251.794871,4541.538461,4206.153846,4681.025641,4023.076923,4066.666666
38,4353.333333,4523.589743,4547.179487,4269.230769,4481.025641,4199.487179,4458.461538,4236.410256,4251.794871,4544.102564,4206.153846,4677.948717,4017.435897,4062.051282
39,4345.128205,4516.923076,4539.487179,4266.666666,4479.487179,4194.358974,4454.871794,4235.384615,4251.794871,4535.384615,4203.589743,4670.769230,4009.230769,4056.923076
40,4345.641025,4520.512820,4536.923076,4270.769230,4478.974358,4199.487179,4458.974358,4234.871794,4251.794871,4525.128205,4197.435897,4668.717948,4011.794871,4062.564102
41,4349.230769,4519.487179,4541.538461,4273.333333,4485.641025,4202.564102,4460.000000,4231.282051,4245.641025,4526.153846,4194.358974,4668.717948,4016.410256,4065.128205
42,4345.641025,4512.307692,4541.538461,4268.717948,4481.538461,4191.794871,4452.820512,4226.666666,4238.461538,4528.717948,4198.461538,4667.179487,4014.871794,4058.974358
43,4346.666666,4515.897435,4541.538461,4267.692307,4480.512820,4190.256410,4454.358974,4231.282051,4241.538461,4523.589743,4204.615384,4669.230769,4015.384615,4063.076923
44,4348.717948,4518.974358,4541.025641,4267.692307,4485.641025,4197.435897,4457.948717,4232.307692,4245.128205,4520.000000,4202.564102,4668.205128,4015.897435,4067.692307
45,4341.025641,4511.282051,4533.846153,4264.102564,4474.871794,4190.769230,4448.205128,4224.102564,4238.461538,4523.076923,4193.846153,4661.025641,4008.205128,4056.410256
46,4339.487179,4512.307692,4530.256410,4262.564102,4466.153846,4181.538461,4441.538461,4220.512820,4235.897435,4522.051282,4194.871794,4657.435897,4004.615384,4051.282051
47,4347.179487,4520.512820,4536.923076,4267.692307,4477.435897,4184.615384,4446.153846,4222.051282,4240.512820,4521.025641,4202.051282,4661.025641,4009.743589,4058.974358
48,4345.641025,4517.435897,4538.461538,4269.230769,4481.538461,4188.205128,4444.615384,4218.974358,4234.358974,4523.589743,4199.487179,4663.076923,4008.205128,4058.974358
49,4340.512820,4512.820512,4534.871794,4265.641025,4472.307692,4183.076923,4439.487179,4212.307692,4226.153846,4518.974358,4195.897435,4658.974358,4004.102564,4054.358974
50,4344.615384,4513.333333,4534.871794,4266.153846,4471.282051,4180.512820,4442.051282,4212.820512,4230.256410,4514.358974,4202.051282,4657.948717,4007.692307,4057.948717
51,4341.538461,4507.692307,4529.743589,4260.000000,4469.230769,4175.897435,4440.512820,4213.846153,4231.282051,4511.794871,4200.000000,4655.384615,4003.076923,4057.435897
52,4333.333333,4501.538461,4524.615384,4251.794871,4459.487179,4169.230769,4434.871794,4211.282051,4226.153846,4509.230769,4187.692307,4646.666666,3993.333334,4050.769230
53,4340.512820,4510.769230,4531.794871,4256.410256,4467.692307,4181.538461,4442.564102,4221.025641,4232.820512,4514.871794,4191.794871,4649.230769,4000.000000,4055.897435
54,4350.769230,4520.000000,4537.948717,4265.128205,4483.076923,4198.461538,4452.820512,4229.743589,4242.051282,4522.564102,4203.589743,4657.435897,4011.794871,4064.102564
55,4351.282051,4514.358974,4535.384615,4266.153846,4482.564102,4193.846153,4452.307692,4226.666666,4242.051282,4524.102564,4202.564102,4649.743589,4007.179487,4059.487179
56,4352.820512,4509.743589,4536.410256,4265.128205,4481.538461,4190.256410,4456.923076,4228.717948,4244.615384,4524.102564,4202.051282,4645.128205,4006.153846,4057.948717
57,4354.358974,4513.846153,4538.974358,4263.076923,4480.512820,4195.384615,4459.487179,4233.333333,4243.589743,4518.461538,4206.153846,4651.282051,4008.717948,4061.025641
58,4346.666666,4509.230769,4531.282051,4255.897435,4467.692307,4188.205128,4448.205128,4226.153846,4229.230769,4506.666666,4201.025641,4641.538461,3998.974359,4054.358974
59,4343.589743,4502.564102,4528.205128,4256.923076,4464.615384,4182.564102,4448.717948,4224.102564,4229.230769,4508.717948,4193.846153,4632.820512,3992.307693,4051.282051
60,4351.794871,4507.692307,4536.410256,4260.512820,4475.384615,4191.282051,4462.564102,4229.743589,4242.051282,4516.410256,4196.410256,4641.025641,3996.410257,4056.923076
61,4354.871794,4510.769230,4535.897435,4252.820512,4474.871794,4192.307692,4460.000000,4225.641025,4235.897435,4511.282051,4196.410256,4640.512820,3995.897436,4055.897435
62,4348.205128,4501.025641,4528.717948,4245.641025,4464.102564,4182.564102,4446.153846,4217.435897,4224.102564,4503.589743,4190.769230,4631.282051,3988.205129,4052.307692
63,4344.102564,4492.820512,4528.205128,4246.153846,4462.564102,4177.948717,4443.076923,4212.307692,4224.102564,4501.025641,4189.230769,4627.692307,3981.025642,4049.743589
64,4347.179487,4496.923076,4527.692307,4248.717948,4466.153846,4178.974358,4442.051282,4208.717948,4217.435897,4495.897435,4188.717948,4624.102564,3980.000000,4042.564102
65,4351.794871,4507.179487,4528.205128,4253.846153,4467.179487,4183.589743,4440.000000,4212.820512,4214.358974,4492.820512,4188.717948,4623.589743,3985.641026,4043.589743
66,4358.974358,4506.153846,4536.410256,4261.025641,4470.769230,4187.179487,4445.128205,4221.025641,4228.717948,4504.615384,4197.948717,4632.307692,3995.897436,4057.948717
67,4357.435897,4492.307692,4537.948717,4254.871794,4471.282051,4182.051282,4442.051282,4220.512820,4233.333333,4509.230769,4204.615384,4637.435897,3995.897436,4055.897435
68,4348.205128,4485.641025,4526.666666,4245.641025,4462.051282,4172.307692,4428.205128,4214.358974,4223.589743,4498.461538,4194.358974,4628.205128,3982.051283,4039.487179
69,4352.307692,4495.897435,4525.128205,4251.282051,4459.487179,4173.333333,4430.769230,4212.820512,4226.153846,4497.948717,4187.692307,4622.564102,3977.948718,4042.564102
70,4364.102564,4503.076923,4533.333333,4254.871794,4469.230769,4185.128205,4444.615384,4214.358974,4231.794871,4504.615384,4199.487179,4629.230769,3990.769231,4056.410256
71,4362.051282,4498.974358,4530.256410,4251.794871,4471.282051,4186.666666,4444.102564,4212.307692,4227.692307,4502.051282,4203.589743,4630.769230,3992.820513,4055.897435
72,4360.000000,4501.538461,4526.153846,4253.846153,4469.230769,4183.589743,4440.000000,4209.743589,4226.666666,4502.051282,4200.000000,4625.128205,3984.102565,4051.282051
73,4367.692307,4508.205128,4530.256410,4255.897435,4473.846153,4187.692307,4444.102564,4208.205128,4228.205128,4506.666666,4201.538461,4627.692307,3985.128206,4056.410256
74,4368.717948,4506.666666,4531.282051,4252.307692,4474.358974,4190.769230,4445.128205,4209.743589,4228.717948,4503.589743,4203.589743,4629.743589,3992.307693,4056.410256
75,4367.692307,4506.153846,4528.205128,4253.333333,4472.820512,4188.717948,4443.589743,4212.307692,4228.717948,4500.000000,4202.564102,4626.666666,3991.282052,4054.358974
76,4370.769230,4506.666666,4527.179487,4254.871794,4467.179487,4185.641025,4441.538461,4206.666666,4227.692307,4500.512820,4201.025641,4627.179487,3985.128206,4055.384615
77,4372.820512,4503.076923,4528.717948,4251.282051,4458.461538,4182.051282,4433.846153,4198.974358,4224.102564,4498.461538,4205.641025,4631.282051,3979.487180,4056.410256
78,4373.846153,4503.076923,4529.743589,4250.769230,4461.538461,4182.051282,4428.717948,4201.538461,4220.512820,4494.358974,4208.205128,4630.256410,3980.000000,4056.923076
79,4374.358974,4506.666666,4530.256410,4254.358974,4472.820512,4184.615384,4434.871794,4203.076923,4221.538461,4495.384615,4203.076923,4625.641025,3984.102565,4055.384615
80,4374.358974,4501.025641,4530.256410,4251.794871,4471.282051,4183.589743,4440.512820,4198.974358,4221.025641,4498.974358,4196.410256,4624.102564,3981.025642,4052.820512
81,4377.948717,4495.384615,4530.769230,4248.205128,4469.230769,4186.153846,4438.461538,4201.538461,4218.974358,4499.487179,4200.512820,4628.717948,3977.948718,4055.384615
82,4380.512820,4501.025641,4532.820512,4250.769230,4479.487179,4193.333333,4440.512820,4206.153846,4221.538461,4496.410256,4210.769230,4632.820512,3982.564103,4061.025641
83,4381.025641,4506.666666,4531.282051,4255.384615,4480.512820,4190.256410,4445.128205,4203.076923,4226.153846,4497.435897,4211.794871,4629.743589,3986.666667,4062.564102
84,4385.128205,4505.641025,4528.205128,4256.410256,4471.282051,4187.692307,4441.025641,4203.076923,4225.128205,4500.512820,4208.717948,4629.743589,3987.692308,4063.589743
85,4393.846153,4506.666666,4531.794871,4263.589743,4474.358974,4194.358974,4440.000000,4210.769230,4228.717948,4507.692307,4212.307692,4634.358974,3992.820513,4069.230769
86,4393.846153,4509.743589,4536.410256,4266.666666,4482.051282,4192.820512,4442.564102,4210.769230,4239.487179,4511.794871,4219.487179,4633.846153,4001.025641,4071.794871
87,4383.076923,4507.179487,4527.179487,4251.794871,4475.897435,4182.564102,4432.820512,4200.000000,4233.333333,4503.589743,4215.384615,4625.128205,3993.846154,4064.102564
88,4377.435897,4501.538461,4514.358974,4244.102564,4468.717948,4183.076923,4425.641025,4196.410256,4221.538461,4501.025641,4208.717948,4616.923076,3980.512821,4054.358974
89,4378.974358,4497.948717,4514.358974,4247.692307,4466.666666,4185.641025,4427.179487,4200.000000,4224.102564,4506.666666,4208.717948,4618.461538,3980.512821,4052.307692
90,4380.512820,4500.000000,4518.461538,4249.230769,4469.230769,4181.025641,4425.128205,4197.435897,4225.641025,4502.051282,4207.692307,4618.974358,3986.153847,4057.948717
91,4384.102564,4509.230769,4516.410256,4250.256410,4481.025641,4188.717948,4432.820512,4195.897435,4224.102564,4495.897435,4204.615384,4614.871794,3986.666667,4059.487179
92,4382.051282,4503.589743,4511.282051,4247.179487,4485.128205,4198.974358,4442.564102,4198.461538,4227.179487,4501.025641,4204.102564,4613.846153,3981.538462,4049.743589
93,4377.948717,4489.743589,4513.333333,4243.589743,4477.435897,4192.820512,4435.897435,4200.512820,4229.743589,4505.128205,4207.179487,4615.897435,3978.461539,4048.717948
94,4384.615384,4495.384615,4516.923076,4248.205128,4472.307692,4183.589743,4426.666666,4199.487179,4221.025641,4495.897435,4205.128205,4615.897435,3978.974359,4057.948717
95,4392.820512,4507.179487,4515.384615,4250.256410,4472.820512,4184.102564,4427.179487,4193.846153,4214.871794,4488.205128,4198.974358,4615.384615,3978.974359,4056.410256
96,4392.307692,4506.153846,4514.871794,4251.282051,4475.897435,4187.179487,4428.205128,4190.769230,4220.512820,4488.717948,4202.564102,4617.435897,3977.948718,4052.307692
97,4385.641025,4500.512820,4517.435897,4255.384615,4476.410256,4184.615384,4426.666666,4191.794871,4219.487179,4496.923076,4211.282051,4617.948717,3974.358975,4055.384615
98,4386.153846,4501.538461,4517.435897,4252.307692,4474.871794,4184.102564,4427.179487,4189.230769,4213.846153,4503.076923,4211.794871,4614.871794,3972.820513,4054.871794
99,4397.435897,4507.179487,4520.000000,4254.358974,4479.487179,4188.205128,4432.307692,4194.871794,4220.000000,4502.564102,4211.282051,4615.897435,3978.974359,4059.487179
100,4400.000000,4503.589743,4521.025641,4258.974358,4475.384615,4185.128205,4433.333333,4200.000000,4220.000000,4491.794871,4210.769230,4618.974358,3982.564103,4063.589743
101,4390.769230,4494.358974,4514.871794,4251.282051,4462.051282,4176.410256,4425.128205,4190.256410,4208.717948,4481.538461,4206.666666,4616.923076,3977.948718,4054.871794
102,4397.435897,4498.461538,4520.000000,4252.820512,4469.743589,4183.589743,4429.230769,4190.256410,4214.358974,4490.256410,4215.897435,4616.923076,3981.538462,4056.923076
103,4415.384615,4510.769230,4534.358974,4265.641025,4486.666666,4200.000000,4444.102564,4207.179487,4234.358974,4506.153846,4230.256410,4628.205128,3994.871795,4075.384615
104,4415.897435,4511.282051,4534.871794,4266.153846,4489.230769,4205.128205,4447.179487,4209.743589,4238.974358,4513.333333,4231.282051,4632.307692,3997.948718,4079.487179
105,4412.307692,4506.666666,4530.256410,4261.538461,4484.102564,4197.948717,4437.435897,4197.435897,4229.230769,4505.641025,4225.128205,4624.615384,3993.846154,4070.256410
106,4415.384615,4507.692307,4528.205128,4260.512820,4482.051282,4191.794871,4430.769230,4196.923076,4223.589743,4496.410256,4223.589743,4622.051282,3993.846154,4068.717948
107,4414.358974,4508.205128,4528.205128,4259.487179,4484.615384,4192.820512,4433.333333,4203.076923,4227.179487,4501.538461,4223.589743,4625.641025,3990.769231,4071.794871
108,4409.743589,4503.076923,4523.589743,4257.948717,4481.538461,4190.769230,4432.820512,4200.000000,4224.102564,4502.051282,4218.461538,4621.025641,3980.512821,4067.179487
109,4410.769230,4497.948717,4519.487179,4252.820512,4474.871794,4189.230769,4428.717948,4191.282051,4218.461538,4494.358974,4215.897435,4615.897435,3974.871795,4061.538461
110,4413.333333,4501.538461,4523.589743,4251.794871,4477.435897,4192.820512,4432.820512,4193.846153,4223.589743,4492.820512,4224.615384,4623.589743,3984.102565,4066.666666
111,4414.358974,4507.692307,4526.153846,4256.410256,4485.641025,4193.846153,4436.410256,4202.564102,4225.641025,4495.384615,4230.256410,4629.743589,3994.358975,4074.871794
112,4414.358974,4505.641025,4522.564102,4259.487179,4483.589743,4187.179487,4429.230769,4200.512820,4222.564102,4496.410256,4225.128205,4626.153846,3992.307693,4072.307692
113,4413.333333,4503.589743,4523.589743,4256.923076,4482.051282,4182.564102,4423.589743,4196.410256,4224.102564,4500.000000,4223.589743,4625.128205,3988.205129,4069.230769
114,4412.307692,4508.205128,4530.256410,4255.384615,4488.717948,4188.717948,4429.230769,4201.538461,4228.205128,4504.615384,4223.589743,4630.769230,3993.846154,4072.820512
115,4409.230769,4506.666666,4528.717948,4254.871794,4488.717948,4195.384615,4436.923076,4202.051282,4224.102564,4501.538461,4215.897435,4631.282051,3995.897436,4071.282051
116,4404.615384,4506.666666,4527.179487,4255.384615,4489.743589,4196.410256,4437.435897,4197.948717,4219.487179,4497.435897,4210.769230,4628.717948,3993.846154,4068.205128
117,4404.102564,4518.461538,4530.256410,4258.461538,4500.000000,4194.871794,4436.410256,4199.487179,4221.025641,4494.871794,4206.153846,4630.769230,4000.512820,4072.307692
118,4402.564102,4524.102564,4529.743589,4258.974358,4504.615384,4194.871794,4436.923076,4201.025641,4224.102564,4498.974358,4196.923076,4633.846153,4005.641025,4069.743589
119,4396.923076,4522.051282,4530.769230,4262.051282,4498.974358,4196.410256,4439.487179,4200.512820,4226.666666,4508.205128,4193.333333,4635.384615,4007.179487,4066.153846
120,4398.974358,4527.692307,4539.487179,4268.205128,4506.153846,4198.461538,4442.051282,4208.205128,4232.820512,4513.333333,4197.948717,4640.512820,4022.051282,4075.384615
121,4402.051282,4531.794871,4545.128205,4271.282051,4520.000000,4204.102564,4446.153846,4219.487179,4241.025641,4522.564102,4206.666666,4648.717948,4037.948717,4082.051282
122,4394.871794,4529.230769,4541.025641,4268.717948,4515.384615,4203.589743,4446.153846,4218.974358,4236.923076,4527.692307,4204.102564,4649.743589,4031.794871,4072.820512
123,4386.666666,4529.230769,4540.512820,4268.717948,4507.692307,4196.923076,4441.025641,4212.820512,4231.794871,4520.000000,4193.846153,4645.641025,4022.564102,4066.153846
124,4391.282051,4532.820512,4546.153846,4275.897435,4514.871794,4200.000000,4448.205128,4218.461538,4242.564102,4520.512820,4195.897435,4648.205128,4032.307692,4074.871794
125,4393.846153,4536.923076,4546.666666,4278.974358,4520.512820,4209.230769,4459.487179,4229.743589,4252.307692,4535.384615,4208.205128,4652.820512,4043.076923,4083.076923
126,4384.615384,4536.923076,4543.589743,4273.846153,4520.000000,4208.205128,4456.410256,4227.692307,4249.743589,4537.435897,4207.179487,4651.794871,4037.435897,4079.487179
127,4380.000000,4532.307692,4544.102564,4272.307692,4523.076923,4205.641025,4450.769230,4222.564102,4245.641025,4529.743589,4194.871794,4649.230769,4030.256410,4074.871794
128,4385.128205,4533.333333,4549.230769,4281.025641,4527.179487,4214.871794,4456.923076,4228.717948,4247.179487,4533.333333,4193.846153,4652.307692,4036.923076,4078.461538
129,4385.128205,4538.461538,4550.256410,4287.692307,4527.692307,4215.384615,4462.051282,4234.871794,4251.794871,4533.846153,4205.128205,4655.384615,4044.102564,4079.487179
130,4377.948717,4538.974358,4544.615384,4281.538461,4525.128205,4208.717948,4459.487179,4231.794871,4249.743589,4530.256410,4206.666666,4654.871794,4037.435897,4074.871794
131,4373.333333,4533.846153,4541.538461,4277.435897,4518.461538,4205.641025,4452.307692,4224.102564,4244.102564,4531.794871,4196.410256,4653.846153,4030.256410,4072.307692
132,4376.410256,4529.743589,4544.102564,4280.512820,4513.846153,4206.666666,4450.769230,4225.128205,4243.589743,4533.333333,4195.384615,4653.333333,4033.333333,4073.846153
133,4381.025641,4534.358974,4546.666666,4280.512820,4518.974358,4208.205128,4454.871794,4231.282051,4248.205128,4532.820512,4205.641025,4654.358974,4040.512820,4074.358974
134,4378.461538,4540.512820,4547.692307,4278.974358,4520.512820,4207.692307,4452.820512,4226.153846,4251.282051,4533.333333,4206.153846,4655.897435,4041.538461,4072.820512
135,4374.358974,4535.897435,4545.641025,4277.948717,4515.384615,4204.102564,4450.256410,4222.564102,4247.692307,4533.846153,4203.589743,4658.974358,4039.487179,4072.820512
136,4376.923076,4535.384615,4545.641025,4279.487179,4517.435897,4203.589743,4452.307692,4227.179487,4245.128205,4534.358974,4207.692307,4660.000000,4037.948717,4073.333333
137,4377.435897,4539.487179,4546.153846,4282.564102,4517.948717,4203.076923,4448.717948,4225.641025,4247.692307,4534.358974,4206.666666,4655.897435,4031.282051,4069.230769
138,4369.743589,4536.410256,4544.102564,4280.512820,4511.794871,4197.435897,4441.538461,4220.512820,4247.692307,4532.820512,4198.461538,4651.282051,4027.692307,4062.564102
139,4367.179487,4535.897435,4545.641025,4280.000000,4518.461538,4200.000000,4444.102564,4224.102564,4246.666666,4536.923076,4197.948717,4651.794871,4034.871794,4066.153846
140,4372.307692,4537.948717,4550.256410,4282.564102,4525.641025,4205.128205,4450.769230,4228.205128,4252.820512,4540.000000,4205.641025,4654.358974,4042.564102,4072.820512
141,4374.358974,4538.461538,4549.743589,4282.564102,4522.564102,4205.641025,4458.461538,4230.256410,4256.923076,4536.410256,4208.205128,4654.871794,4042.051282,4069.230769
142,4371.794871,4538.974358,4547.179487,4282.051282,4525.128205,4206.666666,4460.000000,4232.307692,4253.333333,4533.333333,4209.743589,4657.435897,4038.461538,4064.102564
143,4366.153846,4531.282051,4544.102564,4280.000000,4522.051282,4202.051282,4448.717948,4225.641025,4247.179487,4528.205128,4203.589743,4654.871794,4032.307692,4063.076923
144,4358.461538,4519.487179,4537.435897,4274.358974,4505.641025,4194.871794,4442.051282,4218.974358,4245.128205,4523.076923,4190.769230,4646.666666,4027.692307,4057.948717
145,4356.410256,4524.102564,4534.871794,4274.358974,4506.153846,4194.871794,4445.641025,4220.512820,4246.153846,4529.743589,4189.230769,4646.153846,4029.230769,4054.358974
146,4360.512820,4532.820512,4535.897435,4279.487179,4515.897435,4200.000000,4446.153846,4217.948717,4245.641025,4532.820512,4197.948717,4650.256410,4025.128205,4055.897435
147,4362.564102,4527.179487,4538.461538,4279.487179,4512.820512,4202.051282,4444.102564,4215.384615,4243.589743,4527.179487,4201.538461,4650.769230,4021.025641,4056.410256
148,4366.666666,4528.205128,4543.589743,4282.051282,4514.358974,4201.025641,4450.769230,4221.025641,4248.717948,4531.794871,4206.666666,4652.820512,4031.794871,4061.538461
149,4371.794871,4536.410256,4542.051282,4286.153846,4519.487179,4202.564102,4457.948717,4225.128205,4250.256410,4536.923076,4214.358974,4655.897435,4037.435897,4067.179487
150,4369.743589,4536.410256,4535.897435,4283.076923,4513.333333,4203.589743,4455.384615,4222.564102,4244.615384,4526.666666,4206.666666,4653.333333,4027.179487,4064.615384
151,4370.769230,4534.871794,4540.000000,4281.025641,4511.794871,4203.076923,4455.897435,4226.153846,4247.692307,4526.666666,4202.051282,4651.282051,4024.615384,4065.128205
152,4377.948717,4538.461538,4547.692307,4283.076923,4517.948717,4203.589743,4457.948717,4232.820512,4256.923076,4541.538461,4216.923076,4658.461538,4037.948717,4072.307692
153,4378.461538,4538.974358,4545.641025,4281.025641,4515.897435,4202.564102,4452.820512,4231.794871,4258.461538,4542.051282,4221.025641,4663.076923,4042.051282,4073.846153
154,4377.435897,4534.358974,4546.666666,4276.923076,4509.743589,4201.025641,4446.153846,4229.230769,4255.897435,4533.333333,4215.384615,4663.076923,4040.000000,4074.871794
155,4377.435897,4529.230769,4551.282051,4277.948717,4514.358974,4200.512820,4446.153846,4228.717948,4253.846153,4536.923076,4217.435897,4662.564102,4043.076923,4076.410256
156,4370.769230,4520.512820,4544.615384,4275.384615,4515.897435,4197.948717,4444.102564,4223.076923,4246.153846,4534.871794,4212.820512,4657.435897,4034.358974,4068.205128
157,4373.333333,4524.615384,4542.051282,4276.410256,4510.769230,4197.948717,4443.076923,4220.512820,4243.076923,4526.153846,4202.051282,4656.923076,4025.128205,4066.153846
158,4386.666666,4540.512820,4551.794871,4288.205128,4511.794871,4203.076923,4445.128205,4225.641025,4252.307692,4527.179487,4211.794871,4665.128205,4032.820512,4076.923076
159,4384.102564,4537.948717,4552.307692,4286.153846,4512.820512,4199.487179,4444.102564,4225.128205,4250.769230,4525.128205,4218.974358,4661.538461,4033.333333,4072.820512
160,4370.769230,4521.538461,4542.051282,4272.820512,4506.666666,4190.769230,4441.025641,4215.897435,4236.410256,4516.923076,4203.076923,4649.230769,4018.974358,4058.974358
161,4373.846153,4526.666666,4543.076923,4275.897435,4506.666666,4195.897435,4441.538461,4215.384615,4233.333333,4518.974358,4202.564102,4653.846153,4026.153846,4063.076923
162,4384.615384,4539.487179,4551.282051,4287.179487,4517.435897,4200.512820,4446.666666,4223.076923,4241.025641,4525.641025,4220.000000,4663.589743,4042.051282,4077.435897
163,4380.512820,4531.794871,4551.282051,4281.538461,4512.307692,4194.358974,4444.615384,4224.102564,4241.025641,4525.641025,4220.000000,4657.435897,4033.333333,4074.871794
164,4378.461538,4528.717948,4553.333333,4274.358974,4500.000000,4192.820512,4442.564102,4225.641025,4243.076923,4526.153846,4213.846153,4656.923076,4028.205128,4067.692307
165,4392.307692,4540.000000,4560.512820,4280.512820,4509.743589,4202.051282,4454.358974,4234.358974,4251.282051,4535.897435,4223.589743,4669.230769,4046.666666,4076.923076
166,4399.487179,4541.025641,4562.051282,4284.102564,4517.435897,4207.179487,4462.564102,4235.384615,4251.282051,4540.000000,4232.820512,4671.282051,4053.333333,4087.179487
167,4390.769230,4532.820512,4556.923076,4282.564102,4511.282051,4204.615384,4454.358974,4226.153846,4245.641025,4528.205128,4226.666666,4662.564102,4041.025641,4081.025641
168,4385.128205,4533.333333,4544.102564,4281.025641,4508.205128,4201.025641,4447.179487,4223.076923,4241.025641,4514.871794,4220.000000,4657.948717,4033.846153,4070.256410
169,4386.666666,4533.846153,4530.769230,4278.974358,4504.102564,4195.897435,4445.128205,4224.102564,4231.794871,4516.410256,4219.487179,4656.410256,4030.256410,4070.256410
170,4385.128205,4529.230769,4528.205128,4278.974358,4497.948717,4192.820512,4444.615384,4225.128205,4229.743589,4522.564102,4220.512820,4656.410256,4028.717948,4075.384615
171,4384.615384,4527.179487,4535.384615,4280.000000,4501.538461,4194.871794,4449.743589,4230.256410,4245.641025,4525.641025,4223.589743,4661.025641,4034.871794,4077.948717
172,4387.692307,4526.666666,4536.923076,4278.461538,4506.153846,4199.487179,4451.282051,4232.307692,4253.333333,4529.230769,4227.179487,4664.615384,4036.923076,4078.461538
173,4389.230769,4525.641025,4532.307692,4276.923076,4503.589743,4203.589743,4446.153846,4228.205128,4246.153846,4527.692307,4225.641025,4660.512820,4029.230769,4076.410256
174,4384.615384,4522.051282,4526.153846,4274.358974,4501.025641,4197.948717,4443.076923,4224.615384,4240.512820,4517.948717,4216.410256,4652.307692,4018.974358,4070.256410
175,4384.102564,4521.025641,4527.692307,4274.871794,4496.410256,4191.794871,4444.615384,4224.102564,4242.051282,4513.846153,4215.384615,4653.846153,4021.025641,4072.820512
176,4393.846153,4529.743589,4538.974358,4280.512820,4496.923076,4195.897435,4447.179487,4228.205128,4249.230769,4517.948717,4226.666666,4664.615384,4030.769230,4085.128205
177,4398.974358,4535.897435,4542.564102,4282.051282,4503.589743,4198.974358,4447.179487,4231.282051,4250.256410,4524.615384,4230.256410,4668.205128,4033.333333,4086.153846
178,4397.435897,4528.717948,4536.923076,4280.512820,4500.512820,4195.897435,4444.102564,4228.205128,4247.692307,4526.666666,4223.589743,4661.025641,4027.692307,4077.435897
179,4394.358974,4520.000000,4532.307692,4280.512820,4493.333333,4194.358974,4441.538461,4223.076923,4244.102564,4519.487179,4217.948717,4654.871794,4018.461538,4071.282051
180,4386.666666,4517.948717,4526.153846,4271.282051,4488.717948,4190.256410,4437.948717,4213.846153,4232.307692,4509.743589,4210.769230,4648.205128,4007.179487,4064.615384
181,4384.615384,4517.435897,4521.025641,4267.179487,4488.717948,4187.179487,4436.410256,4210.256410,4226.153846,4506.666666,4204.102564,4644.615384,4003.589743,4064.615384
182,4391.794871,4520.000000,4526.666666,4276.410256,4495.897435,4197.435897,4443.589743,4217.948717,4234.871794,4505.641025,4209.230769,4649.230769,4009.230769,4069.230769
183,4393.333333,4523.076923,4531.794871,4274.358974,4497.948717,4203.589743,4448.205128,4222.564102,4238.974358,4505.641025,4218.461538,4647.692307,4011.282051,4068.205128
184,4392.820512,4524.102564,4528.205128,4266.666666,4493.846153,4200.000000,4444.615384,4220.512820,4235.384615,4513.846153,4218.461538,4646.666666,4009.743589,4067.179487
185,4391.794871,4518.461538,4523.076923,4271.282051,4492.307692,4200.000000,4443.076923,4218.974358,4236.923076,4515.897435,4211.282051,4647.179487,4007.692307,4068.205128
186,4384.615384,4510.769230,4517.948717,4269.230769,4487.179487,4197.435897,4443.589743,4211.794871,4231.794871,4503.076923,4205.641025,4638.461538,4001.025641,4059.487179
187,4387.179487,4513.333333,4519.487179,4259.487179,4483.076923,4196.410256,4442.564102,4208.717948,4224.102564,4501.025641,4210.769230,4637.435897,4001.538461,4055.897435
188,4399.487179,4523.076923,4527.692307,4264.102564,4491.282051,4203.589743,4446.153846,4218.461538,4232.307692,4510.769230,4218.974358,4650.769230,4012.307692,4067.179487
189,4401.025641,4523.076923,4529.230769,4272.307692,4496.410256,4204.615384,4451.794871,4220.512820,4240.512820,4509.743589,4217.435897,4652.820512,4017.435897,4072.820512
190,4396.923076,4516.923076,4522.051282,4269.743589,4485.641025,4201.025641,4449.230769,4215.384615,4235.897435,4503.076923,4214.358974,4645.128205,4012.307692,4069.230769
191,4396.923076,4516.410256,4518.974358,4269.230769,4479.487179,4198.974358,4443.076923,4213.333333,4227.692307,4501.025641,4218.974358,4645.641025,4007.179487,4066.153846
192,4402.564102,4521.538461,4526.666666,4276.923076,4483.589743,4199.487179,4444.615384,4214.871794,4232.820512,4502.564102,4223.589743,4650.769230,4009.230769,4070.256410
193,4408.205128,4524.615384,4534.358974,4278.974358,4484.615384,4202.564102,4449.230769,4220.000000,4242.564102,4508.205128,4226.153846,4653.846153,4015.384615,4076.923076
194,4410.256410,4523.589743,4531.794871,4274.871794,4484.102564,4203.589743,4446.666666,4221.025641,4237.948717,4509.743589,4228.717948,4655.384615,4019.487179,4079.487179
195,4410.256410,4521.025641,4529.230769,4272.820512,4486.153846,4200.512820,4442.564102,4216.410256,4228.205128,4503.076923,4229.743589,4654.358974,4018.461538,4080.000000
196,4405.128205,4515.384615,4530.256410,4269.230769,4482.051282,4200.000000,4443.076923,4212.307692,4228.205128,4501.025641,4224.102564,4651.282051,4012.820512,4074.871794
197,4398.974358,4506.153846,4530.256410,4263.076923,4473.846153,4199.487179,4442.564102,4210.769230,4229.743589,4505.128205,4214.871794,4649.230769,4002.564102,4064.102564
198,4398.461538,4503.589743,4527.692307,4263.589743,4472.307692,4194.871794,4438.461538,4207.692307,4224.615384,4497.948717,4214.871794,4648.205128,3992.307693,4060.000000
199,4402.564102,4510.256410,4525.641025,4269.743589,4474.358974,4195.897435,4437.435897,4201.025641,4215.897435,4486.666666,4217.948717,4641.025641,3992.820513,4063.076923
200,4401.025641,4514.871794,4525.641025,4272.307692,4475.897435,4198.461538,4436.923076,4198.974358,4212.820512,4481.025641,4212.307692,4635.897435,3999.487180,4064.102564
201,4397.435897,4512.307692,4525.641025,4268.205128,4474.871794,4196.410256,4431.282051,4201.025641,4216.410256,4482.051282,4212.307692,4637.948717,4000.000000,4063.589743
202,4398.974358,4508.205128,4524.102564,4264.102564,4471.282051,4197.435897,4428.205128,4198.974358,4214.358974,4484.615384,4215.897435,4637.435897,3993.846154,4063.076923
203,4398.461538,4504.615384,4520.512820,4261.025641,4469.743589,4194.871794,4431.282051,4194.871794,4206.153846,4481.538461,4207.692307,4631.794871,3987.692308,4056.923076
204,4390.769230,4500.000000,4515.897435,4256.410256,4465.128205,4192.307692,4432.307692,4200.512820,4210.256410,4482.051282,4204.615384,4629.230769,3984.615385,4054.358974
205,4391.282051,4498.974358,4514.358974,4256.410256,4456.923076,4193.333333,4430.256410,4207.692307,4223.076923,4492.820512,4214.871794,4631.282051,3987.179488,4059.487179
206,4409.743589,4509.743589,4519.487179,4266.666666,4460.512820,4195.897435,4433.846153,4212.307692,4229.230769,4501.025641,4221.025641,4636.410256,3995.384616,4065.641025
207,4417.948717,4518.974358,4524.615384,4270.769230,4468.717948,4196.923076,4434.871794,4214.871794,4226.153846,4492.820512,4221.538461,4638.974358,4002.051282,4070.256410
208,4409.743589,4513.333333,4525.128205,4264.615384,4464.615384,4194.871794,4430.769230,4206.666666,4220.000000,4485.641025,4221.538461,4637.948717,4003.076923,4070.256410
209,4417.948717,4514.358974,4529.230769,4270.256410,4464.615384,4198.974358,4436.923076,4203.589743,4223.589743,4494.358974,4225.641025,4645.641025,4005.641025,4076.410256
210,4429.743589,4522.051282,4534.358974,4278.461538,4472.307692,4202.051282,4444.615384,4214.358974,4232.820512,4504.102564,4232.307692,4653.846153,4007.179487,4085.641025
211,4418.974358,4513.846153,4530.256410,4269.230769,4464.102564,4193.846153,4434.358974,4213.846153,4227.179487,4496.923076,4230.769230,4648.205128,3999.487180,4079.487179
212,4410.769230,4504.102564,4525.128205,4263.076923,4449.743589,4186.153846,4425.641025,4203.076923,4217.435897,4486.666666,4222.564102,4642.564102,3994.871795,4068.717948
213,4425.641025,4515.384615,4533.846153,4276.923076,4456.410256,4198.461538,4436.923076,4210.256410,4227.692307,4496.923076,4228.717948,4654.871794,4004.102564,4082.564102
214,4436.923076,4524.615384,4541.538461,4286.153846,4472.307692,4208.717948,4447.692307,4223.076923,4240.000000,4512.820512,4244.102564,4665.641025,4013.846153,4100.000000
215,4427.692307,4512.820512,4537.435897,4276.923076,4470.769230,4202.564102,4443.589743,4216.923076,4235.384615,4509.230769,4247.179487,4656.923076,4012.820512,4089.230769
216,4419.487179,4498.461538,4529.743589,4266.153846,4459.487179,4198.974358,4437.435897,4205.641025,4232.820512,4496.410256,4243.076923,4649.743589,4006.666666,4076.923076
217,4418.461538,4493.333333,4527.692307,4264.102564,4455.897435,4195.384615,4431.794871,4203.076923,4230.256410,4489.743589,4237.435897,4652.307692,3998.461539,4077.948717
218,4414.871794,4492.820512,4523.076923,4263.589743,4452.307692,4186.666666,4427.179487,4199.487179,4215.897435,4482.564102,4223.589743,4645.128205,3989.230770,4070.256410
219,4413.846153,4493.846153,4516.410256,4261.538461,4444.102564,4180.000000,4426.153846,4194.871794,4207.692307,4478.974358,4217.435897,4635.897435,3986.153847,4063.589743
220,4421.025641,4498.974358,4521.538461,4264.102564,4446.153846,4185.128205,4425.128205,4198.461538,4218.461538,4483.589743,4230.769230,4645.128205,3992.307693,4077.435897
221,4431.282051,4506.666666,4534.358974,4272.307692,4460.000000,4197.435897,4431.282051,4207.179487,4228.717948,4491.282051,4242.564102,4660.000000,4003.589743,4090.769230
222,4437.948717,4515.384615,4537.948717,4280.512820,4469.230769,4202.564102,4443.076923,4208.717948,4229.230769,4499.487179,4241.538461,4659.487179,4010.769230,4090.256410
223,4435.897435,4514.871794,4532.307692,4281.025641,4467.692307,4195.897435,4438.461538,4203.589743,4226.666666,4502.564102,4237.435897,4655.384615,4005.641025,4085.128205
224,4428.717948,4507.692307,4529.230769,4274.358974,4462.051282,4187.692307,4429.230769,4204.615384,4227.692307,4495.897435,4233.846153,4656.410256,3999.487180,4082.051282
225,4429.743589,4512.307692,4530.256410,4269.743589,4463.589743,4192.820512,4437.435897,4211.794871,4231.282051,4488.717948,4232.307692,4658.974358,4003.589743,4085.128205
226,4432.307692,4516.923076,4532.820512,4268.205128,4465.641025,4198.974358,4445.128205,4210.256410,4229.743589,4490.769230,4231.794871,4655.897435,4009.743589,4087.692307
227,4425.128205,4508.717948,4532.820512,4267.692307,4463.589743,4197.435897,4438.974358,4203.589743,4223.076923,4490.769230,4225.641025,4648.717948,4007.692307,4084.102564
228,4422.051282,4511.794871,4532.820512,4273.846153,4474.358974,4198.461538,4438.974358,4210.769230,4226.666666,4496.923076,4222.051282,4653.333333,4011.794871,4085.128205
229,4424.615384,4528.205128,4535.897435,4281.025641,4486.666666,4201.538461,4445.641025,4221.025641,4237.435897,4508.205128,4222.051282,4662.564102,4021.025641,4089.230769
230,4412.820512,4526.666666,4533.846153,4275.384615,4475.897435,4196.410256,4440.000000,4214.871794,4234.871794,4508.205128,4213.846153,4659.487179,4022.051282,4080.512820
231,4406.153846,4518.461538,4535.384615,4271.794871,4468.205128,4192.307692,4437.435897,4217.435897,4237.948717,4512.820512,4211.794871,4660.512820,4029.230769,4082.051282
232,4420.512820,4531.794871,4551.282051,4279.487179,4485.641025,4204.102564,4451.794871,4240.000000,4257.948717,4529.743589,4225.128205,4677.435897,4047.179487,4104.102564
233,4425.641025,4537.435897,4557.435897,4281.538461,4490.769230,4210.256410,4463.076923,4249.230769,4264.102564,4533.333333,4231.282051,4687.692307,4050.256410,4108.717948
234,4411.794871,4527.692307,4549.230769,4280.000000,4481.025641,4202.051282,4458.974358,4237.435897,4250.256410,4524.102564,4222.051282,4682.564102,4043.589743,4095.384615
235,4407.692307,4529.743589,4552.820512,4286.153846,4486.153846,4204.102564,4455.897435,4236.410256,4248.717948,4525.641025,4221.025641,4684.615384,4049.230769,4097.948717
236,4414.358974,4542.564102,4559.487179,4294.871794,4499.487179,4213.846153,4462.051282,4245.641025,4256.410256,4529.743589,4228.717948,4690.769230,4053.846153,4105.641025
237,4408.717948,4541.538461,4552.820512,4293.333333,4495.897435,4209.230769,4463.076923,4244.102564,4250.769230,4526.153846,4222.051282,4683.076923,4043.589743,4095.897435
238,4401.025641,4534.871794,4547.179487,4290.256410,4485.641025,4205.641025,4458.974358,4241.538461,4247.692307,4524.102564,4211.282051,4675.384615,4036.923076,4087.692307
239,4402.051282,4540.512820,4549.743589,4294.871794,4490.256410,4216.410256,4461.538461,4248.205128,4255.384615,4529.743589,4217.948717,4682.051282,4046.666666,4093.846153
240,4404.102564,4541.538461,4552.307692,4296.410256,4493.333333,4217.948717,4468.717948,4255.897435,4259.487179,4534.871794,4228.205128,4685.128205,4057.435897,4095.384615
241,4406.666666,4537.435897,4551.282051,4293.333333,4488.717948,4210.256410,4472.307692,4255.897435,4262.564102,4536.410256,4229.230769,4683.076923,4054.871794,4093.846153
242,4410.769230,4540.512820,4549.230769,4294.358974,4493.333333,4217.948717,4476.410256,4259.487179,4269.230769,4542.051282,4230.769230,4688.205128,4052.820512,4096.410256
243,4405.641025,4541.025641,4549.743589,4292.820512,4492.307692,4219.487179,4473.846153,4257.948717,4265.128205,4538.974358,4229.230769,4689.743589,4052.307692,4094.871794
244,4396.923076,4537.435897,4550.256410,4289.230769,4476.410256,4204.615384,4462.051282,4248.717948,4252.820512,4521.025641,4220.000000,4682.051282,4047.179487,4090.256410
245,4404.102564,4545.128205,4551.282051,4300.512820,4482.051282,4207.179487,4464.102564,4250.256410,4260.512820,4522.564102,4218.974358,4683.076923,4046.666666,4093.333333
246,4414.871794,4559.487179,4559.487179,4312.307692,4503.589743,4223.076923,4477.948717,4263.589743,4275.897435,4545.641025,4231.282051,4693.333333,4050.256410,4100.000000
247,4412.307692,4560.512820,4564.615384,4305.641025,4503.076923,4223.076923,4476.923076,4266.153846,4274.358974,4552.307692,4238.461538,4696.410256,4047.692307,4101.025641
248,4408.205128,4554.871794,4560.512820,4302.564102,4495.897435,4214.871794,4472.820512,4260.512820,4269.230769,4542.564102,4237.948717,4693.846153,4050.769230,4099.487179
249,4407.692307,4553.846153,4555.897435,4305.641025,4498.974358,4217.948717,4478.974358,4260.000000,4273.846153,4543.589743,4238.974358,4694.358974,4057.948717,4097.435897
250,4405.641025,4551.794871,4553.333333,4301.025641,4492.307692,4218.461538,4471.282051,4254.871794,4269.230769,4546.153846,4235.384615,4691.794871,4047.179487,4093.846153
251,4406.153846,4550.256410,4556.410256,4297.948717,4478.461538,4208.205128,4459.487179,4250.769230,4256.923076,4538.974358,4228.205128,4689.230769,4040.000000,4094.358974
252,4410.256410,4553.846153,4561.538461,4305.641025,4479.487179,4207.692307,4470.256410,4260.512820,4268.205128,4537.948717,4238.974358,4695.897435,4053.846153,4101.025641
253,4411.794871,4556.410256,4565.641025,4307.692307,4489.743589,4220.512820,4484.102564,4273.333333,4288.205128,4549.230769,4254.871794,4705.641025,4062.564102,4104.102564
254,4411.282051,4551.794871,4566.153846,4299.487179,4489.230769,4223.076923,4478.974358,4274.871794,4286.666666,4555.384615,4252.307692,4707.179487,4055.384615,4103.076923
255,4412.820512,4549.743589,4565.128205,4302.564102,4486.153846,4217.435897,4473.333333,4268.717948,4278.461538,4554.358974,4245.128205,4703.076923,4049.230769,4104.615384
256,4411.282051,4554.358974,4563.589743,4312.307692,4488.205128,4213.846153,4471.794871,4264.102564,4278.974358,4547.692307,4243.076923,4699.487179,4046.153846,4101.538461
257,4407.179487,4553.846153,4558.974358,4305.641025,4485.641025,4207.179487,4461.538461,4257.435897,4271.794871,4537.435897,4236.410256,4693.846153,4043.589743,4093.333333
258,4406.153846,4551.794871,4555.384615,4300.512820,4483.076923,4205.641025,4458.974358,4257.948717,4265.641025,4539.487179,4237.948717,4694.871794,4049.743589,4095.897435
259,4411.282051,4553.333333,4557.948717,4307.692307,4487.179487,4211.282051,4469.743589,4267.692307,4280.512820,4550.256410,4252.307692,4703.076923,4055.384615,4102.564102
