,AF3,F7,F3,FC5,T7,P7,O1,O2,P8,T8,FC6,F4,F8,AF4
0,4446.666666,4554.358974,4541.025641,4268.205128,4507.179487,4202.051282,4435.384615,4188.717948,4219.487179,4520.000000,4245.128205,4647.692307,3976.923077,4073.846153
1,4445.641025,4547.692307,4543.589743,4266.153846,4507.179487,4196.410256,4431.794871,4186.153846,4217.948717,4511.282051,4247.179487,4646.153846,3972.820513,4072.820512
2,4442.564102,4542.564102,4545.641025,4265.128205,4507.179487,4189.743589,4428.205128,4187.179487,4217.948717,4504.615384,4248.717948,4649.230769,3973.333334,4073.846153
3,4443.076923,4544.615384,4545.641025,4265.641025,4504.102564,4188.205128,4429.743589,4187.179487,4217.435897,4504.102564,4246.666666,4650.256410,3969.743590,4071.794871
4,4441.538461,4543.589743,4543.589743,4263.076923,4504.102564,4187.179487,4429.743589,4185.128205,4215.384615,4500.000000,4242.564102,4647.179487,3964.102565,4067.179487
5,4434.871794,4537.948717,4540.000000,4261.025641,4505.641025,4185.641025,4426.666666,4184.615384,4214.871794,4501.025641,4241.538461,4647.179487,3965.641026,4067.179487
6,4437.948717,4542.564102,4542.564102,4263.076923,4507.179487,4188.205128,4427.692307,4186.153846,4218.974358,4509.230769,4246.153846,4653.846153,3974.358975,4072.820512
7,4445.641025,4552.820512,4552.820512,4265.641025,4505.641025,4190.769230,4431.282051,4192.307692,4225.128205,4510.256410,4249.230769,4657.948717,3978.461539,4078.461538
8,4444.102564,4551.282051,4558.461538,4265.641025,4506.666666,4189.230769,4431.282051,4196.923076,4225.641025,4507.692307,4248.717948,4658.974358,3976.923077,4078.974358
9,4443.076923,4546.666666,4550.769230,4265.128205,4507.179487,4188.205128,4430.256410,4196.923076,4220.000000,4508.205128,4247.692307,4658.461538,3973.846154,4077.435897
10,4443.589743,4547.179487,4546.666666,4263.589743,4505.128205,4188.205128,4428.717948,4195.384615,4217.948717,4507.692307,4247.692307,4652.820512,3973.333334,4075.897435
11,4436.923076,4545.641025,4552.307692,4264.102564,4503.589743,4187.692307,4429.230769,4191.282051,4218.461538,4506.153846,4246.153846,4647.179487,3973.333334,4075.897435
12,4435.384615,4547.179487,4550.256410,4266.153846,4506.153846,4188.717948,4431.282051,4187.179487,4217.435897,4504.102564,4245.128205,4648.205128,3970.769231,4074.871794
13,4440.512820,4550.256410,4544.102564,4265.128205,4506.666666,4189.230769,4431.794871,4188.717948,4217.948717,4506.153846,4246.153846,4650.256410,3971.282052,4075.384615
14,4441.025641,4548.205128,4546.153846,4265.641025,4506.666666,4187.692307,4429.230769,4191.282051,4218.974358,4508.205128,4249.230769,4649.743589,3975.897436,4077.435897
15,4437.435897,4550.769230,4547.692307,4271.282051,4507.179487,4187.692307,4428.205128,4187.692307,4214.871794,4507.692307,4248.717948,4648.205128,3975.897436,4076.923076
16,4436.923076,4553.333333,4545.641025,4271.794871,4505.641025,4187.179487,4429.743589,4186.666666,4215.384615,4506.153846,4245.641025,4647.692307,3971.282052,4075.384615
17,4437.435897,4549.230769,4546.153846,4266.153846,4505.641025,4185.641025,4428.717948,4189.743589,4220.000000,4508.717948,4248.717948,4649.743589,3971.282052,4076.923076
18,4432.307692,4548.205128,4543.076923,4265.128205,4503.589743,4184.102564,4421.025641,4187.692307,4217.435897,4506.666666,4248.205128,4647.692307,3971.794872,4077.948717
19,4428.205128,4546.666666,4536.923076,4265.128205,4500.000000,4184.102564,4412.307692,4184.615384,4214.871794,4497.435897,4238.461538,4637.948717,3964.615385,4072.820512
20,4424.102564,4538.461538,4535.897435,4265.128205,4499.487179,4185.641025,4410.256410,4181.538461,4215.897435,4493.333333,4230.769230,4632.307692,3960.512821,4064.102564
21,4416.923076,4534.871794,4532.820512,4263.589743,4492.307692,4182.051282,4412.820512,4176.410256,4210.256410,4493.846153,4229.743589,4633.846153,3956.923077,4060.000000
22,4409.230769,4534.358974,4525.128205,4255.897435,4484.615384,4173.333333,4408.205128,4170.769230,4201.538461,4490.256410,4225.641025,4625.641025,3947.179488,4058.461538
23,4408.205128,4530.256410,4522.051282,4246.666666,4482.564102,4167.179487,4402.051282,4167.692307,4197.948717,4485.641025,4222.564102,4616.923076,3943.076924,4055.384615
24,4412.820512,4529.743589,4525.128205,4247.692307,4481.538461,4169.230769,4406.153846,4171.794871,4201.538461,4487.179487,4228.205128,4625.128205,3953.333334,4056.410256
25,4414.871794,4532.820512,4530.256410,4255.897435,4482.051282,4177.435897,4413.846153,4181.538461,4209.743589,4497.948717,4232.820512,4636.410256,3959.487180,4063.589743
26,4413.846153,4535.897435,4533.846153,4261.025641,4487.692307,4183.076923,4413.846153,4182.564102,4211.794871,4502.564102,4231.794871,4635.384615,3954.358975,4064.102564
27,4413.846153,4537.948717,4535.384615,4262.051282,4492.820512,4184.102564,4412.820512,4177.948717,4210.769230,4495.384615,4232.820512,4632.820512,3955.897436,4061.025641
28,4415.384615,4537.948717,4530.256410,4263.076923,4487.692307,4180.000000,4412.307692,4180.512820,4211.794871,4489.230769,4232.307692,4635.384615,3956.923077,4061.025641
29,4409.743589,4534.871794,4524.615384,4259.487179,4482.051282,4173.846153,4410.256410,4180.512820,4206.666666,4490.256410,4226.153846,4629.230769,3944.102565,4054.871794
30,4404.615384,4532.307692,4525.128205,4258.461538,4485.128205,4170.769230,4411.794871,4172.820512,4200.512820,4490.256410,4227.692307,4624.615384,3940.000000,4051.794871
31,4406.666666,4532.307692,4525.641025,4257.948717,4485.641025,4169.743589,4409.743589,4168.717948,4202.564102,4488.717948,4228.205128,4627.179487,3949.743590,4055.384615
32,4405.128205,4530.256410,4522.051282,4255.897435,4479.487179,4169.743589,4406.153846,4169.743589,4201.538461,4489.230769,4220.000000,4626.666666,3948.717949,4053.333333
33,4404.615384,4530.769230,4521.538461,4255.384615,4482.051282,4171.282051,4410.256410,4171.282051,4202.564102,4491.282051,4221.538461,4625.641025,3942.564103,4053.333333
34,4410.256410,4537.435897,4526.153846,4256.410256,4491.794871,4176.410256,4415.384615,4171.794871,4213.846153,4494.871794,4233.333333,4630.256410,3950.256411,4060.512820
35,4415.384615,4538.974358,4530.256410,4257.948717,4492.307692,4177.948717,4414.358974,4176.923076,4216.923076,4496.410256,4233.846153,4634.871794,3960.512821,4062.564102
36,4412.307692,4536.410256,4525.641025,4254.871794,4486.153846,4174.358974,4411.794871,4181.538461,4210.256410,4493.846153,4228.205128,4632.307692,3954.871795,4058.974358
37,4406.666666,4535.897435,4518.974358,4249.230769,4483.589743,4171.794871,4411.794871,4176.410256,4205.641025,4493.333333,4230.256410,4623.589743,3947.692308,4056.923076
38,4403.589743,4536.410256,4520.000000,4247.692307,4485.128205,4172.307692,4412.307692,4170.769230,4201.538461,4491.282051,4228.717948,4616.923076,3948.717949,4056.410256
39,4403.076923,4536.923076,4522.564102,4252.820512,4486.666666,4174.358974,4412.820512,4170.769230,4200.512820,4488.717948,4220.000000,4619.487179,3948.205129,4056.923076
40,4406.666666,4536.410256,4520.512820,4256.923076,4484.102564,4172.307692,4411.794871,4169.743589,4201.025641,4488.205128,4212.820512,4624.102564,3943.589744,4057.435897
41,4410.769230,4537.435897,4524.102564,4259.487179,4486.153846,4170.256410,4410.256410,4172.307692,4201.538461,4489.743589,4220.000000,4626.153846,3945.641026,4057.948717
42,4415.897435,4542.051282,4532.820512,4265.641025,4491.794871,4172.307692,4412.307692,4184.102564,4205.128205,4492.307692,4233.333333,4631.794871,3950.769231,4062.564102
43,4412.820512,4540.000000,4527.692307,4263.589743,4489.230769,4171.794871,4411.794871,4184.102564,4204.615384,4490.256410,4232.820512,4631.282051,3945.641026,4063.076923
44,4409.230769,4537.435897,4521.538461,4258.974358,4483.589743,4168.717948,4409.743589,4172.820512,4200.512820,4488.717948,4228.205128,4626.153846,3941.538462,4056.923076
45,4416.923076,4538.974358,4528.717948,4260.512820,4485.128205,4169.743589,4410.769230,4177.435897,4203.076923,4496.410256,4231.794871,4633.333333,3950.769231,4061.025641
46,4425.641025,4540.000000,4536.923076,4261.538461,4485.128205,4171.794871,4411.282051,4186.153846,4206.153846,4495.384615,4233.333333,4644.102564,3957.948718,4073.846153
47,4426.153846,4539.487179,4536.923076,4261.538461,4479.487179,4170.256410,4410.769230,4178.974358,4203.076923,4482.564102,4231.282051,4641.538461,3950.256411,4075.897435
48,4421.025641,4538.974358,4530.256410,4262.051282,4479.487179,4168.205128,4412.820512,4169.743589,4200.512820,4482.051282,4231.794871,4633.333333,3939.487180,4067.179487
49,4414.358974,4537.948717,4527.692307,4261.538461,4482.051282,4168.205128,4407.692307,4169.743589,4195.384615,4486.153846,4224.102564,4631.794871,3942.564103,4060.512820
50,4413.846153,4538.974358,4530.769230,4260.000000,4481.538461,4167.692307,4398.974358,4167.179487,4186.666666,4476.923076,4216.923076,4630.769230,3945.128206,4059.487179
51,4424.615384,4541.538461,4534.871794,4262.051282,4483.589743,4167.692307,4401.538461,4165.641025,4184.102564,4471.282051,4222.564102,4627.692307,3938.974359,4060.512820
52,4428.205128,4540.000000,4535.384615,4266.666666,4484.615384,4168.205128,4407.692307,4163.589743,4185.128205,4476.410256,4225.128205,4629.230769,3939.487180,4061.025641
53,4422.051282,4543.589743,4532.307692,4266.666666,4483.076923,4169.743589,4404.615384,4157.435897,4182.051282,4476.923076,4218.461538,4626.666666,3945.641026,4062.564102
54,4423.076923,4548.205128,4528.717948,4262.564102,4485.641025,4168.717948,4401.538461,4160.000000,4178.974358,4473.333333,4216.923076,4618.974358,3943.589744,4065.641025
55,4428.717948,4547.692307,4530.256410,4269.230769,4488.717948,4170.256410,4406.666666,4170.256410,4181.025641,4479.487179,4223.076923,4621.538461,3942.051283,4067.179487
56,4429.743589,4549.743589,4538.461538,4281.025641,4487.179487,4177.948717,4413.846153,4176.923076,4188.717948,4489.743589,4227.179487,4632.307692,3950.769231,4069.230769
57,4430.769230,4552.820512,4541.538461,4277.948717,4491.794871,4185.641025,4417.948717,4183.589743,4198.461538,4493.333333,4231.794871,4636.923076,3959.487180,4076.410256
58,4430.256410,4546.666666,4537.435897,4266.153846,4493.846153,4184.615384,4419.487179,4189.230769,4202.564102,4491.282051,4236.923076,4632.307692,3960.000000,4077.948717
59,4421.538461,4539.487179,4526.153846,4263.589743,4484.102564,4181.025641,4417.948717,4186.666666,4197.435897,4490.769230,4231.282051,4622.564102,3952.820513,4067.179487
60,4411.794871,4541.025641,4518.461538,4264.102564,4481.025641,4181.538461,4417.948717,4182.564102,4192.820512,4488.717948,4220.000000,4613.846153,3944.615385,4057.948717
61,4413.846153,4541.538461,4523.076923,4260.512820,4486.666666,4184.102564,4423.076923,4184.102564,4196.410256,4487.179487,4220.000000,4615.384615,3944.615385,4058.461538
62,4420.000000,4538.461538,4524.615384,4260.000000,4489.743589,4186.153846,4428.717948,4188.717948,4200.000000,4485.128205,4229.743589,4619.487179,3948.205129,4061.025641
63,4417.948717,4538.461538,4522.564102,4263.076923,4489.230769,4185.128205,4427.179487,4190.256410,4200.512820,4483.076923,4231.794871,4617.948717,3948.205129,4061.538461
64,4412.820512,4539.487179,4522.051282,4260.000000,4485.641025,4182.564102,4425.128205,4185.128205,4195.897435,4483.076923,4223.076923,4615.384615,3943.589744,4057.948717
65,4411.282051,4537.435897,4520.000000,4253.846153,4478.974358,4183.076923,4426.666666,4181.538461,4191.794871,4480.000000,4215.897435,4614.358974,3942.051283,4053.846153
66,4416.410256,4537.435897,4520.000000,4256.410256,4482.564102,4185.641025,4428.205128,4185.128205,4196.410256,4475.897435,4220.512820,4615.384615,3942.564103,4056.923076
67,4423.589743,4540.000000,4529.230769,4263.076923,4492.820512,4186.153846,4428.205128,4188.205128,4197.435897,4477.948717,4227.179487,4618.461538,3942.051283,4061.538461
68,4428.717948,4541.025641,4532.820512,4263.589743,4490.256410,4185.128205,4428.205128,4184.615384,4193.846153,4478.974358,4228.205128,4620.512820,3943.589744,4063.076923
69,4427.692307,4540.512820,4531.282051,4264.102564,4488.205128,4185.128205,4427.692307,4183.589743,4194.358974,4473.846153,4228.205128,4620.000000,3947.179488,4065.641025
70,4423.589743,4541.538461,4533.333333,4266.153846,4491.794871,4185.641025,4425.641025,4186.666666,4194.871794,4474.358974,4222.564102,4616.410256,3947.692308,4066.153846
71,4422.564102,4541.025641,4531.282051,4268.205128,4490.769230,4184.102564,4426.666666,4186.666666,4191.282051,4484.615384,4220.512820,4614.358974,3942.564103,4063.076923
72,4425.641025,4542.051282,4530.769230,4271.282051,4489.743589,4182.564102,4427.179487,4184.615384,4189.743589,4487.692307,4228.717948,4617.948717,3942.564103,4064.102564
73,4428.717948,4542.051282,4532.820512,4269.743589,4491.282051,4182.564102,4419.487179,4184.615384,4187.692307,4477.435897,4228.717948,4617.435897,3944.615385,4062.051282
74,4422.051282,4538.974358,4527.179487,4264.102564,4489.230769,4181.025641,4413.846153,4179.487179,4184.615384,4470.769230,4216.410256,4607.692307,3939.487180,4051.794871
75,4414.871794,4538.974358,4522.051282,4263.589743,4484.102564,4176.410256,4414.871794,4171.794871,4182.051282,4473.846153,4214.358974,4600.512820,3932.307693,4050.256410
76,4412.307692,4535.384615,4520.512820,4262.051282,4476.923076,4171.794871,4414.358974,4168.205128,4175.384615,4465.641025,4216.410256,4601.025641,3929.743590,4052.820512
77,4407.692307,4524.102564,4514.358974,4252.820512,4472.820512,4169.230769,4407.692307,4168.717948,4169.230769,4455.384615,4208.717948,4600.512820,3927.179488,4046.153846
78,4407.692307,4519.487179,4514.871794,4246.153846,4473.846153,4168.205128,4406.666666,4170.256410,4173.333333,4458.974358,4203.076923,4600.512820,3924.615385,4041.538461
79,4412.307692,4523.076923,4524.102564,4245.641025,4472.820512,4167.179487,4408.717948,4168.205128,4175.897435,4461.025641,4201.538461,4602.564102,3925.641026,4045.128205
80,4409.743589,4524.102564,4520.000000,4246.666666,4470.769230,4166.666666,4407.179487,4164.615384,4170.256410,4457.435897,4200.512820,4601.025641,3924.102565,4045.128205
81,4407.179487,4524.102564,4517.435897,4250.769230,4475.384615,4174.358974,4408.205128,4168.717948,4173.333333,4460.512820,4206.666666,4598.461538,3923.076924,4042.051282
82,4410.769230,4525.641025,4525.128205,4254.358974,4480.000000,4179.487179,4412.820512,4170.769230,4183.589743,4461.538461,4211.794871,4602.564102,3927.692308,4045.128205
83,4409.743589,4525.128205,4522.564102,4252.820512,4478.461538,4177.435897,4413.846153,4162.564102,4178.974358,4456.410256,4205.641025,4600.000000,3921.025642,4044.102564
84,4402.051282,4524.102564,4509.743589,4249.230769,4476.410256,4178.974358,4413.846153,4162.051282,4167.692307,4452.820512,4197.435897,4588.717948,3907.692308,4035.897435
85,4398.461538,4522.564102,4511.282051,4248.205128,4475.897435,4178.461538,4413.846153,4167.179487,4167.692307,4447.692307,4197.948717,4585.128205,3906.666667,4034.358974
86,4402.051282,4521.025641,4516.923076,4247.179487,4476.923076,4170.769230,4408.717948,4165.641025,4176.923076,4447.692307,4199.487179,4592.307692,3913.846154,4037.948717
87,4405.128205,4520.512820,4512.820512,4246.153846,4469.230769,4168.205128,4406.666666,4164.615384,4181.538461,4456.923076,4197.435897,4594.871794,3913.333334,4035.384615
88,4403.589743,4519.487179,4512.307692,4246.666666,4460.000000,4171.794871,4411.282051,4168.717948,4177.948717,4462.564102,4200.000000,4593.846153,3913.333334,4034.871794
89,4405.641025,4521.538461,4522.564102,4246.666666,4468.717948,4170.256410,4412.820512,4169.743589,4175.384615,4461.538461,4205.641025,4599.487179,3922.564103,4043.589743
90,4411.794871,4523.076923,4523.589743,4248.205128,4475.384615,4169.230769,4410.769230,4163.589743,4176.923076,4456.923076,4201.538461,4603.076923,3923.589744,4045.641025
91,4405.641025,4521.025641,4512.820512,4248.717948,4465.128205,4168.717948,4404.102564,4153.846153,4170.256410,4449.743589,4193.846153,4595.897435,3911.794872,4035.384615
92,4396.923076,4520.512820,4508.717948,4247.692307,4457.948717,4166.666666,4395.897435,4149.230769,4161.538461,4447.692307,4193.333333,4591.282051,3905.641026,4030.769230
93,4399.487179,4521.538461,4508.205128,4248.205128,4463.076923,4164.102564,4395.384615,4153.333333,4165.641025,4450.256410,4192.307692,4593.333333,3909.230770,4035.384615
94,4400.512820,4520.000000,4504.102564,4246.666666,4461.025641,4160.000000,4397.435897,4152.820512,4169.743589,4449.230769,4190.256410,4590.256410,3910.769231,4034.358974
95,4400.512820,4519.487179,4508.717948,4246.153846,4456.923076,4163.589743,4394.358974,4150.769230,4169.230769,4447.692307,4195.897435,4591.794871,3910.256411,4031.794871
96,4408.717948,4524.615384,4516.923076,4249.743589,4467.179487,4171.282051,4400.000000,4160.000000,4175.384615,4455.384615,4202.051282,4601.025641,3914.358975,4038.461538
97,4413.846153,4526.153846,4515.384615,4249.743589,4476.410256,4172.820512,4409.743589,4169.230769,4182.564102,4467.692307,4199.487179,4602.564102,3918.974359,4045.641025
98,4411.794871,4522.564102,4513.333333,4248.205128,4470.256410,4169.743589,4407.179487,4168.717948,4185.641025,4470.256410,4201.538461,4602.051282,3924.615385,4046.666666
99,4410.769230,4522.051282,4515.384615,4248.205128,4458.974358,4169.230769,4398.461538,4168.205128,4181.538461,4460.000000,4207.692307,4612.307692,3928.205129,4048.717948
100,4409.230769,4515.384615,4511.282051,4244.102564,4457.435897,4164.102564,4396.923076,4165.128205,4172.820512,4454.358974,4201.025641,4614.358974,3921.538462,4045.641025
101,4407.179487,4509.230769,4507.692307,4242.564102,4459.487179,4156.923076,4398.974358,4164.102564,4171.282051,4457.948717,4196.923076,4603.076923,3914.871795,4036.923076
102,4404.102564,4511.794871,4509.743589,4244.615384,4456.410256,4154.871794,4399.487179,4166.153846,4176.410256,4458.461538,4198.461538,4600.512820,3915.384616,4035.384615
103,4397.948717,4510.769230,4506.666666,4238.974358,4455.384615,4155.897435,4398.974358,4160.000000,4175.384615,4458.461538,4193.333333,4602.051282,3914.871795,4036.923076
104,4398.461538,4509.230769,4501.538461,4237.948717,4460.512820,4158.974358,4397.948717,4158.974358,4170.769230,4459.487179,4189.743589,4598.974358,3914.871795,4033.846153
105,4404.615384,4513.846153,4507.179487,4242.564102,4461.538461,4165.641025,4398.974358,4164.102564,4170.256410,4459.487179,4198.461538,4600.512820,3922.564103,4032.820512
106,4403.076923,4515.384615,4511.282051,4242.051282,4458.974358,4168.717948,4400.000000,4158.974358,4169.743589,4459.487179,4203.589743,4601.538461,3924.615385,4030.769230
107,4401.025641,4516.410256,4509.230769,4243.076923,4465.128205,4165.641025,4402.051282,4157.435897,4171.794871,4460.000000,4197.948717,4598.974358,3920.000000,4030.769230
108,4408.717948,4522.051282,4513.846153,4249.230769,4474.871794,4168.717948,4408.717948,4169.743589,4181.538461,4458.974358,4201.025641,4605.641025,3930.256411,4036.923076
109,4419.487179,4524.102564,4523.589743,4249.743589,4476.410256,4173.333333,4413.333333,4173.333333,4187.692307,4460.512820,4211.794871,4616.410256,3946.153847,4047.692307
110,4423.589743,4521.025641,4526.153846,4244.615384,4473.333333,4170.769230,4410.769230,4168.205128,4184.102564,4468.205128,4214.871794,4616.923076,3946.666667,4053.333333
111,4423.589743,4523.589743,4527.179487,4245.128205,4475.384615,4168.717948,4411.282051,4177.435897,4188.717948,4477.435897,4217.948717,4616.410256,3948.205129,4056.410256
112,4425.128205,4525.128205,4530.769230,4251.282051,4477.948717,4173.846153,4415.897435,4188.205128,4203.076923,4480.000000,4224.615384,4620.512820,3958.974359,4059.487179
113,4420.000000,4525.128205,4526.153846,4252.307692,4473.846153,4173.333333,4413.333333,4184.615384,4198.974358,4470.769230,4223.076923,4617.435897,3956.923077,4053.333333
114,4411.282051,4524.102564,4517.435897,4246.666666,4474.871794,4168.717948,4407.692307,4171.794871,4185.128205,4464.615384,4211.794871,4608.205128,3945.641026,4044.615384
115,4417.948717,4521.538461,4522.051282,4245.128205,4480.512820,4172.820512,4407.179487,4167.692307,4188.717948,4471.794871,4210.256410,4610.256410,3950.769231,4050.769230
116,4426.666666,4527.179487,4528.205128,4252.307692,4480.512820,4175.897435,4407.692307,4172.307692,4193.846153,4477.435897,4219.487179,4617.948717,3961.538462,4061.025641
117,4423.076923,4536.923076,4524.615384,4257.435897,4481.538461,4175.897435,4407.179487,4171.794871,4190.769230,4474.871794,4220.000000,4616.923076,3962.051283,4058.974358
118,4422.564102,4540.512820,4525.128205,4260.000000,4488.717948,4180.000000,4408.717948,4169.743589,4194.358974,4473.333333,4214.871794,4615.897435,3961.538462,4056.410256
119,4428.205128,4539.487179,4534.871794,4265.128205,4490.769230,4184.615384,4410.769230,4174.358974,4200.512820,4479.487179,4218.974358,4624.102564,3965.128206,4063.589743
120,4427.179487,4541.025641,4538.974358,4266.153846,4489.743589,4183.589743,4418.461538,4188.717948,4204.615384,4484.615384,4230.256410,4632.307692,3968.717949,4071.794871
121,4427.179487,4540.512820,4536.923076,4256.923076,4487.692307,4184.615384,4425.128205,4200.000000,4212.307692,4485.128205,4232.307692,4635.897435,3970.256411,4074.871794
122,4429.230769,4536.410256,4541.538461,4254.358974,4485.128205,4183.589743,4424.102564,4201.538461,4216.923076,4485.128205,4235.384615,4638.974358,3974.358975,4077.948717
123,4428.205128,4531.794871,4544.615384,4258.461538,4481.538461,4180.512820,4423.589743,4205.641025,4215.897435,4488.205128,4244.615384,4637.435897,3982.051283,4082.051282
124,4425.128205,4529.230769,4541.025641,4256.410256,4477.948717,4184.102564,4429.743589,4209.230769,4217.435897,4491.794871,4242.564102,4633.333333,3982.564103,4080.000000
125,4422.051282,4534.358974,4538.974358,4255.897435,4480.000000,4189.230769,4436.410256,4205.641025,4218.461538,4491.282051,4233.333333,4632.307692,3974.871795,4074.871794
126,4414.871794,4535.897435,4536.923076,4256.923076,4489.230769,4188.205128,4435.384615,4202.051282,4213.846153,4490.769230,4232.820512,4630.769230,3968.717949,4070.769230
127,4411.282051,4530.256410,4535.384615,4256.410256,4491.794871,4190.769230,4429.230769,4201.025641,4208.717948,4490.769230,4237.948717,4628.205128,3973.846154,4070.256410
128,4421.025641,4532.820512,4538.461538,4261.025641,4490.256410,4199.487179,4426.666666,4201.025641,4213.846153,4493.333333,4244.102564,4634.871794,3984.615385,4075.897435
129,4426.153846,4542.051282,4540.512820,4267.692307,4496.410256,4198.461538,4431.282051,4203.589743,4220.512820,4498.974358,4242.564102,4637.435897,3983.589744,4076.923076
130,4410.769230,4537.948717,4533.333333,4258.974358,4490.256410,4186.153846,4426.153846,4195.384615,4210.769230,4493.846153,4222.564102,4622.051282,3968.717949,4061.538461
131,4397.948717,4525.641025,4522.051282,4247.692307,4477.435897,4181.538461,4411.794871,4178.974358,4196.923076,4478.974358,4209.230769,4608.717948,3962.051283,4051.282051
132,4406.153846,4528.205128,4520.000000,4254.358974,4484.102564,4186.153846,4414.871794,4183.589743,4202.051282,4478.461538,4223.076923,4614.358974,3973.846154,4059.487179
133,4420.512820,4543.076923,4529.230769,4264.102564,4498.461538,4188.717948,4426.153846,4196.410256,4214.358974,4491.282051,4235.384615,4626.153846,3984.615385,4070.256410
134,4428.205128,4552.307692,4538.461538,4266.153846,4497.435897,4187.692307,4427.179487,4198.974358,4217.435897,4496.923076,4236.923076,4632.307692,3992.307693,4079.487179
135,4431.794871,4553.333333,4539.487179,4271.282051,4490.256410,4186.153846,4424.102564,4197.435897,4217.435897,4495.897435,4243.589743,4633.333333,3997.948718,4087.692307
136,4428.717948,4551.794871,4540.512820,4278.461538,4492.307692,4186.153846,4424.615384,4191.794871,4216.923076,4494.871794,4251.282051,4633.333333,3996.410257,4086.666666
137,4423.076923,4545.641025,4537.435897,4273.333333,4493.846153,4187.179487,4423.076923,4189.743589,4213.333333,4494.871794,4246.153846,4631.282051,3993.846154,4077.948717
138,4416.923076,4537.435897,4528.205128,4262.051282,4490.256410,4186.666666,4423.589743,4192.820512,4211.794871,4496.410256,4234.871794,4623.589743,3988.205129,4073.333333
139,4414.871794,4538.461538,4529.230769,4264.102564,4490.769230,4188.205128,4428.205128,4195.384615,4215.384615,4496.410256,4230.769230,4621.025641,3980.000000,4074.871794
140,4420.000000,4543.589743,4536.923076,4267.692307,4494.871794,4190.769230,4430.769230,4198.974358,4216.923076,4494.871794,4235.897435,4625.128205,3982.051283,4077.435897
141,4415.384615,4535.384615,4532.820512,4258.461538,4486.153846,4185.641025,4424.615384,4195.384615,4208.205128,4491.282051,4234.871794,4622.564102,3986.666667,4076.923076
142,4409.743589,4524.615384,4529.743589,4253.333333,4473.846153,4180.512820,4414.358974,4183.589743,4198.974358,4483.589743,4223.076923,4620.512820,3977.948718,4074.358974
143,4417.435897,4532.307692,4537.948717,4261.025641,4478.974358,4182.564102,4413.333333,4181.025641,4199.487179,4482.564102,4218.974358,4626.153846,3970.256411,4074.358974
144,4422.051282,4543.076923,4540.000000,4266.666666,4488.205128,4180.512820,4417.435897,4189.230769,4203.076923,4487.692307,4223.589743,4627.179487,3971.282052,4077.948717
145,4414.358974,4538.974358,4531.282051,4263.589743,4487.692307,4175.897435,4414.358974,4187.179487,4202.564102,4485.128205,4220.512820,4619.487179,3967.692308,4076.410256
146,4407.179487,4532.307692,4522.564102,4260.512820,4481.025641,4173.333333,4409.230769,4181.538461,4199.487179,4474.871794,4207.179487,4611.794871,3957.435898,4065.128205
147,4408.717948,4535.384615,4520.512820,4262.564102,4480.512820,4173.846153,4411.794871,4185.128205,4197.948717,4475.897435,4206.153846,4608.205128,3955.384616,4061.025641
148,4412.307692,4536.410256,4525.641025,4265.641025,4484.615384,4176.410256,4414.871794,4189.230769,4202.051282,4484.615384,4216.410256,4609.230769,3960.512821,4067.692307
149,4406.153846,4527.179487,4522.051282,4258.974358,4477.435897,4173.846153,4406.153846,4181.538461,4203.076923,4478.461538,4212.820512,4604.102564,3963.076924,4062.564102
150,4392.307692,4517.435897,4509.743589,4246.153846,4466.666666,4165.641025,4398.974358,4171.794871,4192.820512,4469.230769,4203.076923,4595.384615,3961.538462,4051.794871
151,4396.923076,4518.974358,4510.769230,4244.615384,4470.256410,4166.666666,4407.692307,4179.487179,4193.846153,4476.923076,4210.769230,4601.538461,3967.179488,4058.974358
152,4416.410256,4525.641025,4524.102564,4254.358974,4483.076923,4176.410256,4418.461538,4196.410256,4213.846153,4489.230769,4225.641025,4617.948717,3980.000000,4071.282051
153,4414.871794,4524.102564,4527.179487,4254.358974,4473.333333,4172.307692,4415.384615,4198.974358,4217.435897,4487.692307,4221.538461,4619.487179,3981.538462,4072.307692
154,4402.564102,4520.000000,4520.000000,4246.666666,4454.871794,4163.589743,4409.230769,4187.179487,4202.051282,4479.487179,4214.358974,4610.256410,3973.846154,4071.794871
155,4408.717948,4523.076923,4522.564102,4251.282051,4463.076923,4167.179487,4411.794871,4183.589743,4201.025641,4480.000000,4224.615384,4612.820512,3976.410257,4076.923076
156,4416.923076,4526.666666,4529.743589,4262.564102,4478.461538,4171.282051,4414.871794,4186.153846,4205.641025,4486.153846,4234.358974,4622.051282,3983.076924,4079.487179
157,4406.666666,4518.461538,4525.128205,4255.384615,4471.282051,4169.230769,4410.769230,4177.435897,4195.384615,4482.564102,4223.589743,4616.923076,3975.384616,4072.307692
158,4396.923076,4512.307692,4520.000000,4242.564102,4462.051282,4166.153846,4407.692307,4165.641025,4185.128205,4465.641025,4212.307692,4604.615384,3965.128206,4064.102564
159,4400.512820,4515.897435,4522.051282,4245.641025,4473.333333,4168.205128,4409.743589,4167.692307,4185.641025,4456.923076,4212.307692,4605.641025,3967.179488,4065.641025
160,4402.051282,4515.384615,4523.589743,4250.769230,4477.435897,4168.717948,4408.205128,4171.794871,4186.666666,4461.538461,4205.641025,4610.256410,3964.102565,4065.641025
161,4396.410256,4515.384615,4520.512820,4245.641025,4470.769230,4168.205128,4407.179487,4169.230769,4188.205128,4462.051282,4199.487179,4604.615384,3954.871795,4059.487179
162,4402.564102,4523.076923,4521.538461,4247.692307,4474.871794,4170.256410,4410.769230,4169.743589,4192.820512,4456.923076,4201.538461,4600.512820,3954.871795,4061.538461
163,4412.820512,4526.153846,4523.589743,4257.948717,4480.000000,4171.794871,4411.794871,4172.307692,4196.923076,4461.025641,4206.666666,4604.615384,3963.589744,4069.230769
164,4410.769230,4523.076923,4524.615384,4257.948717,4476.923076,4169.743589,4410.769230,4171.282051,4198.974358,4471.282051,4208.717948,4604.615384,3968.205129,4068.717948
165,4400.000000,4523.076923,4521.538461,4251.282051,4476.923076,4170.256410,4412.307692,4170.256410,4198.974358,4469.230769,4209.743589,4599.487179,3961.025642,4062.051282
166,4400.512820,4523.589743,4515.384615,4251.794871,4481.538461,4173.333333,4412.820512,4171.282051,4200.512820,4464.102564,4212.307692,4599.487179,3954.871795,4058.974358
167,4406.666666,4524.102564,4517.435897,4254.871794,4478.461538,4171.794871,4412.307692,4174.871794,4203.076923,4474.871794,4212.307692,4600.000000,3961.025642,4058.974358
168,4401.538461,4525.128205,4523.589743,4251.282051,4473.333333,4170.256410,4414.358974,4175.384615,4202.051282,4483.589743,4204.615384,4597.948717,3964.615385,4060.512820
169,4395.384615,4517.435897,4522.564102,4246.666666,4467.692307,4165.641025,4410.769230,4169.743589,4198.974358,4470.256410,4200.000000,4596.923076,3957.435898,4058.461538
170,4396.410256,4509.743589,4520.512820,4247.179487,4463.589743,4157.435897,4402.051282,4168.717948,4198.461538,4460.000000,4203.076923,4596.410256,3952.820513,4053.333333
171,4397.435897,4511.794871,4523.076923,4249.230769,4469.230769,4161.025641,4401.538461,4175.897435,4200.512820,4466.666666,4202.051282,4595.384615,3954.871795,4051.794871
172,4396.923076,4513.846153,4524.615384,4250.256410,4473.846153,4164.615384,4402.564102,4177.435897,4202.564102,4468.205128,4199.487179,4595.384615,3953.333334,4053.333333
173,4395.384615,4509.230769,4517.948717,4247.692307,4467.179487,4154.871794,4397.948717,4171.794871,4201.025641,4464.615384,4200.512820,4592.307692,3952.307693,4051.794871
174,4392.307692,4505.641025,4514.871794,4246.153846,4467.692307,4153.846153,4393.846153,4169.230769,4197.435897,4464.615384,4197.948717,4586.666666,3951.282052,4049.743589
175,4393.333333,4511.282051,4516.923076,4248.205128,4476.923076,4167.692307,4395.897435,4170.769230,4197.948717,4469.230769,4195.897435,4585.128205,3948.717949,4049.230769
176,4395.384615,4522.564102,4515.897435,4252.307692,4476.410256,4170.256410,4403.076923,4173.333333,4202.051282,4472.307692,4199.487179,4586.153846,3947.692308,4050.256410
177,4394.871794,4521.538461,4516.923076,4254.871794,4474.358974,4165.128205,4407.179487,4173.333333,4203.076923,4471.794871,4202.051282,4587.179487,3946.666667,4051.794871
178,4396.410256,4512.820512,4518.461538,4250.256410,4475.384615,4166.666666,4401.538461,4170.256410,4201.025641,4469.743589,4203.589743,4589.743589,3948.205129,4051.282051
179,4398.461538,4511.282051,4515.897435,4246.153846,4472.820512,4167.179487,4396.923076,4169.230769,4201.025641,4473.333333,4208.717948,4592.820512,3953.333334,4052.307692
180,4399.487179,4516.410256,4518.974358,4250.256410,4471.282051,4168.205128,4403.589743,4170.769230,4203.589743,4478.974358,4210.769230,4594.871794,3954.358975,4058.974358
181,4399.487179,4515.897435,4521.538461,4253.333333,4473.333333,4169.230769,4411.794871,4170.769230,4203.076923,4473.846153,4206.153846,4596.923076,3951.794872,4059.487179
182,4396.923076,4511.282051,4517.435897,4245.128205,4475.897435,4168.205128,4411.282051,4171.794871,4200.512820,4471.282051,4203.076923,4596.923076,3950.769231,4052.307692
183,4397.435897,4507.179487,4516.923076,4242.051282,4476.923076,4168.717948,4410.256410,4174.358974,4203.076923,4478.461538,4205.641025,4595.897435,3950.256411,4052.307692
184,4397.948717,4506.153846,4515.384615,4246.153846,4475.897435,4171.282051,4410.769230,4173.333333,4203.076923,4476.923076,4202.564102,4592.820512,3946.153847,4053.846153
185,4390.769230,4507.692307,4506.666666,4240.000000,4474.358974,4168.205128,4408.205128,4168.205128,4191.282051,4464.102564,4193.846153,4586.153846,3943.076924,4047.179487
186,4386.153846,4506.153846,4508.205128,4237.435897,4475.384615,4167.692307,4406.666666,4168.717948,4188.717948,4461.538461,4192.307692,4583.589743,3938.461539,4043.589743
187,4389.230769,4504.102564,4510.256410,4242.051282,4473.333333,4168.717948,4404.615384,4168.205128,4196.410256,4468.205128,4191.282051,4583.076923,3936.410257,4044.615384
188,4389.230769,4507.179487,4504.615384,4239.487179,4469.230769,4161.025641,4397.948717,4161.025641,4192.820512,4464.102564,4188.205128,4583.589743,3940.512821,4044.102564
189,4389.743589,4508.205128,4505.641025,4235.384615,4467.179487,4152.307692,4394.358974,4157.948717,4185.128205,4457.435897,4191.794871,4585.128205,3941.538462,4043.589743
190,4385.641025,4504.102564,4504.615384,4236.923076,4461.538461,4151.794871,4392.820512,4158.461538,4183.076923,4455.897435,4189.230769,4577.948717,3934.871795,4038.974358
191,4373.846153,4497.948717,4490.769230,4233.333333,4454.871794,4150.256410,4383.589743,4153.333333,4176.923076,4448.717948,4174.871794,4566.153846,3923.076924,4028.205128
192,4373.846153,4501.538461,4486.153846,4228.717948,4456.410256,4147.692307,4381.538461,4149.230769,4176.410256,4442.051282,4175.384615,4565.641025,3919.487180,4025.128205
193,4384.102564,4507.179487,4497.435897,4234.358974,4465.128205,4151.794871,4390.769230,4153.333333,4185.128205,4449.743589,4186.153846,4575.384615,3928.205129,4032.820512
194,4384.102564,4504.102564,4498.974358,4237.948717,4467.692307,4153.846153,4390.769230,4155.384615,4183.589743,4456.410256,4182.564102,4577.435897,3934.358975,4035.897435
195,4379.487179,4502.051282,4491.282051,4237.435897,4463.589743,4151.282051,4386.153846,4152.307692,4180.512820,4449.230769,4180.000000,4570.769230,3930.256411,4033.333333
196,4384.615384,4506.153846,4489.743589,4233.333333,4461.025641,4153.333333,4390.769230,4154.871794,4185.641025,4445.128205,4184.102564,4571.794871,3927.179488,4034.358974
197,4392.307692,4506.153846,4495.384615,4230.769230,4457.948717,4153.846153,4394.871794,4161.538461,4184.615384,4452.820512,4182.051282,4582.051282,3933.333334,4038.974358
198,4396.923076,4505.128205,4504.615384,4238.974358,4457.948717,4153.846153,4396.410256,4166.666666,4185.128205,4464.615384,4190.256410,4588.717948,3939.487180,4044.102564
199,4400.512820,4513.846153,4511.794871,4247.692307,4466.666666,4158.974358,4398.461538,4168.717948,4195.384615,4467.692307,4202.564102,4588.205128,3942.564103,4048.205128
200,4401.538461,4516.923076,4510.256410,4247.179487,4470.769230,4161.025641,4398.974358,4166.666666,4194.358974,4461.025641,4194.358974,4589.230769,3940.512821,4046.153846
201,4394.871794,4511.794871,4504.615384,4245.641025,4465.128205,4156.923076,4397.435897,4158.974358,4185.641025,4457.435897,4184.102564,4588.205128,3932.820513,4040.000000
202,4382.564102,4503.589743,4498.461538,4243.076923,4461.538461,4154.871794,4395.384615,4154.358974,4182.051282,4454.871794,4183.076923,4577.948717,3923.076924,4030.256410
203,4377.435897,4494.358974,4491.282051,4235.384615,4457.948717,4154.871794,4389.743589,4153.333333,4179.487179,4446.153846,4174.871794,4568.205128,3916.410257,4020.000000
204,4378.461538,4495.897435,4489.743589,4230.256410,4455.897435,4152.307692,4386.666666,4157.435897,4179.487179,4440.000000,4170.769230,4567.179487,3918.461539,4017.948717
205,4380.512820,4503.589743,4494.871794,4232.307692,4453.846153,4150.256410,4388.717948,4161.538461,4185.128205,4452.307692,4182.051282,4571.794871,3922.564103,4024.615384
206,4386.153846,4503.076923,4500.000000,4233.333333,4448.205128,4150.769230,4389.743589,4163.589743,4189.230769,4465.128205,4187.179487,4578.461538,3926.666667,4032.820512
207,4392.820512,4502.051282,4504.102564,4233.846153,4448.205128,4150.256410,4393.333333,4164.102564,4190.256410,4464.102564,4183.076923,4584.102564,3933.846154,4035.384615
208,4397.435897,4505.641025,4506.666666,4235.384615,4456.923076,4151.282051,4397.435897,4166.666666,4191.794871,4458.461538,4185.128205,4583.589743,3938.461539,4036.923076
209,4396.410256,4505.641025,4506.153846,4234.358974,4460.512820,4152.820512,4399.487179,4170.256410,4188.717948,4455.384615,4186.666666,4583.076923,3931.794872,4038.461538
210,4389.743589,4500.512820,4506.153846,4232.820512,4455.897435,4154.358974,4397.948717,4168.205128,4185.128205,4456.410256,4186.666666,4587.692307,3925.128206,4037.435897
211,4384.102564,4494.871794,4505.641025,4232.820512,4453.333333,4153.333333,4394.358974,4160.512820,4185.641025,4456.410256,4187.692307,4585.128205,3927.179488,4036.410256
212,4382.564102,4489.743589,4500.000000,4232.307692,4453.333333,4151.794871,4389.743589,4153.846153,4183.589743,4450.256410,4180.512820,4575.384615,3924.102565,4034.358974
213,4376.410256,4490.256410,4491.282051,4225.641025,4451.794871,4152.820512,4385.641025,4152.307692,4173.846153,4442.564102,4169.230769,4569.743589,3915.384616,4025.641025
214,4373.333333,4490.769230,4489.743589,4224.615384,4451.282051,4152.820512,4385.641025,4149.230769,4169.230769,4444.615384,4166.666666,4569.230769,3914.871795,4022.051282
215,4380.512820,4492.820512,4493.333333,4229.743589,4455.384615,4152.307692,4388.717948,4149.230769,4180.000000,4454.358974,4171.282051,4567.179487,3923.589744,4026.153846
216,4382.564102,4494.871794,4491.282051,4226.153846,4454.871794,4152.307692,4391.282051,4155.384615,4189.743589,4460.000000,4172.307692,4567.692307,3926.666667,4025.128205
217,4379.487179,4493.333333,4490.256410,4223.076923,4444.615384,4152.820512,4388.205128,4156.410256,4185.128205,4458.461538,4167.692307,4568.717948,3923.589744,4021.538461
218,4377.948717,4491.282051,4493.333333,4227.179487,4441.025641,4149.743589,4383.589743,4152.307692,4183.076923,4452.820512,4168.205128,4561.538461,3921.025642,4023.589743
219,4373.846153,4493.333333,4486.153846,4228.717948,4446.153846,4142.051282,4380.000000,4148.205128,4184.615384,4449.743589,4170.769230,4553.333333,3920.512821,4019.487179
220,4372.307692,4497.948717,4480.000000,4226.666666,4449.743589,4143.589743,4380.512820,4148.205128,4180.512820,4455.384615,4168.205128,4555.384615,3919.487180,4017.435897
221,4375.384615,4498.461538,4488.205128,4232.820512,4450.256410,4149.743589,4383.076923,4151.282051,4180.000000,4458.974358,4167.179487,4556.923076,3918.974359,4023.076923
222,4373.333333,4492.307692,4487.179487,4232.820512,4449.230769,4143.589743,4380.000000,4149.743589,4181.538461,4447.179487,4167.692307,4553.333333,3911.282052,4014.871794
223,4369.230769,4489.743589,4477.948717,4223.076923,4450.256410,4136.410256,4378.974358,4148.717948,4177.435897,4441.025641,4160.512820,4551.282051,3909.743590,4003.076923
224,4372.820512,4493.333333,4483.589743,4219.487179,4456.410256,4146.153846,4385.641025,4153.846153,4177.435897,4454.871794,4158.974358,4553.333333,3918.974359,4009.230769
225,4376.923076,4490.256410,4493.333333,4221.538461,4454.871794,4153.333333,4391.794871,4154.871794,4183.076923,4461.538461,4173.846153,4560.000000,3925.641026,4021.538461
226,4381.538461,4488.717948,4497.948717,4226.153846,4450.256410,4150.256410,4394.871794,4156.410256,4187.692307,4458.974358,4186.153846,4571.794871,3933.846154,4026.666666
227,4389.230769,4501.025641,4505.641025,4230.256410,4454.358974,4151.282051,4396.923076,4168.205128,4194.871794,4467.692307,4187.179487,4577.435897,3943.589744,4032.307692
228,4391.282051,4504.615384,4508.717948,4232.820512,4457.435897,4153.846153,4396.923076,4168.717948,4200.000000,4471.794871,4182.564102,4576.923076,3945.128206,4034.871794
229,4388.717948,4495.384615,4504.102564,4232.307692,4457.435897,4152.307692,4395.897435,4155.384615,4197.948717,4460.000000,4176.923076,4577.435897,3943.076924,4032.307692
230,4391.794871,4498.461538,4506.666666,4232.307692,4465.128205,4154.871794,4396.923076,4155.384615,4197.435897,4456.410256,4177.948717,4581.538461,3942.564103,4034.358974
231,4394.358974,4508.205128,4508.205128,4233.846153,4467.179487,4157.435897,4398.461538,4158.461538,4200.000000,4461.538461,4182.564102,4582.564102,3941.025642,4036.923076
232,4392.307692,4505.128205,4503.076923,4232.820512,4461.025641,4155.897435,4395.897435,4154.358974,4196.923076,4462.051282,4182.564102,4580.512820,3946.666667,4038.461538
233,4394.871794,4505.128205,4508.205128,4232.820512,4464.615384,4157.948717,4394.871794,4159.487179,4196.923076,4464.615384,4189.743589,4584.615384,3961.025642,4041.025641
234,4399.487179,4510.769230,4516.410256,4233.333333,4470.256410,4162.564102,4396.410256,4169.230769,4204.615384,4470.256410,4202.051282,4594.358974,3965.641026,4045.641025
235,4398.461538,4507.692307,4514.358974,4236.923076,4468.717948,4165.641025,4398.974358,4170.769230,4210.256410,4471.794871,4200.000000,4598.461538,3964.102565,4048.717948
236,4400.512820,4511.794871,4516.410256,4245.128205,4473.846153,4169.230769,4406.153846,4169.230769,4215.384615,4477.948717,4196.923076,4598.461538,3971.794872,4051.282051
237,4406.666666,4522.564102,4522.051282,4248.717948,4481.538461,4172.307692,4413.333333,4176.410256,4220.512820,4483.076923,4208.717948,4601.025641,3977.948718,4056.923076
238,4403.589743,4523.589743,4518.974358,4248.205128,4480.512820,4172.307692,4411.282051,4181.025641,4218.461538,4477.948717,4210.256410,4601.538461,3972.307693,4057.435897
239,4400.000000,4521.538461,4513.846153,4248.205128,4478.974358,4170.769230,4407.692307,4175.897435,4215.897435,4474.871794,4201.025641,4597.435897,3969.743590,4054.358974
240,4402.051282,4523.589743,4513.333333,4249.230769,4477.948717,4170.769230,4406.666666,4167.179487,4216.923076,4477.948717,4201.538461,4596.410256,3975.897436,4053.846153
241,4401.025641,4522.564102,4509.230769,4247.179487,4475.384615,4168.205128,4400.000000,4163.589743,4209.743589,4472.820512,4201.538461,4595.384615,3970.769231,4052.820512
242,4395.384615,4519.487179,4505.641025,4247.179487,4474.871794,4167.179487,4398.461538,4166.666666,4204.615384,4466.153846,4194.871794,4593.333333,3960.512821,4050.256410
243,4398.974358,4521.538461,4510.256410,4247.692307,4474.871794,4169.230769,4407.692307,4172.820512,4213.846153,4472.820512,4196.923076,4596.410256,3966.153847,4053.846153
244,4410.256410,4522.564102,4516.923076,4248.205128,4477.948717,4168.717948,4409.230769,4176.923076,4221.538461,4481.538461,4203.076923,4601.538461,3975.897436,4060.512820
245,4412.820512,4524.102564,4521.538461,4249.743589,4478.974358,4172.307692,4404.102564,4177.435897,4216.410256,4476.923076,4200.512820,4602.564102,3972.820513,4063.076923
246,4407.692307,4524.102564,4523.076923,4250.769230,4477.948717,4180.000000,4409.743589,4182.564102,4216.923076,4474.871794,4198.974358,4602.051282,3966.153847,4064.102564
247,4402.051282,4523.076923,4518.461538,4250.256410,4477.948717,4178.461538,4413.846153,4188.205128,4222.051282,4477.435897,4201.025641,4602.564102,3966.666667,4057.948717
248,4396.923076,4521.025641,4510.769230,4248.205128,4473.846153,4168.205128,4405.641025,4177.948717,4217.435897,4474.358974,4198.461538,4600.000000,3963.076924,4048.205128
249,4393.846153,4511.794871,4509.743589,4245.641025,4468.205128,4168.205128,4405.128205,4171.794871,4213.846153,4473.333333,4196.923076,4596.923076,3958.974359,4049.743589
250,4396.923076,4507.692307,4513.846153,4244.615384,4469.743589,4180.512820,4412.820512,4182.564102,4219.487179,4478.974358,4200.512820,4601.025641,3965.641026,4057.948717
251,4400.512820,4518.974358,4515.897435,4249.230769,4475.897435,4182.564102,4413.333333,4185.128205,4220.000000,4476.923076,4202.564102,4605.128205,3969.230770,4061.538461
252,4397.948717,4527.179487,4514.358974,4252.307692,4477.948717,4177.948717,4409.743589,4171.794871,4210.769230,4473.333333,4198.974358,4601.538461,3964.615385,4059.487179
253,4400.512820,4523.076923,4513.846153,4249.230769,4475.384615,4180.512820,4410.769230,4169.743589,4210.256410,4477.435897,4197.948717,4599.487179,3966.153847,4058.974358
254,4408.205128,4521.538461,4520.000000,4246.666666,4474.871794,4182.564102,4412.820512,4183.076923,4219.487179,4483.076923,4204.615384,4607.179487,3977.435898,4066.153846
255,4408.205128,4524.102564,4527.692307,4252.307692,4475.897435,4177.948717,4411.282051,4186.666666,4220.512820,4484.615384,4207.692307,4611.282051,3976.923077,4072.820512
