,AF3,F7,F3,FC5,T7,P7,O1,O2,P8,T8,FC6,F4,F8,AF4
0,4411.794871,4544.102564,4530.769230,4298.461538,4492.820512,4184.615384,4448.717948,4218.461538,4221.538461,4456.410256,4220.000000,4656.410256,3984.102565,4060.000000
1,4408.205128,4541.025641,4523.589743,4295.897435,4493.333333,4181.538461,4443.589743,4212.307692,4216.410256,4460.000000,4216.410256,4653.333333,3981.538462,4053.846153
2,4405.641025,4536.923076,4520.000000,4289.230769,4486.666666,4177.948717,4441.025641,4207.692307,4215.384615,4456.923076,4211.282051,4646.666666,3980.000000,4042.564102
3,4410.256410,4538.461538,4522.051282,4291.282051,4485.641025,4181.538461,4437.435897,4213.333333,4218.461538,4453.333333,4217.948717,4646.153846,3980.512821,4049.230769
4,4415.897435,4544.615384,4525.128205,4302.051282,4496.410256,4187.692307,4440.512820,4221.538461,4224.615384,4462.564102,4226.153846,4651.282051,3987.692308,4062.564102
5,4408.717948,4541.538461,4526.153846,4296.923076,4497.435897,4185.128205,4447.179487,4217.435897,4225.128205,4472.307692,4221.538461,4652.820512,3988.717949,4052.820512
6,4400.512820,4531.282051,4523.076923,4283.589743,4491.794871,4178.974358,4448.205128,4206.666666,4215.384615,4457.435897,4208.717948,4648.205128,3977.435898,4036.410256
7,4398.461538,4529.230769,4517.435897,4281.538461,4495.384615,4181.538461,4446.666666,4203.076923,4203.589743,4436.923076,4200.512820,4642.564102,3967.179488,4034.871794
8,4390.769230,4530.256410,4513.333333,4278.974358,4498.974358,4184.615384,4447.692307,4203.589743,4201.538461,4440.000000,4200.000000,4639.487179,3964.615385,4035.384615
9,4387.179487,4524.615384,4511.282051,4275.897435,4494.871794,4180.000000,4447.692307,4208.205128,4207.692307,4449.743589,4201.538461,4639.487179,3963.076924,4029.230769
10,4394.358974,4527.179487,4512.307692,4279.487179,4488.205128,4177.948717,4445.641025,4211.794871,4209.743589,4442.051282,4201.025641,4641.025641,3963.076924,4030.769230
11,4398.461538,4533.846153,4515.897435,4281.538461,4484.615384,4177.948717,4442.564102,4207.179487,4205.641025,4432.307692,4192.820512,4641.538461,3961.025642,4028.205128
12,4399.487179,4531.282051,4520.000000,4282.564102,4490.256410,4175.384615,4439.487179,4203.589743,4205.641025,4442.564102,4194.871794,4646.666666,3957.435898,4022.051282
13,4406.153846,4532.307692,4527.692307,4285.641025,4500.000000,4174.871794,4439.487179,4211.282051,4215.384615,4462.051282,4214.358974,4657.435897,3967.692308,4034.871794
14,4409.743589,4540.512820,4530.769230,4286.666666,4507.692307,4180.000000,4440.512820,4220.000000,4225.128205,4469.743589,4227.692307,4665.128205,3985.641026,4049.230769
15,4408.205128,4540.512820,4527.179487,4288.717948,4505.641025,4183.076923,4444.102564,4216.923076,4224.102564,4466.153846,4222.564102,4662.051282,3990.769231,4047.179487
16,4406.153846,4533.333333,4522.564102,4285.128205,4495.384615,4181.025641,4450.256410,4205.641025,4215.897435,4458.461538,4211.282051,4652.820512,3980.000000,4038.461538
17,4398.461538,4528.717948,4514.871794,4275.897435,4494.871794,4181.025641,4451.794871,4201.538461,4209.230769,4449.230769,4209.743589,4644.615384,3970.256411,4031.282051
18,4392.307692,4529.743589,4510.256410,4272.820512,4502.564102,4183.589743,4449.230769,4207.692307,4213.846153,4448.717948,4211.794871,4640.000000,3975.897436,4026.666666
19,4395.897435,4531.282051,4512.307692,4273.846153,4503.076923,4180.512820,4448.717948,4211.794871,4220.000000,4461.025641,4212.820512,4644.102564,3986.666667,4029.230769
20,4403.076923,4532.307692,4512.820512,4278.461538,4500.000000,4177.948717,4449.230769,4210.769230,4215.897435,4471.282051,4218.974358,4651.794871,3987.692308,4037.948717
21,4405.128205,4536.923076,4511.282051,4285.128205,4497.435897,4183.076923,4445.128205,4209.743589,4212.820512,4461.538461,4223.589743,4649.743589,3986.153847,4040.512820
22,4402.564102,4544.615384,4513.333333,4286.666666,4500.000000,4188.717948,4444.102564,4210.769230,4217.435897,4448.205128,4222.051282,4646.153846,3989.230770,4034.871794
23,4403.076923,4548.717948,4516.410256,4285.128205,4514.358974,4193.333333,4452.307692,4214.358974,4223.076923,4465.641025,4223.076923,4648.205128,3991.282052,4034.358974
24,4406.666666,4547.692307,4517.948717,4286.666666,4520.512820,4195.897435,4457.435897,4217.948717,4225.128205,4490.256410,4224.102564,4648.205128,3983.589744,4039.487179
25,4406.666666,4544.615384,4514.871794,4286.153846,4506.666666,4189.230769,4449.230769,4212.307692,4218.974358,4476.410256,4213.846153,4641.538461,3975.897436,4035.384615
26,4405.641025,4542.564102,4511.794871,4285.641025,4495.384615,4180.000000,4440.000000,4204.615384,4212.820512,4451.282051,4212.820512,4641.025641,3978.461539,4032.307692
27,4405.641025,4542.051282,4513.846153,4288.205128,4498.974358,4178.461538,4441.025641,4207.692307,4217.435897,4452.820512,4221.538461,4646.666666,3987.179488,4040.512820
28,4405.128205,4540.000000,4516.410256,4288.205128,4503.076923,4184.102564,4449.230769,4213.846153,4225.641025,4472.307692,4220.000000,4646.153846,3987.179488,4040.000000
29,4402.051282,4539.487179,4513.333333,4285.128205,4503.076923,4188.205128,4454.358974,4212.820512,4223.076923,4481.538461,4217.948717,4640.512820,3970.769231,4027.692307
30,4401.538461,4541.538461,4509.230769,4280.000000,4501.538461,4184.615384,4447.692307,4208.205128,4214.871794,4465.128205,4214.358974,4639.487179,3957.948718,4024.102564
31,4403.076923,4534.871794,4508.717948,4280.000000,4501.538461,4178.461538,4440.000000,4205.641025,4209.230769,4446.666666,4204.102564,4642.564102,3965.128206,4030.769230
32,4401.025641,4526.153846,4509.743589,4282.564102,4498.461538,4177.948717,4441.025641,4204.615384,4207.692307,4448.205128,4198.974358,4639.487179,3971.282052,4030.256410
33,4405.641025,4535.897435,4515.897435,4286.153846,4499.487179,4185.128205,4447.692307,4210.256410,4213.846153,4464.615384,4212.307692,4643.076923,3969.743590,4033.333333
34,4418.974358,4551.794871,4523.076923,4295.897435,4513.333333,4191.794871,4453.846153,4217.948717,4221.538461,4482.564102,4229.230769,4657.948717,3976.923077,4047.692307
35,4416.410256,4547.179487,4521.025641,4295.897435,4508.717948,4186.153846,4448.205128,4215.384615,4217.435897,4470.256410,4225.641025,4661.025641,3980.000000,4048.717948
36,4404.615384,4536.410256,4512.307692,4285.641025,4487.179487,4178.974358,4437.435897,4207.179487,4212.820512,4446.153846,4214.871794,4650.769230,3974.871795,4037.435897
37,4409.743589,4539.487179,4514.871794,4288.205128,4496.923076,4186.666666,4440.000000,4207.692307,4220.000000,4460.000000,4220.000000,4651.794871,3983.589744,4041.025641
38,4418.461538,4544.615384,4524.102564,4295.384615,4517.435897,4195.897435,4447.179487,4207.179487,4221.025641,4487.179487,4227.692307,4658.974358,3989.230770,4049.743589
39,4409.230769,4544.102564,4523.589743,4291.282051,4505.128205,4190.769230,4444.615384,4198.974358,4209.230769,4480.000000,4219.487179,4652.307692,3978.461539,4041.025641
40,4403.589743,4543.076923,4518.461538,4291.282051,4493.333333,4185.641025,4445.128205,4198.974358,4207.692307,4460.000000,4215.384615,4645.641025,3973.846154,4031.794871
41,4405.641025,4535.897435,4513.846153,4290.256410,4504.102564,4185.641025,4447.692307,4207.179487,4212.820512,4453.333333,4218.974358,4648.205128,3976.410257,4033.333333
42,4404.102564,4528.717948,4513.846153,4280.000000,4504.615384,4183.589743,4445.641025,4213.846153,4215.384615,4463.589743,4218.974358,4651.282051,3974.358975,4038.461538
43,4409.230769,4536.923076,4523.589743,4286.153846,4498.974358,4187.179487,4446.666666,4223.589743,4224.615384,4486.153846,4228.205128,4654.358974,3981.538462,4045.641025
44,4413.333333,4541.025641,4525.641025,4296.923076,4499.487179,4190.256410,4448.205128,4228.205128,4230.769230,4485.641025,4231.282051,4653.846153,3986.666667,4046.153846
45,4408.205128,4532.820512,4516.410256,4292.307692,4499.487179,4185.641025,4445.641025,4222.564102,4227.692307,4465.641025,4217.435897,4647.179487,3981.538462,4040.000000
46,4406.666666,4534.358974,4515.897435,4284.615384,4499.487179,4185.128205,4445.641025,4221.025641,4226.666666,4467.179487,4211.794871,4645.641025,3981.025642,4040.000000
47,4407.692307,4540.000000,4520.512820,4283.589743,4501.025641,4189.230769,4451.282051,4227.179487,4226.153846,4477.435897,4218.461538,4648.205128,3979.487180,4038.974358
48,4406.666666,4540.512820,4522.051282,4291.794871,4506.153846,4193.333333,4458.974358,4234.871794,4229.743589,4477.435897,4226.153846,4653.333333,3974.871795,4039.487179
49,4414.358974,4543.589743,4529.743589,4305.128205,4515.897435,4197.948717,4468.205128,4240.000000,4239.487179,4476.923076,4229.230769,4660.000000,3983.589744,4049.230769
50,4420.000000,4545.641025,4533.333333,4302.564102,4513.846153,4198.974358,4468.717948,4235.384615,4237.435897,4480.512820,4228.205128,4660.000000,3992.307693,4052.307692
51,4407.692307,4535.897435,4525.128205,4288.717948,4495.897435,4188.717948,4453.333333,4223.589743,4225.128205,4481.025641,4223.076923,4651.794871,3983.076924,4041.025641
52,4402.564102,4534.358974,4521.025641,4286.153846,4493.846153,4183.589743,4445.641025,4216.923076,4219.487179,4481.025641,4217.435897,4648.205128,3973.333334,4040.512820
53,4417.948717,4549.743589,4527.692307,4297.435897,4515.384615,4196.923076,4458.974358,4218.974358,4223.076923,4482.564102,4218.461538,4651.794871,3976.923077,4048.205128
54,4425.641025,4556.410256,4534.358974,4306.153846,4523.076923,4205.641025,4466.153846,4220.000000,4225.128205,4474.871794,4224.102564,4657.948717,3985.128206,4046.153846
55,4416.410256,4547.179487,4531.282051,4305.641025,4513.846153,4194.871794,4456.923076,4216.923076,4217.948717,4462.051282,4226.153846,4658.974358,3986.153847,4041.538461
56,4416.410256,4545.128205,4528.205128,4303.076923,4515.897435,4190.256410,4456.923076,4220.000000,4218.974358,4470.256410,4226.666666,4661.025641,3984.615385,4049.230769
57,4426.666666,4555.897435,4535.384615,4306.666666,4521.025641,4204.102564,4469.743589,4234.358974,4236.923076,4493.846153,4236.923076,4669.743589,3991.282052,4062.564102
58,4425.128205,4560.000000,4538.974358,4307.692307,4512.307692,4208.205128,4474.871794,4248.205128,4252.820512,4504.102564,4245.641025,4673.333333,4000.000000,4067.692307
59,4418.461538,4560.000000,4531.794871,4304.615384,4512.820512,4207.692307,4478.974358,4254.358974,4255.384615,4505.641025,4241.538461,4669.230769,4001.025641,4065.128205
60,4422.564102,4559.487179,4528.717948,4307.179487,4529.230769,4216.410256,4486.666666,4257.948717,4255.897435,4498.974358,4237.948717,4667.692307,4002.051282,4062.051282
61,4425.641025,4554.358974,4537.435897,4310.256410,4535.897435,4220.512820,4488.205128,4258.974358,4257.948717,4488.205128,4241.025641,4671.794871,4004.615384,4063.076923
62,4422.051282,4550.256410,4540.000000,4304.615384,4526.666666,4214.358974,4483.589743,4255.897435,4251.794871,4491.794871,4235.897435,4669.743589,3997.435898,4061.025641
63,4415.384615,4545.641025,4529.230769,4292.307692,4510.769230,4203.076923,4474.871794,4246.153846,4237.435897,4491.794871,4218.974358,4657.948717,3984.102565,4050.256410
64,4413.333333,4544.615384,4524.615384,4290.256410,4505.641025,4197.435897,4473.846153,4243.589743,4236.410256,4487.692307,4215.897435,4655.384615,3984.102565,4049.230769
65,4416.923076,4548.205128,4532.307692,4300.512820,4512.307692,4201.025641,4478.461538,4249.743589,4249.230769,4492.820512,4226.666666,4662.051282,3991.282052,4058.974358
66,4419.487179,4551.794871,4536.923076,4305.128205,4516.923076,4205.641025,4477.435897,4247.179487,4246.153846,4485.641025,4228.205128,4663.589743,3987.692308,4056.923076
67,4425.128205,4557.435897,4540.000000,4308.205128,4521.538461,4208.205128,4480.512820,4244.615384,4238.461538,4481.025641,4225.128205,4667.179487,3988.717949,4055.897435
68,4432.820512,4562.564102,4547.179487,4314.871794,4529.230769,4213.333333,4486.153846,4251.794871,4248.205128,4501.538461,4232.307692,4677.948717,4005.128205,4069.743589
69,4424.615384,4554.358974,4545.641025,4306.666666,4522.051282,4207.692307,4475.384615,4243.589743,4245.128205,4504.615384,4233.333333,4673.846153,4004.615384,4072.820512
70,4414.871794,4543.589743,4540.512820,4295.897435,4508.205128,4195.897435,4464.102564,4226.153846,4229.230769,4485.128205,4228.205128,4664.102564,3984.615385,4062.051282
71,4422.051282,4549.743589,4544.102564,4305.128205,4514.358974,4201.538461,4472.820512,4229.230769,4231.282051,4489.230769,4231.794871,4670.769230,3983.589744,4062.051282
72,4426.666666,4555.897435,4547.692307,4314.871794,4529.743589,4210.256410,4474.871794,4238.461538,4238.974358,4490.769230,4231.794871,4674.871794,3993.846154,4063.076923
73,4418.974358,4550.256410,4547.692307,4307.179487,4527.179487,4207.692307,4469.743589,4235.897435,4235.384615,4479.487179,4222.564102,4667.692307,3993.333334,4056.410256
74,4414.358974,4544.615384,4542.564102,4300.000000,4510.256410,4203.589743,4466.666666,4230.769230,4231.282051,4489.743589,4218.974358,4660.512820,3987.692308,4050.769230
75,4407.692307,4543.076923,4526.666666,4296.410256,4500.000000,4197.948717,4458.461538,4220.512820,4228.205128,4493.846153,4215.897435,4649.743589,3979.487180,4045.641025
76,4401.025641,4544.102564,4515.897435,4293.846153,4508.205128,4190.256410,4455.897435,4216.410256,4223.076923,4473.846153,4205.641025,4641.538461,3972.307693,4040.512820
77,4408.205128,4546.666666,4525.128205,4296.923076,4518.974358,4192.307692,4461.025641,4226.153846,4228.717948,4470.256410,4209.743589,4650.769230,3982.051283,4046.666666
78,4417.435897,4549.743589,4533.333333,4300.000000,4516.410256,4201.538461,4460.000000,4231.794871,4240.000000,4488.205128,4223.076923,4664.102564,3995.384616,4053.846153
79,4416.410256,4550.256410,4531.794871,4302.051282,4513.846153,4205.641025,4461.538461,4228.205128,4242.051282,4498.974358,4217.435897,4662.051282,3989.743590,4047.179487
80,4409.743589,4545.128205,4531.282051,4302.564102,4519.487179,4206.666666,4468.205128,4226.666666,4233.846153,4494.358974,4205.128205,4654.358974,3979.487180,4044.615384
81,4405.641025,4538.461538,4528.717948,4294.871794,4516.410256,4204.102564,4464.615384,4223.589743,4224.615384,4479.487179,4207.692307,4650.769230,3983.076924,4050.256410
82,4406.153846,4540.000000,4525.641025,4288.205128,4508.717948,4196.923076,4457.435897,4215.384615,4221.538461,4470.256410,4211.282051,4648.205128,3984.102565,4048.717948
83,4405.641025,4541.025641,4527.179487,4289.743589,4507.692307,4190.769230,4453.333333,4209.743589,4221.025641,4477.435897,4205.641025,4647.179487,3975.897436,4044.102564
84,4405.128205,4536.923076,4528.205128,4291.282051,4507.692307,4191.794871,4451.794871,4211.794871,4221.538461,4481.025641,4207.179487,4650.256410,3976.410257,4048.717948
85,4403.076923,4533.846153,4523.589743,4287.692307,4500.512820,4195.384615,4453.846153,4214.871794,4220.512820,4468.717948,4208.717948,4653.333333,3980.000000,4047.692307
86,4395.897435,4529.743589,4519.487179,4277.948717,4500.512820,4195.384615,4457.435897,4213.846153,4217.435897,4461.025641,4193.846153,4647.692307,3969.743590,4036.410256
87,4394.871794,4532.307692,4523.076923,4274.358974,4511.794871,4194.871794,4458.461538,4216.410256,4222.051282,4472.307692,4193.333333,4646.666666,3966.666667,4040.000000
88,4405.641025,4541.538461,4529.230769,4285.128205,4521.025641,4197.948717,4458.461538,4221.025641,4227.692307,4486.153846,4217.435897,4655.897435,3980.000000,4054.358974
89,4408.205128,4540.512820,4529.743589,4288.717948,4515.384615,4195.384615,4456.410256,4214.871794,4220.512820,4476.410256,4223.589743,4655.384615,3983.076924,4052.307692
90,4395.897435,4527.179487,4520.000000,4273.333333,4493.333333,4183.076923,4445.128205,4202.564102,4206.153846,4451.794871,4200.512820,4639.487179,3966.666667,4034.871794
91,4391.282051,4526.153846,4515.897435,4271.282051,4487.692307,4183.589743,4440.512820,4203.076923,4207.692307,4454.358974,4195.897435,4634.871794,3961.025642,4028.205128
92,4399.487179,4538.974358,4523.589743,4285.128205,4509.743589,4196.410256,4451.282051,4215.384615,4223.589743,4483.076923,4215.897435,4647.692307,3973.333334,4038.461538
93,4407.179487,4546.666666,4534.358974,4288.205128,4525.128205,4200.000000,4460.000000,4222.051282,4236.410256,4502.564102,4222.564102,4654.871794,3986.153847,4051.794871
94,4411.794871,4547.692307,4537.948717,4289.743589,4522.564102,4195.384615,4457.948717,4223.076923,4241.538461,4497.948717,4212.307692,4654.871794,3991.282052,4058.461538
95,4408.717948,4542.564102,4533.333333,4286.666666,4513.333333,4192.307692,4453.333333,4220.000000,4233.333333,4480.512820,4206.153846,4651.794871,3983.589744,4048.717948
96,4398.974358,4533.333333,4527.692307,4275.384615,4501.538461,4190.256410,4450.769230,4215.384615,4223.076923,4475.897435,4213.333333,4648.205128,3971.794872,4039.487179
97,4397.435897,4529.230769,4529.743589,4276.410256,4497.435897,4193.846153,4453.333333,4220.512820,4230.256410,4489.743589,4226.153846,4651.794871,3977.435898,4046.666666
98,4404.102564,4535.897435,4535.384615,4284.102564,4509.230769,4202.051282,4458.461538,4227.179487,4239.487179,4489.230769,4223.589743,4656.410256,3986.153847,4052.820512
99,4404.102564,4546.666666,4531.794871,4284.615384,4517.435897,4200.000000,4455.384615,4220.000000,4229.230769,4470.769230,4209.230769,4650.769230,3978.974359,4049.230769
100,4404.615384,4551.794871,4530.256410,4289.230769,4522.051282,4203.589743,4455.384615,4215.897435,4227.692307,4481.025641,4213.846153,4650.256410,3977.948718,4052.820512
101,4408.717948,4550.769230,4534.871794,4296.923076,4525.641025,4210.256410,4462.564102,4225.641025,4243.589743,4511.794871,4225.641025,4661.538461,3987.179488,4059.487179
102,4403.076923,4546.666666,4531.282051,4293.333333,4515.384615,4200.512820,4460.512820,4225.641025,4240.512820,4507.179487,4217.948717,4659.487179,3984.615385,4055.384615
103,4396.923076,4544.102564,4523.076923,4286.666666,4506.666666,4193.333333,4453.846153,4218.461538,4228.205128,4485.128205,4212.820512,4649.230769,3981.538462,4052.307692
104,4400.000000,4544.615384,4524.615384,4284.102564,4513.846153,4201.538461,4458.974358,4222.051282,4235.384615,4492.307692,4228.717948,4652.307692,3987.179488,4056.410256
105,4409.230769,4551.282051,4531.282051,4287.692307,4527.179487,4211.282051,4467.692307,4231.794871,4246.666666,4510.769230,4244.102564,4660.512820,3991.794872,4061.025641
106,4417.435897,4560.512820,4537.435897,4297.435897,4531.794871,4214.871794,4472.820512,4235.384615,4249.230769,4514.358974,4241.025641,4663.589743,3997.435898,4066.666666
107,4421.025641,4564.102564,4543.589743,4299.487179,4535.384615,4215.897435,4478.461538,4235.897435,4249.743589,4514.871794,4239.487179,4668.205128,4002.051282,4072.820512
108,4420.512820,4561.538461,4541.025641,4292.820512,4538.461538,4213.333333,4477.948717,4234.358974,4245.128205,4511.282051,4245.128205,4671.282051,4002.564102,4074.358974
109,4417.948717,4558.974358,4537.435897,4287.179487,4530.769230,4210.769230,4469.230769,4229.230769,4236.923076,4503.076923,4238.974358,4664.615384,4000.000000,4066.666666
110,4418.461538,4560.512820,4542.564102,4287.179487,4527.179487,4211.282051,4467.692307,4230.256410,4239.487179,4502.051282,4235.384615,4666.153846,3996.923077,4055.897435
111,4420.512820,4564.102564,4550.769230,4294.358974,4536.923076,4212.307692,4475.384615,4237.948717,4247.692307,4512.307692,4247.692307,4677.435897,3997.435898,4058.461538
112,4424.102564,4566.153846,4551.282051,4301.025641,4540.000000,4213.846153,4477.948717,4240.000000,4247.692307,4525.128205,4251.794871,4678.974358,4000.000000,4070.256410
113,4425.128205,4563.076923,4548.205128,4295.384615,4530.256410,4211.282051,4473.846153,4236.410256,4243.076923,4518.461538,4237.948717,4672.820512,3995.897436,4068.205128
114,4416.923076,4557.435897,4545.128205,4282.564102,4522.564102,4202.051282,4470.256410,4229.743589,4238.461538,4492.307692,4226.666666,4671.794871,3983.589744,4054.871794
115,4413.846153,4558.974358,4545.641025,4281.538461,4529.230769,4203.589743,4471.282051,4231.282051,4238.461538,4492.307692,4228.205128,4676.923076,3980.512821,4054.358974
116,4429.230769,4570.769230,4557.948717,4293.333333,4543.589743,4217.948717,4480.000000,4241.025641,4247.692307,4518.461538,4238.974358,4685.641025,3993.333334,4065.641025
117,4439.487179,4576.923076,4571.282051,4302.564102,4551.794871,4224.102564,4484.102564,4245.128205,4254.358974,4518.974358,4247.692307,4693.846153,4004.615384,4073.333333
118,4431.794871,4570.769230,4563.076923,4295.384615,4546.153846,4213.846153,4476.923076,4240.512820,4247.179487,4504.102564,4246.666666,4691.282051,3998.974359,4073.333333
119,4427.179487,4566.666666,4549.743589,4283.589743,4538.974358,4208.205128,4471.794871,4235.897435,4238.461538,4506.666666,4238.461538,4684.102564,3987.692308,4066.666666
120,4429.230769,4568.717948,4554.871794,4285.641025,4537.948717,4210.769230,4474.871794,4231.794871,4239.487179,4510.256410,4230.256410,4682.051282,3985.128206,4062.564102
121,4423.589743,4564.615384,4554.871794,4285.641025,4529.743589,4205.641025,4470.256410,4227.692307,4237.948717,4501.538461,4224.102564,4677.435897,3984.615385,4061.025641
122,4418.974358,4559.487179,4539.487179,4276.410256,4524.102564,4201.538461,4461.538461,4227.692307,4233.846153,4496.410256,4221.538461,4668.717948,3983.076924,4058.974358
123,4424.102564,4563.076923,4536.410256,4281.025641,4532.820512,4208.717948,4464.615384,4231.794871,4238.974358,4498.974358,4224.615384,4670.769230,3985.641026,4062.564102
124,4421.025641,4561.025641,4543.076923,4285.641025,4534.358974,4207.692307,4467.692307,4233.333333,4242.051282,4496.923076,4228.205128,4676.923076,3986.153847,4059.487179
125,4411.794871,4554.871794,4542.051282,4273.333333,4526.153846,4200.000000,4464.102564,4232.307692,4238.974358,4498.974358,4226.153846,4674.358974,3981.538462,4051.794871
126,4416.410256,4562.051282,4538.461538,4273.333333,4530.256410,4203.076923,4465.128205,4234.871794,4242.564102,4512.307692,4227.179487,4670.769230,3984.102565,4058.461538
127,4420.512820,4567.692307,4531.794871,4280.000000,4530.769230,4204.615384,4462.564102,4232.307692,4241.538461,4511.794871,4229.743589,4668.717948,3989.230770,4062.051282
128,4410.256410,4562.564102,4526.666666,4274.871794,4517.948717,4196.923076,4452.820512,4223.589743,4233.846153,4493.846153,4226.666666,4664.615384,3983.589744,4048.717948
129,4413.846153,4565.128205,4531.794871,4277.948717,4525.641025,4200.000000,4457.435897,4224.102564,4240.000000,4492.820512,4230.769230,4670.256410,3988.205129,4050.769230
130,4433.846153,4577.948717,4543.076923,4294.358974,4553.333333,4218.461538,4476.923076,4240.000000,4258.461538,4516.923076,4247.179487,4685.641025,4011.794871,4076.410256
131,4436.410256,4584.102564,4549.743589,4303.589743,4558.974358,4227.692307,4486.666666,4252.820512,4267.692307,4534.871794,4256.923076,4693.333333,4019.487179,4087.692307
132,4422.564102,4574.871794,4542.051282,4293.333333,4536.410256,4219.487179,4475.897435,4251.282051,4265.641025,4533.846153,4249.230769,4684.102564,4002.564102,4069.230769
133,4413.846153,4560.512820,4528.717948,4277.435897,4522.051282,4206.666666,4464.102564,4245.128205,4261.538461,4527.692307,4237.435897,4673.846153,3992.307693,4055.897435
134,4414.871794,4558.974358,4528.205128,4276.410256,4529.743589,4205.641025,4466.666666,4244.615384,4256.410256,4516.923076,4236.410256,4673.333333,3999.487180,4063.076923
135,4422.051282,4569.743589,4540.000000,4290.769230,4545.128205,4214.358974,4477.435897,4247.179487,4256.410256,4516.410256,4244.102564,4682.051282,4010.769230,4069.230769
136,4425.128205,4571.794871,4543.076923,4295.897435,4547.179487,4215.897435,4478.461538,4246.153846,4260.000000,4525.641025,4245.128205,4689.230769,4011.794871,4066.666666
137,4413.846153,4561.538461,4533.333333,4287.692307,4533.333333,4209.230769,4468.205128,4239.487179,4254.358974,4523.076923,4236.923076,4680.512820,3998.461539,4061.538461
138,4406.666666,4555.897435,4530.256410,4285.128205,4525.641025,4206.153846,4463.076923,4232.307692,4247.692307,4514.871794,4233.333333,4670.769230,3987.692308,4058.461538
139,4414.358974,4557.948717,4534.871794,4289.230769,4533.846153,4209.743589,4468.205128,4233.333333,4249.743589,4513.846153,4235.897435,4676.923076,3993.846154,4061.538461
140,4416.410256,4560.512820,4539.487179,4288.205128,4538.461538,4211.282051,4471.282051,4239.487179,4250.256410,4511.794871,4242.564102,4685.641025,3997.948718,4065.128205
141,4410.256410,4559.487179,4539.487179,4281.538461,4532.820512,4208.205128,4466.666666,4235.384615,4244.615384,4510.256410,4240.512820,4678.461538,3989.230770,4060.512820
142,4411.282051,4560.000000,4535.384615,4283.076923,4532.307692,4209.743589,4466.666666,4228.205128,4243.076923,4523.076923,4227.179487,4668.717948,3984.102565,4055.897435
143,4412.307692,4563.076923,4530.256410,4289.230769,4531.282051,4210.769230,4465.641025,4223.589743,4241.025641,4524.102564,4226.153846,4667.692307,3985.128206,4055.384615
144,4408.717948,4561.025641,4530.256410,4288.717948,4525.641025,4205.128205,4459.487179,4220.512820,4235.897435,4503.589743,4236.923076,4668.205128,3985.128206,4056.410256
145,4411.282051,4558.461538,4534.871794,4287.692307,4532.820512,4204.615384,4461.025641,4227.692307,4240.512820,4501.025641,4235.897435,4670.769230,3983.076924,4063.589743
146,4418.461538,4565.641025,4535.384615,4291.794871,4546.666666,4211.794871,4462.564102,4234.358974,4244.102564,4516.410256,4226.666666,4671.794871,3985.128206,4068.717948
147,4416.410256,4569.230769,4531.794871,4291.794871,4536.923076,4208.205128,4459.487179,4227.179487,4239.487179,4518.974358,4224.615384,4667.692307,3989.230770,4061.538461
148,4407.692307,4562.051282,4527.179487,4289.743589,4517.435897,4200.000000,4456.923076,4220.512820,4237.435897,4511.282051,4226.153846,4658.461538,3989.743590,4053.333333
149,4403.589743,4557.948717,4520.512820,4287.692307,4522.051282,4203.076923,4455.897435,4226.666666,4241.025641,4508.205128,4230.769230,4655.897435,3989.743590,4055.897435
150,4406.666666,4562.564102,4521.538461,4284.615384,4537.435897,4207.692307,4456.923076,4232.307692,4243.076923,4508.717948,4234.871794,4663.076923,3992.820513,4061.538461
151,4410.769230,4565.641025,4526.153846,4287.692307,4545.128205,4211.794871,4464.102564,4235.384615,4249.230769,4521.025641,4234.358974,4668.717948,4000.512820,4062.051282
152,4407.179487,4562.564102,4523.589743,4291.794871,4544.102564,4214.358974,4465.641025,4236.410256,4253.333333,4532.820512,4231.794871,4665.641025,4002.051282,4057.435897
153,4401.025641,4557.948717,4520.000000,4289.230769,4530.769230,4206.153846,4456.410256,4228.205128,4244.615384,4517.435897,4229.743589,4656.923076,3993.846154,4053.846153
154,4404.102564,4558.461538,4523.589743,4287.179487,4528.717948,4202.564102,4455.897435,4226.153846,4241.025641,4507.692307,4229.743589,4657.948717,3987.692308,4056.410256
155,4417.435897,4567.692307,4534.871794,4296.410256,4550.769230,4219.487179,4472.820512,4242.564102,4258.461538,4529.743589,4237.435897,4672.307692,3997.435898,4066.153846
156,4421.025641,4575.384615,4541.538461,4303.076923,4557.948717,4226.666666,4482.564102,4254.358974,4269.230769,4541.538461,4244.102564,4681.025641,4011.282051,4071.282051
157,4410.256410,4568.205128,4537.435897,4297.435897,4540.512820,4212.307692,4470.256410,4245.641025,4257.948717,4532.820512,4240.512820,4672.307692,4008.205128,4064.102564
158,4405.641025,4558.974358,4533.333333,4295.384615,4543.589743,4211.794871,4461.538461,4237.948717,4252.820512,4529.743589,4240.512820,4668.205128,3998.461539,4061.538461
159,4408.205128,4559.487179,4533.333333,4299.487179,4548.717948,4218.974358,4469.230769,4238.461538,4253.846153,4526.153846,4239.487179,4670.769230,3994.358975,4059.487179
160,4406.153846,4562.051282,4531.282051,4300.000000,4533.333333,4210.256410,4468.717948,4236.410256,4248.205128,4522.564102,4233.333333,4666.666666,3993.333334,4050.256410
161,4405.128205,4564.102564,4531.282051,4297.948717,4535.897435,4209.230769,4464.102564,4238.461538,4248.717948,4529.743589,4237.948717,4666.153846,3995.384616,4051.282051
162,4407.179487,4565.128205,4536.923076,4294.358974,4550.769230,4218.974358,4466.153846,4236.923076,4246.153846,4528.205128,4240.000000,4669.743589,3989.230770,4058.461538
163,4406.153846,4561.538461,4533.333333,4294.358974,4547.692307,4215.384615,4465.641025,4226.666666,4236.923076,4516.923076,4229.743589,4668.205128,3978.461539,4055.384615
164,4404.615384,4562.051282,4527.692307,4300.512820,4543.589743,4208.717948,4463.076923,4223.076923,4237.948717,4522.564102,4226.666666,4665.641025,3987.179488,4052.307692
165,4404.615384,4561.538461,4528.205128,4298.461538,4543.076923,4209.743589,4464.615384,4227.692307,4245.128205,4529.230769,4238.461538,4666.666666,4006.153846,4057.435897
166,4400.512820,4552.307692,4527.692307,4289.230769,4531.794871,4212.307692,4464.102564,4232.820512,4249.230769,4519.487179,4241.538461,4668.205128,4006.153846,4057.948717
167,4400.000000,4553.846153,4529.743589,4293.333333,4534.358974,4216.923076,4467.692307,4244.102564,4258.974358,4523.076923,4237.948717,4671.282051,3998.974359,4054.358974
168,4406.666666,4567.692307,4531.282051,4301.025641,4550.256410,4221.538461,4476.923076,4250.256410,4265.128205,4541.025641,4243.589743,4674.358974,3999.487180,4054.871794
169,4405.641025,4564.615384,4526.153846,4295.897435,4546.666666,4215.897435,4473.846153,4241.025641,4255.384615,4533.333333,4243.076923,4669.230769,3993.846154,4056.923076
170,4400.512820,4552.307692,4522.564102,4289.743589,4540.512820,4211.282051,4469.230769,4236.923076,4251.282051,4510.256410,4231.794871,4665.641025,3988.205129,4056.923076
171,4402.051282,4553.846153,4529.230769,4292.820512,4545.641025,4215.384615,4476.410256,4244.102564,4258.461538,4512.820512,4230.256410,4671.282051,3996.410257,4057.948717
172,4400.000000,4555.897435,4530.256410,4291.282051,4529.230769,4210.256410,4469.230769,4235.897435,4252.307692,4521.538461,4233.846153,4669.230769,3992.820513,4055.384615
173,4391.794871,4546.666666,4521.025641,4282.051282,4509.743589,4200.512820,4455.384615,4222.564102,4238.974358,4515.897435,4226.666666,4658.974358,3975.897436,4044.615384
174,4394.871794,4545.128205,4523.589743,4281.025641,4526.153846,4203.589743,4457.435897,4224.615384,4241.025641,4515.384615,4224.615384,4660.512820,3978.461539,4046.153846
175,4402.564102,4551.282051,4531.794871,4289.230769,4541.538461,4209.230769,4462.564102,4229.230769,4244.615384,4509.743589,4232.820512,4668.205128,3989.230770,4058.974358
176,4399.487179,4546.666666,4528.717948,4289.230769,4530.769230,4204.615384,4456.923076,4224.615384,4237.435897,4495.897435,4228.717948,4664.615384,3984.102565,4057.435897
177,4395.384615,4542.051282,4525.128205,4284.615384,4525.128205,4203.076923,4457.948717,4224.102564,4240.000000,4506.666666,4223.076923,4663.076923,3982.564103,4052.307692
178,4404.615384,4551.794871,4537.435897,4288.205128,4532.820512,4210.256410,4466.666666,4230.769230,4250.256410,4530.769230,4230.256410,4671.282051,3994.358975,4061.025641
179,4414.358974,4561.025641,4546.153846,4294.871794,4531.282051,4210.256410,4466.153846,4231.794871,4247.692307,4523.076923,4237.435897,4672.820512,3993.333334,4066.153846
180,4410.769230,4560.512820,4539.487179,4295.384615,4527.179487,4205.128205,4463.076923,4227.179487,4242.051282,4507.692307,4236.923076,4667.179487,3986.666667,4062.564102
181,4402.564102,4554.358974,4532.820512,4291.794871,4530.769230,4207.692307,4466.153846,4227.179487,4244.615384,4515.384615,4232.820512,4667.179487,3992.820513,4062.564102
182,4402.051282,4545.641025,4527.179487,4288.205128,4527.179487,4205.641025,4462.564102,4224.615384,4243.589743,4515.897435,4227.179487,4664.615384,3992.307693,4055.384615
183,4400.000000,4542.051282,4517.948717,4282.051282,4517.435897,4196.410256,4454.358974,4219.487179,4233.333333,4500.000000,4219.487179,4657.948717,3977.948718,4045.641025
184,4390.769230,4539.487179,4516.923076,4273.333333,4512.820512,4193.333333,4453.846153,4220.000000,4224.102564,4488.717948,4216.923076,4654.871794,3970.769231,4047.692307
185,4382.051282,4533.333333,4514.871794,4268.205128,4507.692307,4192.820512,4450.256410,4215.897435,4219.487179,4483.589743,4211.282051,4649.743589,3967.692308,4041.025641
186,4380.000000,4530.256410,4507.179487,4268.717948,4503.076923,4187.692307,4444.102564,4205.641025,4217.948717,4484.102564,4204.615384,4643.589743,3963.589744,4030.256410
187,4383.076923,4532.307692,4509.230769,4271.794871,4513.846153,4191.282051,4450.256410,4206.153846,4221.025641,4489.230769,4208.205128,4648.205128,3967.179488,4037.948717
188,4391.282051,4537.435897,4520.000000,4277.435897,4526.153846,4204.102564,4460.000000,4217.948717,4228.717948,4491.282051,4220.000000,4660.000000,3974.358975,4054.358974
189,4398.461538,4545.128205,4526.153846,4279.487179,4526.153846,4211.282051,4465.641025,4225.641025,4238.461538,4500.000000,4227.692307,4667.179487,3980.512821,4057.948717
190,4390.256410,4540.512820,4522.564102,4270.769230,4519.487179,4204.102564,4464.102564,4226.666666,4241.538461,4517.948717,4217.948717,4662.051282,3980.512821,4045.128205
191,4378.461538,4526.666666,4514.358974,4264.615384,4505.128205,4190.256410,4452.820512,4223.076923,4238.461538,4518.461538,4205.128205,4651.794871,3969.743590,4030.769230
192,4383.589743,4528.717948,4514.871794,4272.820512,4501.025641,4188.717948,4448.717948,4224.615384,4239.487179,4497.435897,4210.256410,4652.307692,3964.102565,4036.923076
193,4391.282051,4537.435897,4521.025641,4278.974358,4511.794871,4194.358974,4455.384615,4227.692307,4238.974358,4485.641025,4219.487179,4657.435897,3969.230770,4052.820512
194,4386.153846,4533.333333,4518.974358,4272.307692,4507.179487,4189.743589,4450.769230,4218.461538,4227.179487,4496.923076,4212.307692,4652.307692,3974.358975,4047.179487
195,4381.538461,4528.205128,4514.358974,4266.666666,4501.538461,4188.717948,4445.128205,4213.333333,4227.179487,4512.307692,4208.717948,4650.256410,3978.974359,4041.538461
196,4385.128205,4531.794871,4520.000000,4267.179487,4510.256410,4194.871794,4453.333333,4218.974358,4236.410256,4512.307692,4222.051282,4655.384615,3980.512821,4048.205128
197,4390.769230,4531.282051,4525.128205,4270.256410,4510.256410,4190.769230,4452.307692,4220.512820,4232.820512,4502.564102,4221.025641,4657.948717,3976.410257,4050.769230
198,4391.794871,4529.743589,4521.538461,4273.333333,4506.153846,4183.589743,4440.512820,4218.461538,4230.769230,4494.358974,4210.769230,4657.435897,3978.461539,4049.230769
199,4395.384615,4538.974358,4523.076923,4277.435897,4516.923076,4191.794871,4444.102564,4225.641025,4238.974358,4495.384615,4220.000000,4661.025641,3988.205129,4051.794871
200,4397.948717,4543.076923,4527.692307,4277.948717,4518.974358,4201.025641,4455.384615,4227.179487,4237.948717,4503.076923,4227.179487,4663.076923,3981.025642,4053.846153
201,4388.205128,4532.307692,4522.051282,4267.692307,4500.000000,4190.256410,4448.205128,4215.384615,4223.589743,4497.948717,4208.717948,4655.897435,3963.076924,4049.230769
202,4379.487179,4524.615384,4514.871794,4261.025641,4494.871794,4178.461538,4439.487179,4207.179487,4216.923076,4491.282051,4196.923076,4650.256410,3961.025642,4037.948717
203,4384.102564,4528.717948,4518.461538,4269.230769,4508.717948,4185.128205,4443.589743,4207.179487,4218.974358,4497.948717,4204.615384,4652.820512,3969.743590,4031.282051
204,4390.256410,4532.307692,4524.615384,4277.435897,4517.435897,4194.871794,4449.743589,4212.820512,4223.076923,4500.000000,4208.717948,4656.410256,3974.871795,4040.000000
205,4390.769230,4537.435897,4523.589743,4277.435897,4517.435897,4195.897435,4452.307692,4223.589743,4229.230769,4491.282051,4210.769230,4656.923076,3973.846154,4047.692307
206,4392.820512,4544.615384,4521.025641,4277.435897,4514.871794,4195.384615,4453.333333,4231.282051,4236.410256,4492.307692,4214.871794,4656.923076,3972.820513,4048.205128
207,4391.282051,4538.974358,4518.974358,4273.846153,4513.846153,4197.435897,4452.307692,4231.282051,4240.512820,4507.179487,4212.307692,4655.384615,3974.871795,4050.256410
208,4384.615384,4527.692307,4514.358974,4264.615384,4505.128205,4192.307692,4448.717948,4225.128205,4235.384615,4515.897435,4209.230769,4648.717948,3971.794872,4040.512820
209,4387.692307,4531.282051,4514.358974,4265.128205,4501.538461,4191.282051,4451.794871,4225.128205,4234.871794,4513.333333,4216.923076,4650.256410,3969.230770,4032.307692
210,4402.051282,4545.641025,4527.179487,4274.871794,4517.435897,4204.615384,4460.512820,4237.435897,4249.743589,4512.820512,4226.153846,4666.666666,3982.564103,4050.256410
211,4408.205128,4548.717948,4536.410256,4280.000000,4529.743589,4212.307692,4465.641025,4244.102564,4254.871794,4515.897435,4226.666666,4680.000000,3994.871795,4061.025641
212,4402.051282,4546.153846,4530.769230,4276.923076,4527.692307,4207.179487,4462.564102,4231.282051,4241.538461,4518.974358,4225.128205,4675.384615,3990.256411,4047.692307
213,4403.076923,4550.769230,4530.256410,4277.948717,4534.871794,4207.692307,4458.461538,4225.128205,4240.512820,4531.794871,4228.205128,4669.230769,3988.205129,4047.692307
214,4409.743589,4553.846153,4538.974358,4283.076923,4542.051282,4210.769230,4461.025641,4234.358974,4248.205128,4539.487179,4231.282051,4673.846153,3990.256411,4051.282051
215,4402.564102,4547.179487,4531.794871,4278.974358,4527.179487,4200.000000,4462.051282,4230.256410,4240.000000,4513.333333,4225.128205,4667.179487,3982.051283,4033.333333
216,4394.358974,4540.512820,4520.000000,4270.256410,4515.384615,4194.871794,4458.974358,4222.051282,4229.743589,4489.230769,4220.000000,4654.358974,3973.846154,4026.666666
217,4403.076923,4545.128205,4530.256410,4276.923076,4527.179487,4206.666666,4464.102564,4232.820512,4235.897435,4507.692307,4224.102564,4662.564102,3982.051283,4044.615384
218,4409.230769,4550.769230,4541.538461,4287.179487,4533.846153,4211.794871,4471.282051,4237.435897,4241.538461,4530.256410,4226.153846,4675.384615,3989.743590,4049.743589
219,4403.589743,4547.692307,4533.846153,4282.051282,4530.769230,4206.666666,4469.230769,4229.230769,4242.564102,4524.102564,4222.564102,4670.769230,3980.512821,4039.487179
220,4405.641025,4550.769230,4528.717948,4276.923076,4536.410256,4208.717948,4467.692307,4236.410256,4251.794871,4516.410256,4225.641025,4667.692307,3974.871795,4036.923076
221,4410.769230,4557.435897,4530.256410,4283.076923,4540.512820,4212.820512,4471.282051,4247.179487,4258.974358,4523.589743,4232.820512,4673.333333,3983.076924,4038.974358
222,4407.692307,4554.358974,4528.717948,4284.102564,4534.358974,4210.256410,4471.794871,4243.076923,4258.974358,4532.307692,4231.794871,4672.820512,3988.205129,4042.564102
223,4405.128205,4548.717948,4526.666666,4277.435897,4526.153846,4206.153846,4466.666666,4240.512820,4256.410256,4537.435897,4228.205128,4668.717948,3983.076924,4044.102564
224,4405.641025,4547.179487,4527.692307,4276.410256,4521.025641,4205.128205,4461.538461,4244.102564,4252.820512,4528.717948,4228.205128,4671.794871,3981.025642,4040.000000
225,4410.256410,4550.256410,4526.153846,4281.025641,4528.717948,4207.692307,4463.076923,4243.589743,4250.769230,4512.820512,4224.615384,4675.897435,3983.076924,4039.487179
226,4413.333333,4556.923076,4523.076923,4281.025641,4541.538461,4209.230769,4465.128205,4240.512820,4251.794871,4517.948717,4221.025641,4673.333333,3986.666667,4042.564102
227,4408.205128,4556.923076,4522.564102,4275.384615,4540.512820,4205.128205,4461.025641,4238.461538,4249.230769,4533.846153,4227.179487,4669.743589,3990.256411,4038.974358
228,4404.615384,4547.692307,4523.589743,4274.358974,4524.615384,4198.974358,4456.410256,4234.358974,4241.538461,4529.743589,4226.153846,4668.717948,3983.589744,4034.358974
229,4405.128205,4543.589743,4520.512820,4274.871794,4512.820512,4193.846153,4453.846153,4227.692307,4239.487179,4520.512820,4210.769230,4665.641025,3972.820513,4033.846153
230,4403.076923,4547.692307,4516.923076,4271.794871,4515.384615,4194.871794,4450.769230,4221.538461,4238.974358,4518.461538,4203.076923,4660.000000,3975.897436,4032.307692
231,4405.641025,4550.769230,4521.025641,4272.307692,4527.692307,4197.948717,4451.282051,4224.102564,4236.410256,4508.205128,4203.589743,4661.538461,3983.076924,4036.923076
232,4415.897435,4556.923076,4529.743589,4281.538461,4538.974358,4204.102564,4459.487179,4236.410256,4246.153846,4514.358974,4211.794871,4672.820512,3984.102565,4050.769230
233,4420.000000,4561.025641,4529.230769,4285.641025,4538.974358,4212.307692,4463.589743,4246.153846,4260.512820,4537.435897,4226.153846,4683.076923,3990.769231,4057.948717
234,4413.333333,4556.410256,4522.051282,4283.589743,4526.153846,4208.717948,4457.948717,4241.538461,4256.923076,4534.358974,4225.128205,4678.461538,3994.358975,4046.666666
235,4414.871794,4558.461538,4522.051282,4284.615384,4521.025641,4202.051282,4456.923076,4233.846153,4249.230769,4525.641025,4216.410256,4671.794871,3990.256411,4039.487179
236,4428.205128,4570.769230,4535.384615,4289.743589,4538.461538,4213.846153,4466.666666,4242.051282,4258.461538,4538.974358,4226.666666,4678.974358,3998.461539,4054.358974
237,4428.717948,4571.282051,4538.974358,4291.282051,4547.692307,4220.512820,4467.692307,4244.102564,4258.974358,4533.333333,4229.230769,4684.615384,4000.512820,4058.974358
238,4415.384615,4558.974358,4528.717948,4286.153846,4531.794871,4206.153846,4456.410256,4232.307692,4246.153846,4512.307692,4212.820512,4675.897435,3987.692308,4041.025641
239,4411.282051,4556.923076,4524.615384,4284.615384,4522.564102,4198.461538,4449.230769,4230.256410,4246.153846,4525.128205,4210.769230,4670.256410,3988.205129,4036.410256
240,4418.974358,4563.076923,4527.692307,4290.256410,4530.256410,4202.564102,4447.692307,4233.333333,4249.230769,4544.615384,4220.512820,4673.333333,3994.871795,4048.205128
241,4420.000000,4564.102564,4530.256410,4289.743589,4530.769230,4201.025641,4448.717948,4225.128205,4244.615384,4529.230769,4217.435897,4674.358974,3986.666667,4050.256410
242,4417.435897,4558.461538,4531.794871,4283.076923,4528.717948,4202.564102,4452.307692,4222.051282,4242.564102,4509.743589,4211.794871,4672.307692,3982.564103,4050.256410
243,4414.871794,4552.820512,4531.282051,4284.102564,4532.820512,4207.179487,4453.333333,4231.282051,4246.153846,4515.384615,4213.846153,4669.230769,3990.769231,4052.307692
244,4409.230769,4554.358974,4525.128205,4286.666666,4532.307692,4203.076923,4450.769230,4234.871794,4246.666666,4521.025641,4211.794871,4666.666666,3990.769231,4043.076923
245,4404.615384,4558.461538,4523.589743,4281.025641,4523.589743,4198.461538,4448.717948,4228.717948,4241.025641,4514.871794,4206.666666,4662.051282,3983.076924,4031.282051
246,4405.641025,4558.974358,4523.589743,4277.948717,4517.948717,4196.923076,4446.666666,4222.564102,4232.307692,4513.333333,4206.666666,4658.974358,3978.974359,4032.307692
247,4407.179487,4557.948717,4521.025641,4277.948717,4524.615384,4197.435897,4448.205128,4223.589743,4232.307692,4517.948717,4209.230769,4658.974358,3978.974359,4037.948717
248,4404.615384,4555.897435,4523.076923,4275.384615,4531.794871,4205.128205,4453.846153,4228.717948,4238.974358,4517.435897,4213.333333,4660.512820,3983.076924,4033.846153
249,4405.641025,4553.846153,4522.051282,4278.461538,4533.333333,4209.230769,4456.923076,4229.743589,4237.435897,4510.769230,4214.871794,4661.538461,3987.692308,4028.717948
250,4411.794871,4556.923076,4521.025641,4287.692307,4534.871794,4206.153846,4457.435897,4229.230769,4238.461538,4514.871794,4210.256410,4665.641025,3985.641026,4036.923076
251,4415.384615,4560.512820,4524.102564,4288.205128,4533.333333,4208.205128,4458.461538,4232.307692,4247.179487,4533.333333,4212.820512,4669.743589,3985.128206,4042.051282
252,4412.307692,4559.487179,4523.589743,4275.897435,4522.051282,4208.717948,4456.410256,4230.256410,4247.179487,4532.307692,4218.461538,4667.179487,3991.794872,4034.871794
253,4404.615384,4553.846153,4516.410256,4271.282051,4514.358974,4199.487179,4451.794871,4226.153846,4238.461538,4508.205128,4212.820512,4662.051282,3991.282052,4028.205128
254,4403.589743,4554.871794,4515.897435,4283.076923,4525.128205,4200.512820,4451.282051,4228.717948,4240.512820,4513.333333,4210.769230,4660.512820,3984.615385,4032.820512
255,4412.820512,4564.615384,4526.153846,4294.358974,4540.512820,4213.333333,4461.538461,4237.435897,4253.333333,4537.948717,4221.025641,4669.230769,3988.205129,4038.461538
256,4412.307692,4563.076923,4527.692307,4286.666666,4535.897435,4210.256410,4462.051282,4238.461538,4251.282051,4534.358974,4225.128205,4671.794871,3992.820513,4033.846153
257,4406.153846,4555.384615,4521.025641,4274.871794,4520.000000,4198.974358,4454.358974,4232.820512,4241.025641,4523.589743,4219.487179,4665.128205,3991.282052,4030.256410
258,4412.307692,4560.512820,4522.564102,4282.564102,4524.102564,4203.076923,4457.948717,4236.410256,4249.743589,4530.769230,4220.512820,4666.666666,3996.923077,4037.435897
259,4416.923076,4565.641025,4529.230769,4291.282051,4534.358974,4208.205128,4462.051282,4239.487179,4259.487179,4535.384615,4223.076923,4668.717948,4000.512820,4040.000000
