,AF3,F7,F3,FC5,T7,P7,O1,O2,P8,T8,FC6,F4,F8,AF4
0,4398.461538,4556.410256,4518.974358,4280.000000,4515.384615,4203.076923,4457.948717,4234.358974,4260.512820,4524.102564,4222.564102,4663.076923,3974.871795,4076.410256
1,4392.820512,4556.923076,4521.025641,4278.974358,4516.923076,4213.846153,4460.512820,4233.846153,4258.461538,4526.666666,4217.948717,4662.051282,3985.128206,4081.538461
2,4388.205128,4545.128205,4515.897435,4268.205128,4515.384615,4214.358974,4462.051282,4232.820512,4261.025641,4518.461538,4226.153846,4661.538461,3992.820513,4074.358974
3,4387.692307,4536.410256,4513.846153,4263.589743,4506.153846,4209.230769,4456.923076,4234.871794,4265.641025,4515.384615,4231.794871,4663.076923,3987.692308,4073.333333
4,4391.282051,4536.923076,4514.871794,4273.846153,4497.435897,4210.769230,4453.846153,4232.820512,4259.487179,4522.051282,4228.205128,4660.512820,3983.076924,4075.897435
5,4387.179487,4539.487179,4507.692307,4275.897435,4496.410256,4210.256410,4453.846153,4230.256410,4262.051282,4524.615384,4222.051282,4653.846153,3980.000000,4066.666666
6,4376.923076,4534.871794,4500.000000,4259.487179,4499.487179,4209.230769,4447.692307,4228.205128,4267.179487,4512.820512,4219.487179,4650.769230,3970.256411,4055.384615
7,4376.410256,4531.794871,4500.512820,4256.923076,4498.974358,4210.769230,4445.641025,4225.128205,4252.307692,4501.025641,4226.153846,4649.230769,3968.717949,4058.974358
8,4383.076923,4533.333333,4505.128205,4269.230769,4497.435897,4212.307692,4452.820512,4226.153846,4246.666666,4509.230769,4226.666666,4648.717948,3978.461539,4069.230769
9,4382.051282,4534.358974,4508.717948,4267.692307,4498.461538,4211.282051,4453.846153,4230.769230,4256.410256,4518.974358,4212.307692,4649.230769,3974.358975,4063.589743
10,4379.487179,4536.923076,4507.692307,4262.564102,4496.923076,4208.717948,4447.179487,4228.717948,4254.358974,4511.282051,4207.692307,4650.256410,3967.692308,4056.923076
11,4380.000000,4540.000000,4504.615384,4264.102564,4494.358974,4202.564102,4440.512820,4222.564102,4252.820512,4505.641025,4219.487179,4649.743589,3974.358975,4061.538461
12,4379.487179,4537.948717,4503.076923,4266.666666,4497.435897,4200.512820,4438.461538,4218.974358,4256.923076,4503.076923,4228.717948,4648.717948,3981.025642,4061.025641
13,4387.179487,4542.564102,4503.076923,4276.410256,4498.974358,4205.641025,4437.948717,4217.435897,4248.717948,4495.384615,4227.179487,4647.179487,3977.435898,4060.000000
14,4393.333333,4553.333333,4506.666666,4282.051282,4498.974358,4206.666666,4438.974358,4214.358974,4239.487179,4495.897435,4214.871794,4643.076923,3971.794872,4068.205128
15,4387.179487,4549.743589,4508.205128,4271.282051,4501.025641,4205.128205,4437.948717,4209.230769,4237.948717,4503.589743,4204.615384,4640.000000,3972.820513,4070.256410
16,4380.000000,4542.051282,4502.051282,4262.051282,4499.487179,4203.076923,4438.974358,4203.589743,4233.846153,4498.461538,4202.564102,4642.051282,3976.410257,4062.564102
17,4380.512820,4545.128205,4498.974358,4269.230769,4499.487179,4200.512820,4442.564102,4197.948717,4234.871794,4485.641025,4208.717948,4640.512820,3974.358975,4060.512820
18,4385.128205,4547.179487,4506.153846,4278.974358,4508.205128,4200.000000,4442.051282,4202.564102,4245.128205,4490.769230,4224.102564,4635.897435,3968.205129,4058.974358
19,4391.794871,4545.641025,4511.282051,4280.512820,4516.923076,4198.974358,4444.615384,4218.974358,4255.897435,4513.333333,4235.897435,4645.128205,3972.820513,4062.051282
20,4396.410256,4543.076923,4514.358974,4274.871794,4517.435897,4200.512820,4447.179487,4228.205128,4259.487179,4523.076923,4227.179487,4654.358974,3983.589744,4072.307692
21,4393.846153,4540.512820,4515.897435,4269.230769,4513.846153,4203.076923,4445.128205,4226.153846,4255.384615,4514.358974,4217.948717,4646.153846,3981.538462,4072.820512
22,4391.282051,4545.128205,4512.307692,4267.692307,4518.461538,4202.051282,4451.282051,4227.692307,4255.897435,4514.358974,4227.179487,4642.564102,3975.384616,4065.128205
23,4389.230769,4547.179487,4507.179487,4268.205128,4528.205128,4192.820512,4455.897435,4227.692307,4261.538461,4520.000000,4231.282051,4648.205128,3974.358975,4063.076923
24,4383.589743,4539.487179,4503.076923,4271.794871,4525.641025,4185.641025,4448.205128,4219.487179,4253.333333,4508.717948,4215.384615,4642.051282,3974.871795,4063.589743
25,4378.974358,4533.333333,4501.025641,4275.897435,4517.435897,4183.589743,4442.564102,4213.846153,4234.871794,4495.384615,4201.025641,4633.333333,3972.820513,4054.871794
26,4376.923076,4530.769230,4497.948717,4266.666666,4515.897435,4183.589743,4440.000000,4207.179487,4229.743589,4490.769230,4200.512820,4633.333333,3967.179488,4048.205128
27,4373.846153,4530.769230,4495.897435,4251.794871,4519.487179,4187.179487,4434.358974,4200.000000,4234.871794,4492.307692,4207.692307,4633.846153,3954.871795,4051.794871
28,4369.743589,4537.948717,4494.871794,4257.948717,4522.564102,4187.179487,4435.897435,4200.000000,4238.461538,4502.564102,4210.769230,4631.794871,3953.333334,4052.307692
29,4375.897435,4539.487179,4495.384615,4274.871794,4523.589743,4190.769230,4445.128205,4206.666666,4245.128205,4510.256410,4209.230769,4632.820512,3968.205129,4051.794871
30,4384.102564,4536.410256,4500.000000,4277.435897,4519.487179,4193.846153,4443.589743,4213.846153,4250.769230,4503.589743,4213.846153,4634.871794,3973.846154,4054.871794
31,4384.102564,4541.025641,4503.589743,4273.333333,4511.794871,4190.769230,4440.512820,4218.974358,4251.282051,4502.564102,4219.487179,4638.974358,3967.692308,4055.384615
32,4381.538461,4538.974358,4502.564102,4264.615384,4506.666666,4189.743589,4444.102564,4217.435897,4244.102564,4507.179487,4215.897435,4640.512820,3967.692308,4052.820512
33,4377.948717,4527.692307,4500.000000,4251.282051,4500.512820,4190.256410,4441.538461,4210.256410,4236.410256,4504.615384,4215.897435,4637.948717,3971.282052,4053.333333
34,4377.948717,4527.692307,4501.025641,4256.923076,4494.871794,4191.794871,4437.435897,4210.256410,4243.589743,4505.128205,4224.102564,4637.948717,3975.897436,4054.871794
35,4384.102564,4537.948717,4504.102564,4276.410256,4495.897435,4196.923076,4441.025641,4215.897435,4254.358974,4503.589743,4218.974358,4641.538461,3974.871795,4055.384615
36,4389.230769,4543.076923,4505.641025,4280.000000,4496.410256,4202.051282,4445.128205,4213.846153,4247.692307,4497.948717,4203.589743,4643.076923,3966.666667,4059.487179
37,4385.128205,4539.487179,4499.487179,4267.179487,4490.769230,4197.435897,4437.948717,4201.538461,4232.820512,4497.435897,4206.666666,4639.487179,3964.102565,4053.846153
38,4379.487179,4533.333333,4495.897435,4254.871794,4488.205128,4195.897435,4428.717948,4195.384615,4231.794871,4497.435897,4217.948717,4637.435897,3969.230770,4043.076923
39,4379.487179,4532.820512,4503.076923,4258.461538,4493.333333,4201.538461,4427.179487,4205.128205,4238.974358,4494.358974,4215.384615,4638.974358,3972.307693,4049.230769
40,4381.538461,4533.846153,4502.564102,4272.820512,4497.435897,4203.076923,4428.717948,4214.871794,4246.153846,4495.384615,4207.692307,4637.435897,3969.230770,4057.435897
41,4378.974358,4528.205128,4493.846153,4273.846153,4491.794871,4199.487179,4431.794871,4206.666666,4241.538461,4494.358974,4201.538461,4632.820512,3963.076924,4047.692307
42,4379.487179,4527.179487,4498.974358,4262.564102,4486.666666,4201.538461,4438.974358,4199.487179,4233.333333,4492.307692,4204.102564,4634.871794,3961.538462,4042.051282
43,4391.282051,4541.538461,4514.871794,4261.538461,4498.461538,4206.153846,4445.641025,4214.358974,4244.102564,4504.615384,4217.435897,4646.666666,3969.230770,4058.974358
44,4396.410256,4545.128205,4515.384615,4265.641025,4510.256410,4197.435897,4446.666666,4225.128205,4254.358974,4512.820512,4222.051282,4652.307692,3978.461539,4065.128205
45,4388.205128,4532.820512,4510.256410,4271.282051,4506.666666,4184.615384,4445.128205,4217.948717,4248.205128,4506.153846,4213.846153,4650.769230,3980.000000,4055.384615
46,4385.641025,4535.384615,4514.871794,4278.974358,4504.102564,4184.102564,4445.128205,4216.923076,4242.051282,4501.025641,4213.846153,4653.333333,3976.923077,4057.948717
47,4387.179487,4543.076923,4514.871794,4272.307692,4508.717948,4189.230769,4444.102564,4219.487179,4242.564102,4501.538461,4215.384615,4654.358974,3967.692308,4063.076923
48,4382.051282,4528.717948,4505.641025,4258.974358,4503.076923,4188.717948,4440.512820,4214.358974,4238.461538,4497.435897,4204.102564,4646.153846,3959.487180,4053.333333
49,4378.461538,4517.948717,4505.641025,4252.307692,4494.358974,4186.666666,4438.461538,4214.358974,4236.410256,4493.333333,4198.974358,4643.589743,3959.487180,4047.692307
50,4381.025641,4529.743589,4513.333333,4257.948717,4494.358974,4189.743589,4442.564102,4222.051282,4242.564102,4502.051282,4208.717948,4651.794871,3966.666667,4055.897435
51,4389.230769,4539.487179,4516.923076,4274.358974,4495.384615,4198.974358,4444.615384,4226.153846,4247.179487,4515.897435,4211.282051,4661.025641,3976.410257,4061.538461
52,4393.333333,4534.358974,4514.358974,4280.000000,4489.743589,4202.564102,4438.461538,4220.000000,4236.923076,4512.307692,4203.589743,4660.512820,3974.871795,4060.000000
53,4390.256410,4532.820512,4509.743589,4274.871794,4485.128205,4196.410256,4435.384615,4211.282051,4225.128205,4500.512820,4208.205128,4654.871794,3968.205129,4059.487179
54,4398.974358,4543.076923,4515.384615,4283.589743,4490.769230,4201.538461,4443.076923,4218.461538,4240.000000,4505.128205,4215.384615,4661.025641,3973.846154,4065.128205
55,4403.076923,4544.615384,4521.538461,4282.564102,4494.871794,4211.282051,4447.692307,4227.179487,4252.820512,4509.230769,4201.025641,4663.076923,3977.948718,4068.717948
56,4381.538461,4530.256410,4508.205128,4262.051282,4488.205128,4208.205128,4438.974358,4217.435897,4237.435897,4501.538461,4192.307692,4648.717948,3969.230770,4059.487179
57,4375.897435,4523.076923,4499.487179,4266.153846,4486.153846,4201.025641,4438.974358,4214.871794,4231.794871,4500.512820,4205.641025,4644.615384,3971.282052,4054.871794
58,4398.974358,4534.871794,4513.333333,4285.128205,4500.512820,4200.512820,4454.358974,4230.769230,4245.128205,4506.153846,4215.384615,4658.461538,3981.538462,4062.564102
59,4400.512820,4541.538461,4518.974358,4282.564102,4511.794871,4205.128205,4461.538461,4236.410256,4247.179487,4508.717948,4214.358974,4658.974358,3976.410257,4063.076923
60,4386.666666,4534.871794,4511.794871,4274.358974,4505.641025,4206.666666,4456.923076,4231.282051,4247.179487,4515.384615,4218.974358,4651.282051,3972.307693,4059.487179
61,4387.692307,4531.794871,4517.435897,4274.871794,4504.102564,4205.128205,4458.974358,4235.897435,4257.435897,4525.128205,4225.641025,4661.538461,3981.538462,4066.153846
62,4390.256410,4535.897435,4522.564102,4273.333333,4512.820512,4211.794871,4464.615384,4244.102564,4257.435897,4525.641025,4223.076923,4671.794871,3982.564103,4067.692307
63,4384.102564,4531.794871,4514.358974,4275.897435,4508.717948,4215.897435,4460.000000,4241.538461,4249.743589,4517.948717,4211.282051,4662.051282,3971.794872,4055.897435
64,4378.974358,4523.589743,4510.769230,4281.538461,4495.384615,4206.153846,4457.948717,4235.384615,4249.230769,4515.384615,4206.153846,4655.384615,3972.820513,4049.230769
65,4382.051282,4527.692307,4514.358974,4279.487179,4496.923076,4202.564102,4461.025641,4234.358974,4248.205128,4520.000000,4212.307692,4659.487179,3982.564103,4055.897435
66,4387.179487,4529.230769,4517.435897,4273.333333,4501.538461,4206.153846,4461.025641,4234.871794,4240.512820,4515.384615,4216.923076,4659.487179,3974.871795,4060.000000
67,4385.641025,4526.153846,4518.461538,4273.333333,4497.435897,4207.179487,4458.974358,4231.794871,4237.435897,4506.666666,4220.000000,4656.410256,3960.512821,4056.923076
68,4380.000000,4529.743589,4516.923076,4272.307692,4496.410256,4209.743589,4457.948717,4230.256410,4240.512820,4509.230769,4216.923076,4656.923076,3966.666667,4055.384615
69,4377.948717,4528.717948,4514.358974,4268.205128,4496.923076,4209.230769,4452.307692,4227.179487,4236.410256,4509.743589,4205.641025,4655.897435,3975.384616,4058.974358
70,4382.564102,4524.102564,4518.974358,4272.820512,4491.282051,4205.128205,4447.692307,4222.564102,4229.230769,4506.153846,4209.743589,4658.461538,3971.282052,4057.435897
71,4394.871794,4533.333333,4527.179487,4284.102564,4488.717948,4213.846153,4452.307692,4226.666666,4239.487179,4514.871794,4227.692307,4666.666666,3972.307693,4058.974358
72,4404.102564,4542.564102,4528.717948,4287.179487,4494.871794,4222.051282,4458.974358,4234.871794,4253.846153,4528.717948,4226.666666,4670.769230,3982.564103,4070.256410
73,4397.948717,4536.410256,4525.641025,4275.897435,4497.948717,4218.461538,4455.897435,4232.820512,4248.717948,4526.153846,4222.564102,4669.230769,3985.641026,4074.358974
74,4389.743589,4532.307692,4521.025641,4267.179487,4495.384615,4215.384615,4448.717948,4223.589743,4236.923076,4510.769230,4232.307692,4665.641025,3978.974359,4065.641025
75,4389.230769,4535.384615,4515.897435,4273.333333,4495.897435,4208.205128,4444.615384,4217.435897,4233.846153,4508.205128,4224.102564,4657.948717,3969.230770,4058.461538
76,4386.666666,4533.333333,4511.282051,4278.461538,4498.974358,4197.948717,4444.615384,4217.948717,4235.897435,4515.897435,4208.717948,4651.794871,3966.153847,4056.410256
77,4383.589743,4525.641025,4511.794871,4268.205128,4501.538461,4201.538461,4445.641025,4222.564102,4239.487179,4518.974358,4215.384615,4653.333333,3972.307693,4057.435897
78,4375.384615,4518.974358,4511.794871,4258.461538,4502.051282,4206.153846,4445.641025,4224.102564,4241.025641,4516.923076,4220.512820,4653.333333,3969.743590,4055.384615
79,4367.692307,4517.948717,4508.205128,4260.000000,4498.974358,4202.051282,4445.128205,4220.512820,4241.025641,4515.897435,4210.256410,4651.282051,3956.923077,4051.282051
80,4371.794871,4525.128205,4513.333333,4261.538461,4496.923076,4203.076923,4445.128205,4218.974358,4245.128205,4516.410256,4209.230769,4655.384615,3954.358975,4056.410256
81,4378.974358,4532.820512,4521.025641,4268.717948,4503.589743,4208.717948,4444.102564,4221.538461,4241.538461,4514.358974,4218.461538,4662.051282,3968.205129,4067.692307
82,4375.897435,4534.358974,4520.512820,4282.051282,4509.743589,4212.307692,4444.102564,4222.564102,4237.435897,4512.820512,4222.564102,4663.076923,3973.846154,4067.692307
83,4367.179487,4529.743589,4522.564102,4281.538461,4505.128205,4214.358974,4444.615384,4222.564102,4243.589743,4515.384615,4216.923076,4659.487179,3963.076924,4058.461538
84,4368.717948,4532.820512,4523.589743,4266.153846,4503.589743,4207.692307,4444.615384,4227.179487,4249.230769,4515.384615,4214.358974,4657.948717,3960.512821,4054.358974
85,4378.974358,4541.538461,4521.538461,4264.102564,4509.230769,4202.051282,4448.205128,4233.846153,4252.820512,4512.307692,4223.076923,4662.564102,3970.769231,4063.076923
86,4384.102564,4541.538461,4524.102564,4277.435897,4504.102564,4205.641025,4450.256410,4232.820512,4255.384615,4514.358974,4224.102564,4666.666666,3976.410257,4072.820512
87,4376.923076,4530.769230,4522.051282,4276.923076,4492.820512,4208.205128,4445.128205,4223.589743,4250.769230,4516.410256,4206.666666,4659.487179,3969.230770,4065.641025
88,4369.230769,4524.615384,4512.820512,4269.230769,4494.358974,4206.666666,4445.128205,4218.974358,4249.230769,4513.846153,4200.000000,4651.794871,3963.589744,4055.384615
89,4374.358974,4534.871794,4516.410256,4275.384615,4501.025641,4214.358974,4456.923076,4228.717948,4260.000000,4526.153846,4221.538461,4658.461538,3971.794872,4066.153846
90,4381.025641,4543.589743,4528.717948,4275.897435,4500.000000,4220.000000,4462.051282,4237.948717,4266.153846,4534.871794,4238.974358,4667.179487,3982.051283,4079.487179
91,4377.435897,4537.435897,4528.717948,4270.256410,4497.948717,4216.410256,4457.435897,4233.333333,4262.564102,4523.589743,4231.282051,4666.666666,3980.512821,4073.846153
92,4369.743589,4532.820512,4521.025641,4278.461538,4494.358974,4215.897435,4454.358974,4224.615384,4257.435897,4518.974358,4223.076923,4663.589743,3970.769231,4065.641025
93,4372.307692,4539.487179,4517.948717,4285.128205,4491.794871,4217.948717,4454.871794,4225.128205,4254.871794,4524.102564,4223.076923,4663.589743,3968.717949,4070.769230
94,4377.435897,4538.461538,4520.000000,4277.948717,4497.948717,4217.948717,4455.384615,4226.666666,4253.846153,4521.025641,4213.846153,4662.564102,3966.666667,4070.256410
95,4369.743589,4527.179487,4517.435897,4271.794871,4498.974358,4216.923076,4450.256410,4220.512820,4242.051282,4511.794871,4206.666666,4657.435897,3957.948718,4061.025641
96,4366.153846,4526.666666,4513.333333,4269.230769,4491.282051,4211.794871,4443.076923,4212.820512,4236.923076,4503.589743,4218.974358,4654.358974,3960.000000,4062.051282
97,4377.435897,4538.974358,4519.487179,4272.820512,4489.230769,4207.179487,4443.589743,4216.923076,4256.923076,4505.641025,4230.256410,4662.051282,3971.794872,4070.256410
98,4384.615384,4544.102564,4524.102564,4282.051282,4491.282051,4203.589743,4447.179487,4226.153846,4270.256410,4518.974358,4223.589743,4669.230769,3973.333334,4074.358974
99,4372.307692,4534.358974,4516.923076,4279.487179,4498.461538,4202.051282,4445.641025,4222.051282,4254.871794,4526.153846,4211.794871,4662.051282,3961.538462,4071.282051
100,4366.153846,4527.692307,4512.307692,4274.358974,4509.743589,4201.538461,4448.717948,4218.974358,4246.666666,4524.615384,4219.487179,4653.846153,3958.974359,4064.102564
101,4377.435897,4533.333333,4517.948717,4281.025641,4509.743589,4200.000000,4452.307692,4226.666666,4253.846153,4526.153846,4236.923076,4656.410256,3971.794872,4065.641025
102,4379.487179,4538.461538,4520.512820,4276.410256,4505.128205,4197.948717,4444.615384,4224.615384,4251.282051,4523.076923,4232.820512,4655.897435,3979.487180,4072.307692
103,4369.743589,4536.923076,4515.384615,4261.025641,4506.666666,4198.461538,4438.461538,4215.384615,4250.769230,4515.384615,4215.384615,4648.717948,3968.205129,4065.641025
104,4365.641025,4535.897435,4510.256410,4265.641025,4507.692307,4197.948717,4440.512820,4217.435897,4260.512820,4516.923076,4212.820512,4649.230769,3953.333334,4052.307692
105,4366.153846,4537.948717,4513.846153,4282.051282,4508.205128,4199.487179,4443.076923,4222.564102,4256.923076,4522.051282,4220.512820,4653.846153,3958.461539,4057.948717
106,4367.179487,4539.487179,4519.487179,4288.205128,4511.794871,4208.205128,4444.615384,4220.512820,4249.743589,4528.717948,4224.102564,4651.282051,3971.282052,4069.230769
107,4374.871794,4538.974358,4518.974358,4284.102564,4512.307692,4213.333333,4447.692307,4225.641025,4257.948717,4533.846153,4227.692307,4654.358974,3976.410257,4073.846153
108,4384.615384,4542.564102,4521.025641,4277.435897,4509.743589,4212.820512,4445.128205,4235.897435,4268.205128,4528.717948,4232.307692,4663.589743,3977.435898,4077.435897
109,4384.615384,4546.153846,4525.128205,4280.000000,4506.666666,4213.846153,4444.615384,4241.025641,4270.769230,4524.615384,4231.282051,4665.128205,3976.410257,4078.461538
110,4376.923076,4542.564102,4523.589743,4289.743589,4502.051282,4215.384615,4452.307692,4236.923076,4266.153846,4530.256410,4225.128205,4657.435897,3969.230770,4072.820512
111,4370.256410,4537.435897,4517.435897,4286.153846,4502.051282,4216.923076,4453.333333,4228.717948,4254.871794,4525.641025,4215.384615,4651.794871,3958.461539,4063.076923
112,4368.717948,4532.820512,4514.358974,4272.307692,4500.000000,4212.307692,4444.102564,4221.538461,4251.282051,4509.230769,4214.871794,4647.179487,3955.897436,4057.948717
113,4366.153846,4527.692307,4510.769230,4267.692307,4493.333333,4207.179487,4441.025641,4218.974358,4256.410256,4508.717948,4221.025641,4643.589743,3960.512821,4061.025641
114,4363.076923,4528.205128,4509.230769,4269.743589,4495.384615,4210.256410,4442.051282,4218.974358,4250.256410,4515.384615,4218.461538,4644.102564,3956.923077,4061.538461
115,4370.769230,4537.948717,4515.384615,4274.871794,4505.128205,4217.948717,4447.692307,4221.538461,4245.128205,4512.820512,4215.897435,4647.179487,3954.358975,4062.051282
116,4378.461538,4545.641025,4518.461538,4286.666666,4507.692307,4217.948717,4456.410256,4226.153846,4255.384615,4515.384615,4217.435897,4649.743589,3966.666667,4070.769230
117,4371.794871,4546.153846,4515.897435,4288.205128,4502.051282,4211.794871,4452.307692,4224.615384,4260.512820,4517.948717,4211.794871,4651.794871,3974.358975,4071.282051
118,4363.076923,4539.487179,4512.820512,4273.846153,4498.974358,4210.256410,4439.487179,4216.410256,4250.256410,4508.717948,4208.205128,4644.615384,3963.076924,4057.948717
119,4369.230769,4532.820512,4509.230769,4267.179487,4500.000000,4211.282051,4441.025641,4215.384615,4241.025641,4504.615384,4213.846153,4637.435897,3952.307693,4057.435897
120,4381.025641,4536.923076,4511.282051,4272.820512,4505.128205,4207.692307,4448.717948,4228.205128,4248.205128,4519.487179,4217.435897,4643.589743,3957.948718,4069.743589
121,4384.102564,4548.717948,4518.974358,4277.948717,4505.641025,4206.153846,4447.179487,4240.000000,4260.512820,4526.666666,4219.487179,4653.846153,3970.256411,4072.820512
122,4383.589743,4549.743589,4519.487179,4278.461538,4504.615384,4212.820512,4449.230769,4241.538461,4267.692307,4521.025641,4233.333333,4655.384615,3971.794872,4071.794871
123,4385.641025,4542.564102,4515.384615,4282.564102,4507.692307,4217.435897,4456.923076,4238.974358,4269.743589,4525.128205,4239.487179,4655.384615,3968.205129,4077.435897
124,4390.769230,4545.128205,4522.564102,4286.666666,4507.692307,4214.358974,4455.897435,4236.410256,4266.153846,4533.333333,4221.025641,4656.923076,3973.333334,4078.974358
125,4391.282051,4549.230769,4524.615384,4278.461538,4505.128205,4215.897435,4448.205128,4236.923076,4260.000000,4523.589743,4207.179487,4657.948717,3976.923077,4071.282051
126,4387.692307,4546.666666,4521.025641,4273.846153,4508.205128,4219.487179,4445.641025,4234.358974,4259.487179,4513.846153,4223.076923,4661.025641,3975.384616,4070.769230
127,4389.230769,4549.230769,4525.641025,4281.025641,4508.205128,4215.897435,4447.179487,4229.743589,4262.051282,4527.179487,4233.333333,4661.538461,3978.974359,4076.923076
128,4382.564102,4539.487179,4520.512820,4276.410256,4497.948717,4207.179487,4442.564102,4224.615384,4256.410256,4529.230769,4212.307692,4649.743589,3976.923077,4070.769230
129,4370.769230,4521.025641,4506.666666,4258.974358,4490.256410,4198.974358,4440.512820,4216.923076,4250.769230,4507.692307,4199.487179,4642.051282,3966.666667,4055.897435
130,4373.846153,4528.205128,4510.256410,4260.000000,4492.820512,4200.000000,4442.051282,4214.358974,4251.794871,4500.512820,4208.205128,4647.692307,3964.615385,4055.384615
131,4381.025641,4545.128205,4521.538461,4269.230769,4493.846153,4203.076923,4442.564102,4223.589743,4249.230769,4509.743589,4212.307692,4652.307692,3963.589744,4066.666666
132,4375.897435,4537.948717,4516.923076,4262.564102,4491.794871,4200.512820,4444.615384,4229.743589,4244.102564,4505.641025,4208.717948,4645.641025,3956.923077,4066.666666
133,4369.743589,4530.769230,4508.717948,4259.487179,4490.769230,4198.974358,4444.615384,4222.051282,4246.666666,4496.923076,4203.076923,4634.871794,3955.897436,4056.410256
134,4372.307692,4536.410256,4507.692307,4267.692307,4494.358974,4205.128205,4444.102564,4219.487179,4252.307692,4498.974358,4206.153846,4631.794871,3957.948718,4056.410256
135,4376.410256,4538.974358,4511.282051,4275.384615,4501.025641,4211.794871,4450.256410,4229.230769,4254.871794,4505.128205,4220.512820,4637.948717,3957.948718,4065.641025
136,4380.000000,4541.538461,4515.384615,4278.974358,4504.615384,4213.846153,4455.384615,4235.897435,4261.025641,4515.384615,4224.102564,4643.076923,3958.974359,4069.230769
137,4387.692307,4550.256410,4517.948717,4277.435897,4504.615384,4215.897435,4454.358974,4237.435897,4264.102564,4520.512820,4213.333333,4647.179487,3966.666667,4073.333333
138,4391.794871,4555.384615,4520.512820,4276.410256,4506.666666,4216.410256,4450.256410,4235.384615,4258.461538,4515.384615,4210.256410,4652.820512,3975.897436,4076.923076
139,4382.564102,4552.820512,4518.974358,4278.974358,4509.743589,4215.897435,4446.153846,4230.256410,4255.897435,4508.717948,4213.846153,4651.282051,3970.256411,4068.205128
140,4374.358974,4545.641025,4513.333333,4278.461538,4502.564102,4210.256410,4442.051282,4222.051282,4254.358974,4504.615384,4216.923076,4645.641025,3955.384616,4064.615384
141,4383.589743,4546.153846,4513.846153,4270.769230,4497.435897,4207.692307,4443.076923,4222.051282,4249.230769,4503.589743,4222.564102,4649.230769,3960.000000,4076.410256
142,4392.820512,4549.743589,4517.435897,4265.128205,4503.589743,4212.307692,4448.717948,4227.692307,4255.384615,4511.282051,4216.410256,4653.846153,3974.358975,4078.974358
143,4385.641025,4546.153846,4509.743589,4262.051282,4502.564102,4211.282051,4446.153846,4225.641025,4260.512820,4512.820512,4202.051282,4646.666666,3962.051283,4068.205128
144,4376.410256,4536.410256,4500.000000,4257.435897,4489.230769,4200.512820,4431.794871,4214.871794,4240.512820,4496.410256,4198.974358,4636.923076,3944.615385,4060.512820
145,4374.358974,4534.358974,4504.615384,4253.846153,4484.615384,4194.871794,4424.102564,4207.692307,4229.743589,4490.769230,4201.025641,4638.974358,3947.179488,4056.410256
146,4380.512820,4538.974358,4513.846153,4255.384615,4491.282051,4202.051282,4435.384615,4214.871794,4247.179487,4506.153846,4195.897435,4648.205128,3954.358975,4059.487179
147,4389.743589,4538.461538,4513.333333,4262.564102,4492.307692,4208.717948,4446.666666,4224.102564,4253.846153,4513.846153,4195.384615,4655.384615,3954.358975,4071.282051
148,4390.769230,4536.923076,4509.743589,4265.128205,4490.256410,4204.615384,4444.615384,4224.102564,4244.615384,4510.256410,4203.076923,4656.923076,3955.384616,4074.871794
149,4384.102564,4538.974358,4513.846153,4258.974358,4491.282051,4202.564102,4443.076923,4223.076923,4244.615384,4506.666666,4203.589743,4656.923076,3961.025642,4071.282051
150,4378.461538,4540.000000,4515.384615,4254.358974,4492.820512,4209.743589,4446.153846,4228.205128,4247.692307,4507.179487,4198.461538,4656.410256,3960.512821,4067.692307
151,4372.820512,4535.897435,4506.666666,4255.384615,4487.692307,4210.256410,4447.179487,4228.205128,4244.615384,4506.153846,4201.025641,4653.333333,3951.794872,4062.051282
152,4367.179487,4525.128205,4501.025641,4252.307692,4478.461538,4199.487179,4441.025641,4218.974358,4238.461538,4497.435897,4202.564102,4646.153846,3948.205129,4056.923076
153,4366.666666,4516.923076,4501.025641,4245.641025,4475.897435,4197.948717,4433.846153,4211.282051,4230.256410,4490.256410,4193.333333,4638.461538,3948.717949,4055.384615
154,4370.256410,4524.102564,4500.512820,4246.666666,4476.923076,4201.538461,4430.769230,4209.743589,4223.076923,4493.333333,4186.153846,4636.923076,3947.179488,4054.871794
155,4372.307692,4533.333333,4502.051282,4253.846153,4474.358974,4198.974358,4436.410256,4211.282051,4223.076923,4501.538461,4192.820512,4641.538461,3945.128206,4057.435897
156,4373.846153,4528.205128,4504.102564,4254.871794,4474.358974,4201.025641,4442.051282,4214.358974,4231.794871,4505.641025,4202.564102,4646.153846,3947.692308,4062.051282
157,4377.948717,4526.153846,4504.102564,4255.897435,4478.974358,4204.102564,4435.897435,4213.333333,4234.871794,4503.589743,4198.461538,4648.205128,3951.282052,4059.487179
158,4382.564102,4532.820512,4504.615384,4260.000000,4475.384615,4201.025641,4431.794871,4207.692307,4222.051282,4500.512820,4194.358974,4650.769230,3950.769231,4057.948717
159,4378.974358,4528.717948,4503.589743,4252.820512,4469.743589,4199.487179,4434.871794,4207.179487,4213.846153,4501.025641,4201.025641,4651.282051,3946.153847,4060.512820
160,4369.743589,4522.051282,4505.128205,4247.179487,4471.794871,4201.025641,4437.435897,4211.794871,4222.564102,4502.564102,4203.076923,4649.743589,3943.076924,4060.000000
161,4373.846153,4531.282051,4513.333333,4258.974358,4474.871794,4202.564102,4438.974358,4220.000000,4234.871794,4507.692307,4207.692307,4655.897435,3955.897436,4070.769230
162,4392.307692,4546.666666,4518.461538,4266.153846,4480.000000,4208.717948,4442.564102,4226.666666,4240.512820,4518.974358,4226.153846,4666.153846,3977.948718,4087.179487
163,4398.974358,4549.230769,4521.538461,4266.153846,4485.128205,4212.820512,4442.564102,4227.692307,4239.487179,4521.538461,4234.871794,4668.205128,3984.615385,4089.230769
164,4395.897435,4546.666666,4526.666666,4280.000000,4484.102564,4210.256410,4441.025641,4227.692307,4241.538461,4524.102564,4231.794871,4666.666666,3976.923077,4086.153846
165,4398.974358,4550.769230,4529.743589,4287.179487,4479.487179,4208.717948,4442.564102,4230.769230,4247.179487,4533.846153,4229.743589,4670.256410,3975.897436,4092.307692
166,4397.948717,4555.384615,4531.282051,4275.897435,4476.410256,4206.666666,4441.025641,4229.743589,4245.641025,4527.692307,4226.666666,4672.820512,3982.564103,4093.846153
167,4386.153846,4546.153846,4526.153846,4270.256410,4481.538461,4207.692307,4438.974358,4221.025641,4234.358974,4514.358974,4221.538461,4666.666666,3978.974359,4084.615384
168,4380.512820,4533.846153,4515.897435,4268.717948,4484.615384,4210.769230,4438.974358,4213.333333,4227.692307,4513.333333,4215.897435,4655.897435,3967.179488,4076.923076
169,4380.000000,4534.358974,4510.769230,4262.051282,4477.435897,4209.743589,4441.025641,4214.871794,4231.282051,4519.487179,4211.282051,4649.230769,3961.538462,4075.897435
170,4381.025641,4545.128205,4514.358974,4264.615384,4479.487179,4210.256410,4444.615384,4222.051282,4236.923076,4517.948717,4212.820512,4651.282051,3967.692308,4076.410256
171,4384.102564,4550.769230,4516.923076,4270.256410,4488.205128,4217.435897,4446.153846,4225.641025,4237.948717,4511.794871,4215.384615,4656.410256,3971.282052,4071.282051
172,4380.000000,4545.641025,4515.384615,4265.128205,4484.102564,4218.461538,4444.615384,4218.974358,4233.846153,4511.282051,4216.410256,4656.923076,3964.615385,4067.179487
173,4373.333333,4536.923076,4512.820512,4261.025641,4482.564102,4215.384615,4444.615384,4211.794871,4227.692307,4513.846153,4216.410256,4653.333333,3958.974359,4071.794871
174,4372.307692,4535.384615,4507.179487,4265.128205,4492.307692,4217.948717,4444.615384,4216.923076,4229.230769,4514.358974,4211.282051,4650.256410,3959.487180,4071.794871
175,4372.820512,4544.615384,4507.179487,4265.128205,4492.820512,4221.025641,4449.230769,4230.769230,4241.538461,4514.871794,4209.230769,4656.923076,3965.128206,4069.230769
176,4374.358974,4548.717948,4513.333333,4263.076923,4487.179487,4224.615384,4456.923076,4237.435897,4251.794871,4524.102564,4217.435897,4664.102564,3973.846154,4075.384615
177,4375.384615,4545.128205,4512.820512,4272.307692,4488.205128,4226.153846,4454.358974,4233.846153,4249.230769,4528.205128,4220.000000,4656.410256,3973.333334,4080.512820
178,4369.230769,4545.641025,4507.692307,4275.897435,4486.153846,4221.025641,4444.615384,4227.692307,4243.076923,4521.025641,4215.384615,4648.205128,3967.179488,4071.282051
179,4368.717948,4551.794871,4511.282051,4269.230769,4480.512820,4219.487179,4444.102564,4224.102564,4242.564102,4522.564102,4217.948717,4655.384615,3972.820513,4066.666666
180,4378.461538,4554.871794,4515.384615,4273.333333,4478.461538,4224.102564,4444.615384,4218.461538,4236.410256,4523.076923,4215.897435,4660.000000,3976.923077,4075.384615
181,4383.076923,4551.282051,4512.307692,4272.307692,4474.358974,4221.025641,4436.410256,4213.846153,4228.205128,4517.435897,4210.256410,4656.923076,3967.692308,4077.948717
182,4380.000000,4544.102564,4511.794871,4256.923076,4465.641025,4215.897435,4429.230769,4221.538461,4236.410256,4522.051282,4216.923076,4661.025641,3964.102565,4077.948717
183,4377.948717,4536.410256,4514.871794,4260.512820,4458.974358,4219.487179,4432.307692,4232.307692,4246.666666,4528.205128,4221.025641,4664.102564,3972.307693,4082.051282
184,4376.410256,4539.487179,4513.846153,4277.435897,4461.025641,4223.589743,4441.025641,4228.717948,4241.025641,4517.948717,4206.666666,4658.974358,3978.461539,4078.974358
185,4367.692307,4542.051282,4506.666666,4270.256410,4461.025641,4226.666666,4442.051282,4216.410256,4231.794871,4505.128205,4204.102564,4652.307692,3972.307693,4067.692307
186,4363.076923,4537.435897,4499.487179,4261.538461,4454.871794,4229.743589,4438.461538,4209.743589,4224.615384,4505.641025,4212.307692,4648.717948,3962.051283,4065.641025
187,4369.743589,4537.948717,4502.051282,4264.102564,4455.384615,4234.358974,4441.538461,4214.871794,4224.102564,4506.666666,4204.102564,4649.230769,3963.076924,4070.769230
188,4376.923076,4542.564102,4513.333333,4262.564102,4460.000000,4239.487179,4448.205128,4227.692307,4234.871794,4512.820512,4203.076923,4656.410256,3972.820513,4074.871794
189,4376.923076,4538.974358,4516.410256,4271.282051,4453.846153,4239.487179,4450.256410,4231.282051,4243.589743,4520.000000,4216.410256,4661.025641,3973.846154,4077.435897
190,4366.666666,4531.794871,4512.820512,4283.076923,4448.717948,4234.871794,4447.179487,4225.641025,4238.974358,4513.333333,4211.794871,4653.333333,3964.615385,4072.820512
191,4358.974358,4528.717948,4510.256410,4275.897435,4451.282051,4238.974358,4450.256410,4224.102564,4235.384615,4502.051282,4196.923076,4646.666666,3958.461539,4063.589743
192,4365.128205,4527.179487,4505.641025,4265.641025,4448.717948,4242.051282,4454.871794,4227.692307,4234.871794,4506.666666,4198.974358,4648.717948,3958.461539,4063.589743
193,4376.923076,4531.282051,4506.666666,4262.051282,4447.179487,4233.333333,4451.282051,4228.717948,4236.923076,4518.461538,4207.179487,4652.307692,3962.564103,4071.282051
194,4377.435897,4532.820512,4509.743589,4262.564102,4457.435897,4226.153846,4450.769230,4230.256410,4244.102564,4515.897435,4210.769230,4650.256410,3969.230770,4075.897435
195,4367.692307,4531.282051,4508.717948,4273.333333,4466.153846,4225.128205,4456.410256,4231.794871,4244.102564,4511.794871,4215.384615,4649.230769,3973.846154,4074.358974
196,4362.564102,4532.820512,4504.615384,4281.025641,4464.615384,4220.512820,4451.282051,4227.179487,4231.794871,4513.333333,4211.282051,4650.256410,3970.769231,4069.743589
197,4362.051282,4527.179487,4502.051282,4269.230769,4461.538461,4217.435897,4441.538461,4220.000000,4230.256410,4508.717948,4200.512820,4646.666666,3958.461539,4061.025641
198,4364.102564,4523.076923,4503.589743,4261.538461,4458.974358,4218.461538,4443.589743,4220.512820,4241.538461,4505.641025,4200.512820,4645.128205,3952.307693,4060.000000
199,4366.666666,4531.282051,4506.153846,4267.179487,4456.923076,4217.948717,4447.179487,4227.692307,4244.102564,4512.820512,4207.179487,4647.692307,3961.538462,4069.230769
200,4365.128205,4533.333333,4504.102564,4266.666666,4455.897435,4220.512820,4444.615384,4224.102564,4233.846153,4515.384615,4201.538461,4641.538461,3968.717949,4068.717948
201,4357.435897,4517.435897,4496.410256,4261.538461,4453.333333,4222.564102,4444.102564,4212.820512,4225.641025,4503.076923,4183.589743,4630.769230,3951.794872,4056.410256
202,4356.923076,4519.487179,4496.923076,4264.102564,4453.846153,4221.025641,4444.102564,4211.794871,4228.717948,4494.871794,4183.589743,4633.846153,3938.461539,4054.358974
203,4364.102564,4534.358974,4504.102564,4267.692307,4457.435897,4224.102564,4443.076923,4217.435897,4238.974358,4500.000000,4204.615384,4643.589743,3954.871795,4065.128205
204,4367.692307,4535.897435,4508.205128,4266.666666,4460.000000,4232.820512,4449.230769,4218.461538,4240.000000,4506.666666,4212.307692,4646.153846,3972.820513,4071.282051
205,4373.846153,4537.948717,4512.307692,4268.205128,4462.564102,4237.435897,4455.897435,4221.025641,4238.461538,4514.358974,4207.179487,4650.256410,3974.358975,4072.307692
206,4371.794871,4537.948717,4513.333333,4273.846153,4462.564102,4234.871794,4450.769230,4225.641025,4241.025641,4518.461538,4212.820512,4654.358974,3971.794872,4070.769230
207,4357.948717,4525.641025,4504.615384,4274.871794,4451.794871,4228.717948,4439.487179,4221.538461,4235.897435,4507.692307,4217.948717,4646.666666,3969.743590,4065.641025
208,4357.435897,4523.589743,4502.564102,4271.282051,4449.743589,4224.102564,4439.487179,4217.948717,4234.358974,4502.564102,4213.846153,4638.974358,3965.641026,4065.128205
209,4370.256410,4534.358974,4509.230769,4273.333333,4464.102564,4228.205128,4446.666666,4229.230769,4247.179487,4523.589743,4209.743589,4644.102564,3969.230770,4071.794871
210,4372.307692,4534.871794,4507.179487,4280.000000,4469.230769,4233.333333,4447.179487,4237.435897,4250.769230,4535.897435,4208.205128,4648.717948,3976.923077,4075.384615
211,4366.153846,4529.743589,4503.589743,4275.897435,4463.076923,4230.256410,4443.076923,4231.282051,4241.025641,4521.025641,4218.974358,4647.692307,3980.512821,4071.794871
212,4370.256410,4536.923076,4512.820512,4270.256410,4463.589743,4231.282051,4445.128205,4229.743589,4237.948717,4517.435897,4233.846153,4653.846153,3986.153847,4076.410256
213,4377.948717,4544.102564,4518.974358,4274.871794,4468.205128,4240.512820,4447.179487,4233.846153,4243.589743,4527.692307,4229.743589,4660.000000,3990.769231,4087.179487
214,4376.410256,4538.974358,4515.897435,4276.410256,4466.153846,4242.051282,4445.641025,4231.282051,4244.102564,4521.025641,4220.000000,4655.384615,3986.666667,4086.666666
215,4370.769230,4531.282051,4513.333333,4277.435897,4464.102564,4235.897435,4452.307692,4230.769230,4239.487179,4508.205128,4226.153846,4652.820512,3982.051283,4079.487179
216,4367.179487,4532.307692,4512.820512,4281.538461,4462.564102,4234.871794,4457.948717,4233.333333,4236.410256,4512.820512,4227.692307,4653.846153,3981.538462,4075.897435
217,4364.102564,4538.461538,4508.717948,4278.461538,4459.487179,4237.435897,4448.717948,4229.230769,4238.974358,4517.435897,4220.000000,4649.230769,3978.974359,4073.333333
218,4366.666666,4538.461538,4505.128205,4278.461538,4461.025641,4236.410256,4441.025641,4221.538461,4238.461538,4512.307692,4218.974358,4644.615384,3974.871795,4069.743589
219,4369.743589,4534.871794,4503.589743,4277.435897,4458.461538,4230.769230,4442.564102,4217.435897,4230.769230,4511.282051,4219.487179,4646.153846,3970.769231,4072.820512
220,4362.051282,4532.307692,4502.564102,4268.717948,4450.769230,4227.692307,4441.025641,4214.871794,4223.589743,4506.666666,4212.307692,4644.102564,3966.666667,4074.871794
221,4353.846153,4525.128205,4503.589743,4267.179487,4446.666666,4230.769230,4439.487179,4218.461538,4220.000000,4494.358974,4202.564102,4635.897435,3961.538462,4069.743589
222,4353.846153,4519.487179,4508.205128,4271.282051,4454.358974,4228.717948,4443.076923,4222.564102,4227.692307,4495.384615,4197.948717,4634.871794,3956.410257,4062.564102
223,4356.923076,4526.153846,4511.282051,4272.820512,4462.051282,4223.589743,4445.641025,4227.179487,4233.333333,4512.307692,4207.692307,4645.641025,3963.076924,4065.641025
224,4358.974358,4536.410256,4512.820512,4276.923076,4462.564102,4226.666666,4447.692307,4232.307692,4231.282051,4522.051282,4227.179487,4653.333333,3978.461539,4077.435897
225,4356.923076,4540.000000,4514.871794,4278.974358,4460.000000,4225.641025,4445.128205,4227.179487,4232.820512,4524.102564,4229.743589,4650.256410,3983.589744,4077.948717
226,4358.974358,4537.948717,4515.384615,4277.435897,4457.948717,4222.051282,4440.512820,4219.487179,4234.871794,4522.564102,4212.820512,4647.692307,3976.923077,4070.256410
227,4366.153846,4536.923076,4512.307692,4279.487179,4457.948717,4224.615384,4440.000000,4218.461538,4233.333333,4518.974358,4215.384615,4652.820512,3970.769231,4070.256410
228,4362.051282,4531.282051,4502.564102,4271.794871,4457.435897,4225.641025,4431.794871,4214.871794,4226.153846,4512.307692,4224.102564,4646.666666,3966.666667,4070.769230
229,4351.282051,4522.051282,4492.820512,4256.410256,4453.846153,4222.051282,4424.102564,4209.230769,4217.435897,4501.025641,4206.153846,4633.333333,3963.076924,4062.051282
230,4354.871794,4520.512820,4497.435897,4260.512820,4448.717948,4220.512820,4434.358974,4214.358974,4220.512820,4500.000000,4191.794871,4636.923076,3963.076924,4061.538461
231,4364.615384,4525.128205,4504.615384,4274.358974,4451.282051,4224.615384,4441.538461,4226.153846,4240.512820,4513.846153,4211.794871,4648.205128,3969.230770,4071.282051
232,4366.666666,4524.102564,4500.512820,4276.410256,4451.282051,4227.692307,4434.358974,4226.666666,4247.692307,4519.487179,4225.128205,4643.076923,3977.435898,4070.769230
233,4364.615384,4521.538461,4497.435897,4270.256410,4446.153846,4223.076923,4434.871794,4218.974358,4229.230769,4511.282051,4209.230769,4636.410256,3978.461539,4069.230769
234,4365.128205,4531.794871,4506.666666,4268.717948,4458.461538,4215.384615,4445.128205,4221.025641,4219.487179,4507.692307,4201.538461,4645.128205,3974.358975,4078.974358
235,4367.692307,4535.384615,4513.846153,4267.692307,4474.871794,4211.794871,4445.128205,4226.666666,4226.153846,4509.230769,4214.871794,4651.282051,3974.358975,4081.538461
236,4367.179487,4528.717948,4511.794871,4264.615384,4473.333333,4212.820512,4441.538461,4226.666666,4237.435897,4513.846153,4222.051282,4645.641025,3975.384616,4073.333333
237,4366.153846,4526.153846,4509.230769,4269.230769,4470.769230,4212.820512,4444.615384,4228.205128,4239.487179,4515.897435,4214.871794,4638.461538,3966.666667,4071.282051
238,4365.641025,4525.641025,4505.128205,4275.384615,4479.487179,4210.256410,4441.538461,4225.128205,4227.692307,4505.128205,4208.717948,4635.384615,3960.000000,4067.692307
239,4357.948717,4524.102564,4498.461538,4265.641025,4476.410256,4206.666666,4430.769230,4214.358974,4218.461538,4498.461538,4204.102564,4634.871794,3965.641026,4059.487179
240,4356.410256,4525.128205,4497.948717,4259.487179,4470.256410,4207.692307,4426.666666,4215.384615,4218.461538,4508.717948,4190.769230,4632.820512,3972.307693,4062.564102
241,4368.717948,4529.743589,4504.615384,4271.794871,4474.358974,4207.692307,4428.717948,4221.025641,4223.589743,4515.384615,4186.153846,4632.307692,3968.717949,4068.205128
242,4374.871794,4534.358974,4508.717948,4279.487179,4473.846153,4206.153846,4428.205128,4213.333333,4224.102564,4508.717948,4203.076923,4640.000000,3964.102565,4067.692307
243,4374.871794,4540.512820,4515.897435,4277.435897,4469.743589,4214.358974,4432.820512,4216.410256,4227.692307,4512.307692,4219.487179,4651.282051,3971.282052,4076.923076
244,4385.641025,4542.051282,4522.564102,4278.461538,4469.743589,4222.051282,4444.102564,4232.307692,4238.461538,4525.641025,4221.025641,4655.897435,3985.641026,4090.256410
245,4387.179487,4537.948717,4516.923076,4278.461538,4467.179487,4218.461538,4447.692307,4234.358974,4241.538461,4525.128205,4213.846153,4652.307692,3987.692308,4082.051282
246,4379.487179,4538.461538,4509.230769,4278.974358,4467.692307,4220.512820,4447.179487,4228.205128,4231.282051,4517.435897,4204.102564,4648.205128,3980.512821,4073.846153
247,4382.051282,4542.564102,4511.282051,4278.461538,4475.384615,4232.820512,4448.205128,4230.256410,4229.743589,4521.025641,4202.564102,4643.589743,3976.923077,4082.051282
248,4384.615384,4545.128205,4511.794871,4274.871794,4475.897435,4238.974358,4446.666666,4230.256410,4240.512820,4522.564102,4206.666666,4641.538461,3976.410257,4082.564102
249,4379.487179,4541.025641,4508.717948,4274.358974,4468.717948,4232.307692,4443.589743,4218.974358,4236.923076,4510.256410,4205.641025,4645.128205,3978.974359,4075.384615
250,4381.538461,4537.948717,4512.820512,4272.307692,4463.589743,4225.641025,4443.589743,4212.820512,4226.666666,4512.820512,4203.589743,4650.769230,3984.102565,4081.025641
251,4383.589743,4538.974358,4515.384615,4265.128205,4464.615384,4229.743589,4444.102564,4221.538461,4230.769230,4525.641025,4203.589743,4653.333333,3984.615385,4085.128205
252,4377.435897,4540.000000,4512.307692,4265.128205,4469.230769,4228.717948,4444.615384,4229.743589,4237.435897,4519.487179,4204.102564,4651.282051,3979.487180,4073.333333
253,4382.051282,4540.512820,4513.846153,4276.410256,4476.410256,4221.025641,4447.179487,4231.282051,4237.435897,4518.974358,4207.692307,4647.692307,3982.051283,4071.282051
254,4391.282051,4544.615384,4515.897435,4280.512820,4481.538461,4218.461538,4448.205128,4232.820512,4237.948717,4525.128205,4204.615384,4647.179487,3990.769231,4084.102564
255,4387.692307,4547.179487,4513.846153,4272.307692,4481.538461,4221.025641,4447.692307,4234.871794,4244.102564,4521.025641,4201.538461,4648.205128,3991.794872,4087.692307
256,4379.487179,4542.564102,4512.820512,4271.282051,4479.487179,4218.974358,4445.641025,4229.743589,4248.205128,4522.564102,4219.487179,4647.692307,3988.717949,4082.051282
257,4380.000000,4536.923076,4513.333333,4280.000000,4475.897435,4215.384615,4441.538461,4218.461538,4241.025641,4526.666666,4222.564102,4644.615384,3986.666667,4074.871794
258,4381.025641,4534.358974,4509.743589,4274.358974,4473.846153,4214.358974,4438.974358,4212.820512,4227.692307,4514.871794,4194.871794,4641.025641,3984.102565,4071.282051
259,4382.564102,4539.487179,4515.384615,4266.153846,4472.307692,4216.410256,4441.025641,4220.512820,4226.666666,4511.282051,4190.769230,4645.128205,3983.076924,4074.871794
