,AF3,F7,F3,FC5,T7,P7,O1,O2,P8,T8,FC6,F4,F8,AF4
0,4383.076923,4517.948717,4457.435897,4286.666666,4475.897435,4157.435897,4443.589743,4200.512820,4175.897435,4486.666666,4188.205128,4636.410256,4003.076923,4018.974358
1,4386.666666,4520.000000,4458.461538,4290.769230,4479.487179,4163.076923,4447.179487,4213.846153,4181.538461,4493.333333,4183.589743,4643.076923,4008.205128,4018.461538
2,4385.641025,4524.615384,4456.410256,4289.230769,4482.051282,4163.076923,4454.871794,4217.948717,4186.153846,4493.846153,4184.102564,4646.153846,4010.769230,4020.512820
3,4386.153846,4524.102564,4448.717948,4285.641025,4480.000000,4160.000000,4455.897435,4213.333333,4191.282051,4498.461538,4187.692307,4644.615384,4009.230769,4021.025641
4,4385.128205,4518.974358,4442.564102,4286.666666,4478.461538,4160.000000,4452.307692,4214.871794,4189.743589,4502.051282,4180.512820,4641.538461,4000.000000,4014.871794
5,4377.948717,4515.384615,4435.897435,4281.538461,4477.948717,4158.461538,4449.743589,4215.897435,4178.461538,4491.282051,4170.256410,4635.897435,3991.794872,4010.769230
6,4373.333333,4511.282051,4428.205128,4276.410256,4473.846153,4156.923076,4449.743589,4211.282051,4173.846153,4485.641025,4169.743589,4632.820512,3992.307693,4008.717948
7,4378.461538,4509.230769,4428.205128,4278.974358,4473.333333,4155.897435,4455.897435,4215.384615,4184.102564,4501.538461,4180.000000,4638.974358,4002.051282,4012.307692
8,4389.743589,4516.923076,4432.820512,4280.000000,4475.897435,4158.974358,4464.102564,4227.179487,4200.000000,4510.769230,4193.333333,4648.717948,4016.410256,4024.615384
9,4392.820512,4521.025641,4432.820512,4280.000000,4475.384615,4162.564102,4463.589743,4230.769230,4202.564102,4504.615384,4195.384615,4650.256410,4021.538461,4028.717948
10,4389.743589,4520.000000,4427.179487,4287.179487,4477.948717,4165.128205,4459.487179,4229.230769,4198.461538,4507.179487,4192.820512,4646.153846,4015.384615,4024.615384
11,4387.179487,4521.025641,4419.487179,4291.282051,4480.000000,4164.615384,4460.512820,4226.666666,4199.487179,4510.256410,4196.410256,4645.641025,4014.358974,4027.179487
12,4379.487179,4515.384615,4410.769230,4285.128205,4476.923076,4160.000000,4454.871794,4216.923076,4195.384615,4499.487179,4191.794871,4642.051282,4011.794871,4022.051282
13,4373.846153,4509.230769,4404.615384,4279.487179,4473.846153,4156.923076,4444.615384,4211.794871,4183.076923,4493.846153,4184.102564,4632.820512,3999.487180,4008.717948
14,4377.948717,4514.358974,4398.974358,4281.025641,4476.410256,4160.512820,4441.538461,4215.897435,4180.000000,4498.974358,4183.589743,4633.333333,3994.358975,4009.230769
15,4378.461538,4517.435897,4389.230769,4282.051282,4479.487179,4162.564102,4443.589743,4209.230769,4184.615384,4495.897435,4172.307692,4635.897435,4000.512820,4012.820512
16,4373.333333,4513.333333,4378.974358,4277.948717,4477.948717,4157.948717,4441.538461,4200.512820,4181.538461,4486.666666,4164.102564,4634.358974,3998.461539,4007.692307
17,4380.000000,4514.871794,4379.487179,4277.948717,4475.897435,4155.384615,4440.000000,4208.205128,4181.025641,4488.205128,4181.538461,4638.974358,3996.410257,4011.794871
18,4390.256410,4521.025641,4382.051282,4284.102564,4476.923076,4158.974358,4442.564102,4217.948717,4189.743589,4500.000000,4192.307692,4645.641025,4005.641025,4024.102564
19,4388.205128,4517.948717,4375.897435,4284.102564,4476.410256,4160.000000,4445.641025,4216.923076,4198.461538,4506.666666,4181.025641,4644.102564,4007.692307,4021.538461
20,4380.512820,4510.769230,4365.128205,4280.000000,4474.871794,4157.948717,4445.641025,4209.230769,4196.923076,4500.000000,4173.333333,4638.461538,3999.487180,4011.282051
21,4377.948717,4509.230769,4354.358974,4276.410256,4480.512820,4159.487179,4440.000000,4201.538461,4184.102564,4493.846153,4172.307692,4634.871794,3995.897436,4008.717948
22,4377.948717,4513.846153,4349.743589,4276.923076,4483.076923,4165.641025,4436.410256,4203.076923,4179.487179,4496.923076,4170.769230,4635.384615,3997.435898,4010.769230
23,4383.589743,4519.487179,4350.769230,4287.179487,4480.512820,4165.641025,4441.025641,4211.794871,4189.743589,4502.564102,4180.512820,4640.000000,3997.948718,4018.461538
24,4390.256410,4520.512820,4347.692307,4292.820512,4486.153846,4162.564102,4442.564102,4215.384615,4196.923076,4505.128205,4191.794871,4649.230769,4001.538461,4026.666666
25,4389.230769,4518.974358,4342.051282,4285.128205,4488.717948,4169.743589,4441.538461,4222.564102,4201.025641,4509.743589,4188.717948,4652.820512,4006.666666,4027.692307
26,4381.538461,4516.923076,4335.897435,4280.000000,4478.974358,4170.769230,4442.564102,4227.692307,4206.153846,4511.282051,4185.641025,4647.179487,4005.128205,4024.102564
27,4377.435897,4514.871794,4321.538461,4276.410256,4474.358974,4162.564102,4436.923076,4214.358974,4194.871794,4500.512820,4184.102564,4637.435897,3994.871795,4016.410256
28,4374.358974,4511.282051,4305.641025,4265.641025,4477.948717,4155.897435,4422.564102,4196.923076,4175.384615,4490.769230,4171.282051,4628.205128,3982.051283,4006.666666
29,4369.743589,4505.128205,4297.948717,4265.641025,4475.384615,4152.820512,4417.948717,4197.948717,4175.897435,4491.794871,4159.487179,4624.615384,3982.051283,4005.641025
30,4369.743589,4508.717948,4296.923076,4277.948717,4470.256410,4151.282051,4424.102564,4205.128205,4188.205128,4496.410256,4170.769230,4628.205128,3990.256411,4010.256410
31,4374.358974,4520.512820,4295.897435,4281.538461,4475.897435,4156.410256,4427.179487,4204.102564,4189.230769,4498.974358,4186.666666,4631.282051,3990.256411,4013.333333
32,4378.974358,4521.538461,4288.717948,4275.384615,4483.589743,4163.076923,4427.179487,4202.564102,4180.512820,4500.512820,4186.153846,4628.205128,3983.589744,4014.358974
33,4373.846153,4514.871794,4276.923076,4275.897435,4484.615384,4162.564102,4424.615384,4200.000000,4173.846153,4496.923076,4177.435897,4622.564102,3982.564103,4009.743589
34,4362.564102,4514.358974,4267.179487,4280.512820,4479.487179,4161.025641,4421.025641,4192.307692,4173.333333,4489.743589,4169.743589,4619.487179,3979.487180,4000.512820
35,4365.128205,4516.923076,4260.512820,4283.589743,4477.948717,4165.641025,4422.051282,4189.230769,4174.871794,4492.307692,4165.128205,4621.538461,3975.897436,4000.000000
36,4373.333333,4515.897435,4254.358974,4287.692307,4485.128205,4170.256410,4427.179487,4194.358974,4172.820512,4496.410256,4170.256410,4625.128205,3981.025642,4006.153846
37,4368.717948,4514.358974,4249.230769,4290.256410,4487.692307,4166.153846,4435.384615,4198.461538,4176.410256,4492.307692,4181.538461,4627.179487,3980.512821,4007.179487
38,4368.205128,4513.846153,4248.717948,4286.666666,4482.564102,4164.615384,4441.538461,4206.666666,4188.717948,4495.897435,4183.589743,4633.333333,3979.487180,4014.358974
39,4374.358974,4510.769230,4250.256410,4279.487179,4477.435897,4163.589743,4436.410256,4216.923076,4193.333333,4505.641025,4172.307692,4638.974358,3987.179488,4021.025641
40,4370.256410,4505.641025,4246.666666,4274.871794,4473.846153,4154.358974,4430.256410,4215.897435,4192.820512,4507.179487,4165.641025,4637.948717,3992.820513,4013.846153
41,4372.307692,4510.769230,4239.487179,4282.051282,4476.410256,4158.461538,4438.974358,4214.358974,4204.102564,4508.717948,4175.897435,4640.000000,3993.846154,4015.384615
42,4384.615384,4522.051282,4235.897435,4292.307692,4487.692307,4174.358974,4449.230769,4218.461538,4205.641025,4512.820512,4187.692307,4644.102564,3993.333334,4025.128205
43,4378.974358,4519.487179,4230.769230,4289.230769,4493.846153,4176.410256,4441.538461,4210.769230,4185.641025,4504.615384,4181.025641,4636.923076,3985.641026,4016.923076
44,4362.564102,4506.666666,4219.487179,4280.512820,4484.615384,4166.666666,4429.743589,4198.974358,4173.846153,4489.743589,4168.205128,4627.692307,3971.282052,3998.974359
45,4361.025641,4502.051282,4206.153846,4281.025641,4476.923076,4161.538461,4426.153846,4197.948717,4175.897435,4484.102564,4167.179487,4626.153846,3965.128206,3998.461539
46,4364.102564,4502.564102,4201.025641,4280.512820,4477.435897,4162.051282,4428.205128,4205.128205,4181.025641,4490.256410,4171.794871,4624.615384,3968.205129,4004.615384
47,4363.589743,4499.487179,4202.564102,4279.487179,4476.923076,4163.589743,4428.205128,4213.333333,4191.794871,4495.897435,4174.871794,4624.615384,3973.846154,4002.051282
48,4363.076923,4497.948717,4196.923076,4277.435897,4475.897435,4161.025641,4424.615384,4211.282051,4189.743589,4491.282051,4176.923076,4628.717948,3972.307693,3995.384616
49,4360.512820,4500.512820,4187.692307,4273.846153,4473.846153,4154.871794,4426.666666,4201.538461,4175.897435,4484.102564,4167.692307,4626.666666,3963.589744,3991.794872
50,4354.358974,4500.512820,4181.538461,4273.333333,4474.358974,4156.410256,4430.256410,4199.487179,4173.846153,4482.051282,4149.743589,4620.000000,3964.615385,3993.846154
51,4348.717948,4491.794871,4172.307692,4271.282051,4474.871794,4157.948717,4425.128205,4200.512820,4178.974358,4479.487179,4154.871794,4617.948717,3971.282052,3995.384616
52,4351.794871,4491.282051,4166.666666,4269.743589,4473.333333,4153.333333,4420.512820,4196.923076,4177.948717,4480.512820,4181.025641,4625.128205,3972.307693,3996.923077
53,4365.641025,4505.641025,4177.435897,4280.512820,4473.333333,4153.333333,4427.692307,4204.615384,4182.051282,4495.897435,4193.846153,4639.487179,3979.487180,4005.641025
54,4375.384615,4516.410256,4185.128205,4289.230769,4478.974358,4162.564102,4435.897435,4217.948717,4193.333333,4509.743589,4193.333333,4649.743589,3992.307693,4016.410256
55,4372.820512,4515.384615,4175.897435,4283.589743,4483.589743,4166.666666,4435.897435,4216.923076,4196.923076,4507.692307,4191.282051,4645.128205,3992.307693,4017.435897
56,4367.179487,4510.256410,4165.128205,4280.512820,4482.051282,4164.615384,4433.333333,4206.666666,4192.820512,4497.435897,4182.564102,4633.846153,3981.025642,4011.282051
57,4360.000000,4504.615384,4157.435897,4279.487179,4480.000000,4164.102564,4431.794871,4202.051282,4183.589743,4489.230769,4168.717948,4627.692307,3974.871795,4005.641025
58,4352.307692,4504.102564,4146.153846,4269.743589,4477.948717,4163.076923,4429.230769,4202.051282,4176.923076,4490.769230,4156.923076,4627.692307,3975.897436,3998.974359
59,4354.358974,4508.717948,4139.487179,4267.179487,4481.025641,4162.051282,4428.717948,4201.025641,4179.487179,4493.333333,4156.410256,4627.179487,3981.538462,3995.897436
60,4357.435897,4506.666666,4140.512820,4270.769230,4484.615384,4164.615384,4428.717948,4196.410256,4179.487179,4488.205128,4161.025641,4623.589743,3985.128206,3999.487180
61,4349.230769,4499.487179,4135.897435,4266.666666,4483.589743,4164.615384,4426.666666,4188.717948,4172.820512,4480.000000,4157.948717,4618.461538,3982.051283,3996.923077
62,4340.000000,4498.461538,4124.615384,4259.487179,4481.538461,4160.000000,4428.717948,4184.102564,4171.794871,4474.358974,4149.743589,4614.358974,3980.512821,3985.641026
63,4337.948717,4498.974358,4118.974358,4258.461538,4476.410256,4156.410256,4428.717948,4184.615384,4174.358974,4473.333333,4140.512820,4611.794871,3980.000000,3983.589744
64,4337.948717,4497.948717,4120.512820,4260.512820,4470.256410,4156.923076,4428.717948,4190.256410,4175.897435,4476.923076,4134.871794,4610.769230,3978.974359,3988.205129
65,4341.538461,4501.025641,4123.589743,4260.000000,4471.794871,4159.487179,4436.410256,4195.897435,4177.435897,4478.974358,4143.589743,4614.871794,3983.076924,3990.256411
66,4346.666666,4503.076923,4124.102564,4258.461538,4477.948717,4161.538461,4446.153846,4200.000000,4176.923076,4476.410256,4155.897435,4618.974358,3987.692308,3994.358975
67,4342.051282,4494.358974,4123.076923,4255.384615,4474.871794,4157.435897,4443.589743,4201.538461,4175.384615,4477.435897,4156.923076,4615.384615,3985.128206,3991.794872
68,4335.384615,4487.179487,4119.487179,4250.256410,4466.666666,4152.820512,4434.871794,4198.461538,4174.358974,4473.333333,4156.923076,4611.282051,3981.538462,3986.666667
69,4340.512820,4490.256410,4114.871794,4245.641025,4467.179487,4152.307692,4434.358974,4194.358974,4173.846153,4468.717948,4161.538461,4615.384615,3984.615385,3991.794872
70,4346.153846,4488.717948,4115.384615,4245.641025,4469.230769,4150.769230,4434.871794,4194.871794,4170.769230,4473.333333,4162.051282,4625.128205,3989.743590,3997.948718
71,4349.743589,4491.282051,4123.076923,4253.333333,4465.641025,4149.743589,4432.820512,4199.487179,4174.871794,4483.076923,4169.230769,4632.820512,3991.794872,4000.512820
72,4356.923076,4504.102564,4129.230769,4261.025641,4466.666666,4150.769230,4429.743589,4201.538461,4185.641025,4489.743589,4180.000000,4639.487179,3994.871795,4008.205128
73,4362.564102,4503.076923,4126.666666,4262.051282,4468.717948,4146.666666,4427.692307,4202.051282,4188.205128,4487.179487,4178.461538,4638.974358,3997.948718,4012.307692
74,4358.974358,4493.333333,4123.589743,4260.000000,4463.589743,4144.615384,4432.307692,4202.564102,4184.615384,4485.128205,4172.307692,4632.820512,3997.948718,4008.205128
75,4354.358974,4500.000000,4124.102564,4262.564102,4467.179487,4153.333333,4442.051282,4203.076923,4180.512820,4486.153846,4173.333333,4629.743589,3996.410257,4007.179487
76,4353.333333,4505.128205,4117.435897,4262.564102,4479.487179,4158.974358,4444.102564,4202.564102,4177.948717,4482.564102,4170.256410,4629.743589,3989.230770,4002.051282
77,4351.282051,4498.974358,4107.179487,4258.461538,4475.897435,4156.410256,4438.461538,4201.538461,4179.487179,4477.948717,4162.564102,4628.717948,3978.974359,3993.846154
78,4349.743589,4497.948717,4107.692307,4258.974358,4471.282051,4156.410256,4440.000000,4206.666666,4184.102564,4481.025641,4163.076923,4626.666666,3977.948718,3996.923077
79,4348.717948,4500.000000,4108.205128,4257.948717,4479.487179,4160.512820,4446.666666,4202.051282,4180.000000,4481.025641,4164.615384,4622.051282,3983.076924,3998.974359
80,4345.128205,4498.974358,4099.487179,4255.897435,4479.487179,4159.487179,4444.615384,4187.692307,4169.743589,4470.769230,4160.512820,4615.897435,3978.461539,3990.256411
81,4349.230769,4502.564102,4099.487179,4263.589743,4474.871794,4160.000000,4443.076923,4188.717948,4175.384615,4469.743589,4163.589743,4618.974358,3974.871795,3991.794872
82,4361.025641,4512.820512,4112.307692,4271.282051,4483.589743,4166.153846,4450.256410,4203.076923,4190.769230,4480.512820,4171.794871,4630.256410,3985.128206,4007.692307
83,4365.128205,4514.358974,4117.948717,4269.230769,4487.692307,4165.641025,4453.846153,4206.666666,4198.974358,4488.205128,4179.487179,4636.410256,3996.410257,4013.333333
84,4357.948717,4504.615384,4111.794871,4265.641025,4473.846153,4154.871794,4447.179487,4202.564102,4196.410256,4488.717948,4180.000000,4635.384615,3994.358975,4007.692307
85,4351.794871,4497.948717,4105.641025,4261.538461,4465.128205,4147.692307,4441.538461,4200.512820,4186.153846,4485.641025,4165.641025,4633.333333,3985.128206,4002.051282
86,4351.282051,4500.512820,4105.128205,4257.948717,4471.794871,4151.794871,4442.564102,4197.435897,4178.974358,4481.025641,4156.410256,4632.307692,3983.589744,4000.000000
87,4358.974358,4503.589743,4110.769230,4264.615384,4478.461538,4160.000000,4447.692307,4198.974358,4187.692307,4486.153846,4171.282051,4635.384615,3992.307693,4005.128205
88,4366.666666,4503.589743,4117.948717,4270.256410,4477.435897,4162.051282,4449.743589,4204.102564,4196.410256,4494.358974,4184.102564,4640.000000,4000.000000,4009.230769
89,4361.538461,4502.564102,4112.820512,4264.102564,4474.871794,4157.435897,4441.025641,4194.358974,4182.051282,4484.102564,4170.256410,4632.307692,3993.846154,4002.051282
90,4355.384615,4502.051282,4107.692307,4259.487179,4477.435897,4157.435897,4431.282051,4188.205128,4171.794871,4475.384615,4161.025641,4626.153846,3983.076924,3996.410257
91,4360.000000,4506.666666,4114.358974,4264.102564,4480.512820,4161.025641,4437.948717,4195.897435,4180.512820,4482.564102,4175.384615,4631.282051,3983.076924,4001.025641
92,4363.076923,4508.717948,4116.410256,4265.128205,4479.487179,4159.487179,4445.641025,4198.461538,4182.564102,4482.564102,4182.564102,4631.794871,3990.769231,4004.615384
93,4362.051282,4506.666666,4112.307692,4264.615384,4478.974358,4161.025641,4444.102564,4195.384615,4178.974358,4476.923076,4177.948717,4629.743589,3998.974359,4006.153846
94,4366.153846,4510.769230,4118.974358,4265.641025,4479.487179,4163.076923,4443.589743,4201.538461,4187.179487,4489.743589,4184.615384,4637.435897,3998.461539,4009.743589
95,4373.333333,4509.743589,4126.666666,4264.102564,4480.512820,4161.025641,4446.153846,4209.743589,4198.974358,4506.666666,4193.846153,4643.076923,3996.923077,4014.358974
96,4371.794871,4507.179487,4123.589743,4261.538461,4478.974358,4159.487179,4444.615384,4206.666666,4195.897435,4505.641025,4186.153846,4636.923076,4002.051282,4014.871794
97,4364.102564,4508.205128,4121.538461,4265.641025,4476.410256,4161.025641,4443.589743,4200.512820,4186.153846,4495.384615,4177.948717,4632.307692,4002.564102,4010.256410
98,4362.564102,4506.153846,4123.589743,4273.846153,4478.461538,4160.000000,4443.076923,4196.410256,4175.384615,4487.179487,4177.948717,4633.333333,3991.794872,4005.128205
99,4366.666666,4505.128205,4121.538461,4273.846153,4478.974358,4156.923076,4441.025641,4197.435897,4170.256410,4487.692307,4175.897435,4635.384615,3987.179488,4005.128205
100,4368.205128,4510.256410,4124.102564,4267.692307,4478.974358,4159.487179,4442.051282,4199.487179,4175.897435,4494.871794,4172.307692,4634.358974,3993.846154,4008.717948
101,4363.589743,4506.153846,4128.205128,4265.641025,4481.025641,4162.051282,4443.076923,4198.974358,4176.923076,4493.333333,4165.128205,4632.307692,3992.820513,4003.076923
102,4358.974358,4497.435897,4125.641025,4266.153846,4480.000000,4161.025641,4441.025641,4197.435897,4170.256410,4484.615384,4160.000000,4633.333333,3985.128206,3996.923077
103,4364.615384,4502.564102,4128.717948,4265.128205,4474.358974,4159.487179,4441.538461,4198.461538,4168.717948,4483.589743,4165.641025,4637.435897,3987.179488,4001.538461
104,4370.769230,4507.179487,4137.435897,4262.564102,4474.871794,4158.461538,4443.589743,4204.615384,4174.871794,4490.256410,4173.333333,4638.461538,3994.358975,4009.230769
105,4366.153846,4504.102564,4137.948717,4263.076923,4475.384615,4157.435897,4440.000000,4203.076923,4175.897435,4496.410256,4174.871794,4635.897435,3996.410257,4009.743589
106,4369.230769,4507.692307,4136.923076,4269.743589,4473.846153,4159.487179,4439.487179,4204.102564,4174.358974,4498.974358,4178.461538,4640.512820,3996.923077,4012.307692
107,4378.974358,4516.410256,4145.128205,4274.358974,4479.487179,4164.615384,4446.666666,4215.384615,4183.076923,4499.487179,4180.512820,4646.666666,3998.461539,4016.923076
108,4372.307692,4510.256410,4144.102564,4266.153846,4481.025641,4163.589743,4442.564102,4213.333333,4183.589743,4496.410256,4167.692307,4640.512820,3991.282052,4009.743589
109,4357.435897,4498.461538,4134.358974,4257.435897,4474.358974,4158.461538,4429.743589,4197.948717,4169.743589,4488.717948,4161.025641,4631.794871,3983.076924,4001.025641
110,4361.025641,4499.487179,4136.923076,4265.128205,4475.897435,4158.974358,4434.871794,4201.538461,4165.128205,4488.717948,4173.846153,4634.871794,3988.717949,4003.589743
111,4370.256410,4506.153846,4142.051282,4275.384615,4481.538461,4163.589743,4446.153846,4214.358974,4173.333333,4493.333333,4180.512820,4639.487179,3995.384616,4008.205128
112,4370.256410,4510.256410,4140.512820,4272.820512,4480.000000,4168.717948,4437.948717,4209.230769,4178.461538,4496.410256,4178.461538,4636.410256,3993.846154,4008.717948
113,4369.743589,4508.717948,4141.538461,4270.256410,4483.076923,4169.230769,4425.641025,4200.512820,4172.307692,4498.974358,4180.000000,4633.846153,3993.846154,4008.717948
114,4370.769230,4505.641025,4141.025641,4273.846153,4485.128205,4165.641025,4426.153846,4198.974358,4168.205128,4500.000000,4177.948717,4633.333333,3993.846154,4007.179487
115,4373.846153,4507.692307,4140.512820,4277.948717,4478.974358,4162.564102,4428.205128,4204.102564,4172.820512,4501.025641,4182.564102,4635.384615,3994.358975,4006.153846
116,4375.384615,4512.307692,4143.589743,4280.512820,4481.538461,4165.128205,4427.179487,4213.333333,4177.435897,4501.025641,4195.384615,4640.000000,3998.461539,4009.743589
117,4369.230769,4510.769230,4142.051282,4281.025641,4485.641025,4170.769230,4425.641025,4209.743589,4174.871794,4494.358974,4187.179487,4637.948717,3994.358975,4010.769230
118,4360.000000,4504.615384,4135.384615,4276.923076,4481.538461,4170.769230,4421.538461,4200.512820,4169.743589,4485.641025,4165.641025,4629.230769,3986.153847,4003.076923
119,4359.487179,4502.051282,4135.897435,4273.333333,4478.974358,4165.641025,4416.923076,4199.487179,4162.564102,4485.128205,4163.076923,4626.666666,3985.128206,3997.948718
120,4364.615384,4506.666666,4139.487179,4279.487179,4483.589743,4164.102564,4413.846153,4194.871794,4151.282051,4487.692307,4170.769230,4629.743589,3985.128206,4001.025641
121,4368.717948,4515.384615,4145.641025,4286.153846,4485.128205,4166.153846,4412.307692,4188.717948,4151.794871,4486.666666,4174.871794,4630.256410,3984.615385,4003.076923
122,4367.692307,4513.846153,4151.794871,4285.128205,4481.025641,4166.666666,4413.333333,4194.871794,4158.461538,4485.641025,4176.410256,4629.230769,3985.641026,4002.564102
123,4362.564102,4508.717948,4146.666666,4281.025641,4478.461538,4163.589743,4411.794871,4200.512820,4158.974358,4486.666666,4175.897435,4629.230769,3986.153847,4004.102564
124,4362.564102,4510.256410,4145.128205,4281.025641,4479.487179,4161.538461,4409.230769,4198.461538,4161.025641,4490.256410,4177.435897,4630.769230,3988.717949,4002.051282
125,4365.128205,4510.769230,4147.692307,4283.076923,4482.564102,4164.102564,4410.769230,4200.512820,4165.641025,4491.794871,4178.461538,4628.717948,3988.205129,3996.410257
126,4363.589743,4508.717948,4147.692307,4285.128205,4480.000000,4166.666666,4414.871794,4203.589743,4169.743589,4492.307692,4174.358974,4630.256410,3981.538462,3997.435898
127,4366.666666,4508.717948,4150.769230,4285.641025,4476.410256,4163.589743,4416.923076,4203.589743,4171.794871,4495.897435,4173.333333,4638.974358,3981.025642,4005.128205
128,4369.230769,4507.692307,4156.923076,4283.589743,4476.923076,4161.025641,4415.897435,4201.025641,4162.564102,4493.333333,4179.487179,4641.538461,3987.179488,4008.205128
129,4364.102564,4504.102564,4156.410256,4284.102564,4476.923076,4162.564102,4414.358974,4196.923076,4151.282051,4485.128205,4178.461538,4635.384615,3983.076924,4005.128205
130,4364.615384,4505.641025,4153.333333,4290.256410,4479.487179,4166.153846,4413.333333,4198.974358,4153.333333,4483.076923,4175.384615,4634.871794,3976.923077,4004.102564
131,4370.769230,4511.794871,4160.000000,4294.358974,4483.589743,4166.666666,4414.358974,4201.538461,4159.487179,4487.692307,4180.000000,4637.948717,3979.487180,4005.128205
132,4369.743589,4514.871794,4165.128205,4296.410256,4487.692307,4168.717948,4419.487179,4202.564102,4161.538461,4488.205128,4184.615384,4636.923076,3983.589744,4003.589743
133,4366.153846,4513.846153,4161.538461,4297.435897,4494.358974,4173.333333,4422.051282,4202.051282,4158.461538,4486.153846,4177.435897,4631.282051,3977.435898,3999.487180
134,4362.051282,4504.615384,4153.333333,4292.820512,4492.307692,4170.769230,4414.358974,4194.358974,4149.743589,4479.487179,4162.051282,4623.076923,3966.666667,3992.820513
135,4356.923076,4495.897435,4150.769230,4290.256410,4481.025641,4165.641025,4408.205128,4186.666666,4148.717948,4473.846153,4163.589743,4622.051282,3968.717949,3989.230770
136,4361.538461,4502.564102,4160.000000,4296.410256,4478.974358,4167.692307,4412.307692,4198.461538,4162.051282,4486.666666,4183.076923,4630.769230,3982.051283,3997.435898
137,4371.282051,4515.897435,4169.230769,4295.384615,4484.615384,4167.692307,4419.487179,4214.871794,4176.410256,4504.102564,4194.358974,4638.974358,3995.384616,4011.282051
138,4374.358974,4514.358974,4168.205128,4284.102564,4478.461538,4161.025641,4417.435897,4210.256410,4176.923076,4501.538461,4190.256410,4640.000000,3996.410257,4013.333333
139,4371.794871,4507.179487,4166.153846,4281.538461,4470.256410,4159.487179,4412.307692,4200.000000,4166.666666,4491.794871,4189.230769,4637.435897,3992.820513,4007.179487
140,4368.205128,4510.769230,4168.205128,4286.153846,4473.846153,4159.487179,4410.256410,4200.512820,4157.435897,4490.256410,4186.153846,4635.384615,3991.794872,4007.692307
141,4362.564102,4507.692307,4160.512820,4282.564102,4475.897435,4158.974358,4407.179487,4195.384615,4144.102564,4478.461538,4170.769230,4627.692307,3979.487180,4004.102564
142,4359.487179,4501.538461,4155.897435,4277.435897,4474.358974,4160.512820,4401.025641,4184.102564,4133.333333,4467.179487,4162.564102,4620.512820,3967.179488,3995.897436
143,4363.076923,4509.743589,4168.717948,4284.615384,4477.948717,4162.564102,4401.025641,4188.717948,4143.076923,4480.000000,4169.230769,4624.615384,3976.410257,4000.512820
144,4365.128205,4514.358974,4172.820512,4290.769230,4480.512820,4163.076923,4407.692307,4201.538461,4152.307692,4486.153846,4172.820512,4631.794871,3984.615385,4007.692307
145,4365.128205,4508.205128,4168.717948,4286.153846,4477.435897,4163.076923,4409.230769,4196.410256,4140.512820,4472.307692,4170.769230,4631.282051,3974.871795,4003.589743
146,4373.846153,4512.820512,4180.000000,4288.205128,4478.974358,4163.589743,4410.769230,4191.282051,4138.461538,4474.358974,4175.384615,4633.333333,3979.487180,4005.128205
147,4381.538461,4522.051282,4188.717948,4292.820512,4484.615384,4166.666666,4418.974358,4199.487179,4151.794871,4488.717948,4184.102564,4638.461538,3991.282052,4012.307692
148,4373.333333,4518.974358,4183.589743,4287.179487,4483.076923,4169.743589,4416.923076,4202.564102,4147.179487,4484.615384,4180.000000,4635.897435,3986.153847,4010.256410
149,4370.256410,4515.384615,4184.615384,4282.051282,4481.025641,4166.153846,4412.307692,4197.948717,4139.487179,4478.974358,4174.358974,4633.333333,3983.589744,4008.717948
150,4380.512820,4523.076923,4189.230769,4284.102564,4483.589743,4168.717948,4422.051282,4200.000000,4151.282051,4494.871794,4181.025641,4637.948717,3988.205129,4012.307692
151,4378.974358,4525.128205,4186.153846,4282.564102,4485.641025,4172.307692,4425.641025,4203.076923,4158.974358,4497.948717,4178.461538,4635.384615,3983.076924,4006.666666
152,4368.205128,4516.410256,4184.102564,4276.923076,4481.025641,4164.102564,4416.923076,4200.512820,4153.333333,4486.666666,4165.641025,4630.769230,3979.487180,4001.538461
153,4367.692307,4508.205128,4184.102564,4272.820512,4479.487179,4161.025641,4415.897435,4194.871794,4146.153846,4490.256410,4169.230769,4633.846153,3986.153847,4005.641025
154,4367.179487,4506.666666,4182.051282,4270.256410,4482.051282,4166.153846,4418.461538,4190.769230,4142.564102,4493.333333,4181.538461,4634.358974,3987.179488,4004.615384
155,4365.641025,4514.358974,4187.179487,4274.871794,4485.128205,4171.282051,4420.512820,4197.435897,4146.666666,4488.717948,4185.128205,4636.923076,3988.717949,4005.128205
156,4372.307692,4526.666666,4200.512820,4281.538461,4490.256410,4172.820512,4427.692307,4206.153846,4159.487179,4496.410256,4187.692307,4644.615384,3998.461539,4016.410256
157,4374.358974,4532.820512,4205.128205,4283.589743,4489.230769,4171.282051,4429.230769,4202.564102,4165.641025,4506.666666,4184.615384,4648.205128,4006.153846,4022.051282
158,4369.230769,4521.538461,4201.025641,4281.538461,4482.051282,4166.153846,4425.641025,4203.076923,4161.538461,4502.564102,4168.717948,4644.615384,4010.256410,4018.461538
159,4364.615384,4510.256410,4199.487179,4276.923076,4479.487179,4164.615384,4421.538461,4203.076923,4152.307692,4491.794871,4154.358974,4640.512820,4007.692307,4012.820512
160,4362.564102,4516.410256,4200.512820,4276.410256,4481.025641,4167.692307,4414.871794,4189.230769,4137.948717,4478.461538,4148.717948,4634.358974,3998.461539,4007.179487
161,4362.051282,4528.205128,4198.974358,4278.974358,4481.025641,4164.615384,4411.794871,4178.974358,4129.230769,4473.333333,4143.589743,4627.692307,3989.743590,4006.153846
162,4366.153846,4532.307692,4198.974358,4276.923076,4481.538461,4164.102564,4413.846153,4184.615384,4133.846153,4482.051282,4143.076923,4628.205128,3995.897436,4012.307692
163,4370.769230,4528.717948,4203.076923,4273.333333,4485.641025,4170.256410,4413.333333,4188.717948,4140.000000,4484.615384,4147.179487,4634.871794,4010.256410,4014.871794
164,4368.717948,4525.128205,4201.538461,4267.692307,4487.179487,4170.256410,4414.871794,4186.666666,4146.666666,4486.153846,4141.538461,4634.358974,4007.692307,4010.769230
165,4367.179487,4526.666666,4201.538461,4261.538461,4484.615384,4168.205128,4419.487179,4192.307692,4159.487179,4495.897435,4138.461538,4632.307692,3997.435898,4012.307692
166,4376.410256,4535.384615,4211.282051,4267.179487,4484.102564,4170.256410,4427.692307,4202.051282,4166.666666,4497.435897,4151.794871,4641.538461,4007.692307,4023.589743
167,4384.615384,4538.461538,4218.974358,4276.410256,4486.153846,4171.794871,4436.410256,4207.179487,4166.153846,4498.974358,4162.051282,4650.769230,4025.641025,4032.307692
168,4377.435897,4530.256410,4217.435897,4272.307692,4483.076923,4170.769230,4435.384615,4207.692307,4166.153846,4504.102564,4159.487179,4647.692307,4021.025641,4029.230769
169,4368.717948,4521.025641,4216.923076,4264.615384,4479.487179,4169.230769,4428.717948,4204.615384,4164.615384,4500.512820,4161.025641,4644.615384,4009.230769,4024.615384
170,4369.743589,4520.000000,4219.487179,4266.666666,4481.538461,4167.179487,4431.282051,4201.025641,4162.564102,4494.871794,4163.589743,4645.641025,4012.307692,4022.051282
171,4369.743589,4526.153846,4218.461538,4268.717948,4484.102564,4168.205128,4436.923076,4201.025641,4161.025641,4495.897435,4158.974358,4644.615384,4013.846153,4020.000000
172,4368.717948,4523.589743,4216.923076,4263.076923,4477.948717,4171.282051,4432.820512,4200.000000,4153.333333,4490.769230,4151.794871,4640.000000,4003.076923,4015.384615
173,4366.666666,4514.358974,4221.538461,4261.025641,4475.897435,4163.589743,4425.641025,4196.410256,4146.666666,4480.512820,4154.358974,4637.435897,3995.384616,4009.743589
174,4363.076923,4516.410256,4226.153846,4265.128205,4478.461538,4158.461538,4424.102564,4197.948717,4155.897435,4481.025641,4160.512820,4641.025641,3996.923077,4009.230769
175,4360.512820,4518.974358,4227.179487,4265.641025,4473.333333,4160.512820,4423.589743,4200.000000,4161.025641,4484.102564,4147.179487,4641.538461,3995.897436,4010.256410
176,4365.128205,4516.410256,4228.717948,4265.128205,4469.230769,4157.948717,4424.102564,4198.974358,4152.820512,4487.692307,4141.025641,4643.076923,4000.512820,4014.358974
177,4374.871794,4525.641025,4234.358974,4273.333333,4471.794871,4161.538461,4426.666666,4204.102564,4154.871794,4495.897435,4166.153846,4654.358974,4018.461538,4029.230769
178,4380.000000,4534.358974,4243.589743,4279.487179,4476.410256,4165.128205,4428.205128,4213.333333,4169.230769,4505.641025,4182.051282,4663.076923,4022.051282,4038.974358
179,4379.487179,4530.256410,4249.230769,4278.461538,4475.897435,4159.487179,4429.743589,4217.435897,4175.384615,4512.820512,4172.820512,4661.538461,4013.333333,4035.384615
180,4380.512820,4527.692307,4249.743589,4276.410256,4473.333333,4158.461538,4429.743589,4215.384615,4169.743589,4511.282051,4167.179487,4660.000000,4014.871794,4031.794871
181,4381.025641,4528.717948,4248.717948,4272.307692,4471.282051,4162.051282,4425.128205,4206.153846,4159.487179,4496.923076,4165.128205,4657.435897,4012.820512,4028.717948
182,4372.307692,4522.564102,4248.205128,4272.307692,4471.794871,4155.384615,4423.076923,4196.923076,4150.769230,4479.487179,4154.871794,4649.743589,4000.000000,4020.000000
183,4363.589743,4514.871794,4246.666666,4277.948717,4470.769230,4151.282051,4424.102564,4195.384615,4144.615384,4473.846153,4150.769230,4645.128205,3994.358975,4012.307692
184,4362.564102,4514.358974,4245.641025,4278.974358,4470.769230,4157.435897,4424.615384,4196.923076,4148.717948,4474.871794,4157.435897,4644.615384,3992.820513,4008.205128
185,4365.641025,4516.923076,4248.717948,4275.384615,4475.897435,4162.564102,4431.282051,4203.076923,4158.974358,4479.487179,4160.000000,4647.179487,3993.333334,4010.769230
186,4373.846153,4524.615384,4255.897435,4279.487179,4480.000000,4167.179487,4442.564102,4217.948717,4163.589743,4490.769230,4160.000000,4653.333333,4002.051282,4021.538461
187,4376.923076,4529.230769,4262.051282,4281.025641,4482.564102,4169.743589,4442.564102,4224.102564,4156.410256,4495.384615,4164.102564,4654.871794,4007.179487,4023.076923
188,4371.282051,4520.512820,4262.564102,4276.923076,4481.025641,4165.641025,4436.923076,4210.769230,4149.743589,4487.692307,4168.205128,4651.794871,3998.461539,4013.846153
189,4371.282051,4515.384615,4260.512820,4277.948717,4479.487179,4165.641025,4440.512820,4202.051282,4154.358974,4483.589743,4169.230769,4650.769230,3994.871795,4013.846153
190,4378.974358,4525.641025,4267.179487,4283.589743,4484.615384,4172.307692,4447.692307,4210.769230,4163.589743,4492.307692,4171.794871,4653.333333,4001.538461,4022.051282
191,4380.000000,4532.307692,4277.948717,4284.102564,4485.641025,4172.820512,4449.743589,4219.487179,4165.128205,4500.000000,4172.307692,4657.435897,4002.564102,4021.025641
192,4375.897435,4523.589743,4281.025641,4278.461538,4482.051282,4168.717948,4446.153846,4217.948717,4164.615384,4498.461538,4175.897435,4659.487179,3993.846154,4015.897435
193,4375.384615,4517.435897,4279.487179,4275.897435,4482.564102,4171.282051,4442.564102,4214.358974,4166.153846,4491.794871,4183.076923,4657.435897,3990.769231,4014.358974
194,4376.410256,4525.641025,4277.948717,4277.948717,4484.615384,4175.384615,4443.076923,4216.410256,4165.641025,4493.333333,4177.435897,4654.358974,3998.974359,4016.923076
195,4379.487179,4533.846153,4284.102564,4285.128205,4486.666666,4176.923076,4445.641025,4215.384615,4166.153846,4503.076923,4166.153846,4656.923076,4007.179487,4022.051282
196,4382.051282,4533.333333,4292.307692,4290.256410,4486.666666,4175.897435,4445.128205,4209.743589,4163.076923,4502.051282,4169.230769,4656.923076,4005.128205,4022.051282
197,4374.358974,4526.666666,4287.179487,4282.564102,4484.615384,4172.820512,4435.384615,4200.512820,4149.230769,4489.743589,4170.769230,4647.179487,3996.410257,4012.307692
198,4369.230769,4518.974358,4276.923076,4272.820512,4483.589743,4172.307692,4428.205128,4194.871794,4143.076923,4486.153846,4165.128205,4643.076923,3992.820513,4011.282051
199,4381.538461,4524.615384,4284.102564,4276.923076,4483.589743,4174.358974,4435.384615,4203.076923,4157.435897,4494.358974,4170.256410,4650.769230,4001.538461,4023.076923
200,4390.256410,4536.410256,4298.461538,4281.538461,4484.102564,4173.846153,4440.512820,4213.333333,4169.230769,4500.000000,4178.974358,4654.358974,4008.205128,4025.641025
201,4380.000000,4530.769230,4292.820512,4276.923076,4483.589743,4169.230769,4435.384615,4205.641025,4162.564102,4495.897435,4174.358974,4644.615384,4000.000000,4014.871794
202,4371.794871,4520.512820,4281.025641,4275.384615,4481.538461,4173.333333,4437.948717,4196.410256,4158.461538,4490.769230,4169.230769,4637.435897,3991.794872,4011.282051
203,4378.461538,4528.205128,4288.205128,4279.487179,4484.102564,4179.487179,4444.615384,4209.230769,4165.641025,4493.333333,4170.769230,4644.615384,4002.051282,4018.974358
204,4383.589743,4535.897435,4301.025641,4277.948717,4492.307692,4177.948717,4443.076923,4217.435897,4164.615384,4498.974358,4169.743589,4646.666666,4013.333333,4023.589743
205,4384.615384,4535.384615,4303.589743,4279.487179,4495.897435,4180.000000,4443.076923,4209.743589,4158.461538,4501.025641,4178.461538,4645.128205,4007.692307,4022.564102
206,4387.692307,4535.384615,4304.615384,4281.025641,4495.897435,4183.076923,4445.128205,4210.256410,4163.076923,4501.025641,4192.307692,4649.743589,4004.102564,4026.153846
207,4386.153846,4532.820512,4306.666666,4271.282051,4491.794871,4181.025641,4441.025641,4214.871794,4165.641025,4499.487179,4194.871794,4649.230769,4011.282051,4027.179487
208,4384.615384,4532.820512,4306.153846,4268.205128,4488.717948,4178.974358,4442.051282,4214.358974,4166.153846,4503.076923,4192.307692,4646.153846,4015.897435,4021.025641
209,4384.102564,4533.333333,4307.692307,4274.358974,4489.230769,4177.948717,4445.128205,4213.846153,4170.256410,4505.641025,4191.794871,4648.205128,4012.307692,4018.974358
210,4377.948717,4528.717948,4308.205128,4271.282051,4483.076923,4172.307692,4438.974358,4212.307692,4166.666666,4500.512820,4185.128205,4646.153846,4003.076923,4019.487179
211,4373.846153,4524.615384,4308.205128,4263.076923,4481.025641,4170.769230,4435.384615,4210.769230,4157.948717,4493.333333,4180.000000,4642.564102,3998.974359,4015.384615
212,4382.051282,4529.230769,4318.974358,4267.179487,4489.230769,4176.410256,4442.564102,4214.358974,4162.051282,4495.897435,4189.743589,4650.256410,4008.205128,4018.461538
213,4385.128205,4532.307692,4329.230769,4273.846153,4492.307692,4182.051282,4446.153846,4218.461538,4168.717948,4500.512820,4192.820512,4654.358974,4012.820512,4026.153846
214,4375.384615,4527.692307,4325.641025,4269.230769,4491.794871,4182.051282,4442.051282,4215.384615,4166.153846,4493.846153,4174.358974,4645.641025,3996.410257,4018.974358
215,4371.794871,4525.641025,4323.076923,4265.128205,4492.307692,4178.974358,4441.538461,4206.666666,4157.435897,4484.615384,4163.076923,4638.461538,3982.564103,4006.666666
216,4371.282051,4527.692307,4327.179487,4265.128205,4489.743589,4178.461538,4442.564102,4200.000000,4148.717948,4481.538461,4173.846153,4637.435897,3984.615385,4003.589743
217,4372.820512,4530.256410,4331.794871,4266.153846,4489.743589,4180.000000,4442.051282,4204.102564,4153.333333,4487.692307,4186.666666,4641.025641,3992.820513,4009.230769
218,4383.076923,4534.358974,4337.948717,4266.153846,4492.820512,4182.564102,4446.153846,4213.846153,4167.692307,4499.487179,4191.794871,4649.230769,4003.589743,4021.538461
219,4387.179487,4533.333333,4342.051282,4267.179487,4493.846153,4182.564102,4449.230769,4218.974358,4175.384615,4504.102564,4193.846153,4649.743589,4006.153846,4025.641025
220,4379.487179,4529.743589,4337.435897,4266.153846,4492.307692,4180.000000,4446.153846,4217.948717,4175.897435,4502.051282,4194.358974,4644.615384,3999.487180,4017.948717
221,4377.435897,4529.230769,4336.410256,4262.051282,4488.717948,4176.410256,4444.102564,4216.923076,4169.743589,4500.000000,4196.923076,4646.153846,3994.358975,4013.846153
222,4378.461538,4527.179487,4342.564102,4261.025641,4487.179487,4174.871794,4446.666666,4214.358974,4163.076923,4493.333333,4196.410256,4648.717948,3994.871795,4016.923076
223,4373.846153,4524.615384,4345.128205,4264.615384,4487.179487,4175.897435,4445.128205,4210.769230,4165.128205,4488.717948,4191.282051,4645.641025,3997.435898,4015.897435
224,4374.871794,4530.256410,4346.666666,4273.333333,4488.205128,4178.461538,4444.615384,4214.358974,4173.333333,4498.461538,4191.282051,4646.666666,3999.487180,4015.384615
225,4378.974358,4532.820512,4350.256410,4280.512820,4491.282051,4180.000000,4445.641025,4218.461538,4173.846153,4505.128205,4193.846153,4647.692307,3995.897436,4017.948717
226,4376.410256,4529.230769,4349.230769,4276.923076,4492.307692,4178.974358,4442.564102,4215.384615,4171.282051,4500.000000,4192.307692,4645.128205,3995.384616,4015.897435
227,4376.923076,4534.871794,4351.282051,4270.256410,4491.794871,4184.102564,4441.538461,4215.897435,4174.358974,4506.153846,4197.435897,4648.205128,4006.666666,4013.846153
228,4384.615384,4537.948717,4360.512820,4274.358974,4491.794871,4187.692307,4449.230769,4221.538461,4174.358974,4512.307692,4200.000000,4651.794871,4008.717948,4018.974358
229,4386.666666,4532.820512,4365.128205,4278.974358,4492.820512,4183.589743,4455.384615,4218.974358,4167.179487,4503.076923,4200.000000,4652.820512,4000.000000,4026.666666
230,4382.564102,4528.717948,4362.051282,4274.871794,4492.820512,4181.025641,4451.794871,4213.846153,4163.076923,4495.897435,4205.128205,4654.871794,4001.025641,4028.205128
231,4378.461538,4525.128205,4357.435897,4271.794871,4490.256410,4180.512820,4443.589743,4214.358974,4163.076923,4497.948717,4201.538461,4650.256410,4006.666666,4021.025641
232,4380.000000,4528.205128,4363.589743,4277.948717,4488.205128,4179.487179,4441.025641,4216.410256,4169.230769,4504.102564,4198.974358,4648.717948,4007.179487,4021.538461
233,4388.717948,4537.948717,4376.923076,4284.615384,4490.769230,4181.025641,4448.205128,4221.538461,4176.410256,4511.282051,4211.794871,4657.435897,4011.282051,4029.743589
234,4393.333333,4536.410256,4382.564102,4278.974358,4493.333333,4182.564102,4456.410256,4230.256410,4182.564102,4514.871794,4214.871794,4664.615384,4015.384615,4033.846153
235,4391.282051,4529.230769,4382.564102,4272.307692,4491.794871,4183.076923,4458.461538,4236.923076,4190.256410,4515.897435,4209.230769,4663.076923,4012.307692,4033.846153
236,4385.128205,4526.153846,4381.538461,4272.820512,4490.769230,4181.538461,4457.435897,4234.358974,4187.692307,4514.358974,4210.256410,4657.948717,4009.230769,4030.769230
237,4380.000000,4525.641025,4375.897435,4273.333333,4488.205128,4176.923076,4456.410256,4225.128205,4167.692307,4503.076923,4196.923076,4649.743589,4005.128205,4021.538461
238,4375.897435,4523.076923,4370.769230,4271.794871,4485.641025,4175.384615,4458.461538,4217.948717,4158.461538,4493.333333,4183.589743,4644.615384,3995.384616,4013.333333
239,4375.897435,4521.538461,4372.820512,4270.256410,4488.205128,4177.948717,4458.461538,4214.871794,4162.564102,4493.333333,4193.333333,4643.589743,3990.769231,4013.846153
240,4381.025641,4523.076923,4374.871794,4269.743589,4492.820512,4180.000000,4456.410256,4213.846153,4158.974358,4495.897435,4193.846153,4646.666666,3996.410257,4020.512820
241,4382.564102,4525.128205,4375.897435,4273.846153,4492.307692,4180.512820,4457.435897,4214.358974,4158.461538,4494.871794,4185.128205,4650.256410,3999.487180,4025.128205
242,4379.487179,4527.179487,4378.461538,4274.871794,4487.692307,4179.487179,4458.974358,4214.871794,4165.128205,4493.333333,4192.820512,4651.282051,3996.410257,4024.102564
243,4373.846153,4525.128205,4378.974358,4269.743589,4488.205128,4176.923076,4451.282051,4208.717948,4162.564102,4496.923076,4200.000000,4646.666666,3989.743590,4018.974358
244,4371.794871,4521.025641,4374.871794,4267.179487,4487.692307,4174.358974,4443.076923,4201.025641,4161.025641,4498.974358,4192.307692,4641.025641,3983.589744,4015.384615
245,4372.820512,4520.000000,4371.282051,4270.769230,4483.076923,4174.358974,4445.128205,4201.025641,4164.102564,4494.871794,4186.666666,4638.461538,3986.666667,4018.974358
246,4375.897435,4526.153846,4373.846153,4267.692307,4484.615384,4174.871794,4451.282051,4206.153846,4163.076923,4493.846153,4189.230769,4635.897435,3998.461539,4023.076923
247,4379.487179,4533.333333,4378.974358,4264.102564,4492.307692,4178.461538,4456.410256,4212.307692,4162.051282,4501.025641,4196.410256,4637.435897,4005.128205,4024.102564
248,4380.000000,4529.743589,4378.974358,4267.179487,4492.820512,4182.051282,4458.974358,4215.384615,4167.179487,4508.717948,4206.153846,4645.128205,4004.615384,4024.615384
249,4380.512820,4525.128205,4376.923076,4273.333333,4489.230769,4180.512820,4460.512820,4216.923076,4172.307692,4509.230769,4210.256410,4650.256410,4004.615384,4028.205128
250,4383.076923,4527.692307,4376.923076,4281.538461,4487.179487,4175.384615,4455.384615,4215.384615,4171.794871,4505.641025,4208.205128,4648.205128,4008.717948,4029.743589
251,4382.051282,4529.743589,4374.358974,4281.538461,4485.128205,4174.358974,4444.615384,4207.692307,4166.666666,4502.051282,4206.153846,4647.179487,4007.692307,4025.641025
252,4377.948717,4527.179487,4372.820512,4278.461538,4487.179487,4178.974358,4447.179487,4198.974358,4163.589743,4502.051282,4204.102564,4650.769230,4000.512820,4022.051282
253,4376.923076,4525.641025,4372.307692,4283.589743,4492.820512,4179.487179,4455.897435,4200.000000,4162.564102,4496.410256,4198.974358,4648.205128,3993.333334,4021.538461
254,4371.794871,4519.487179,4363.589743,4278.461538,4489.230769,4174.358974,4450.256410,4201.538461,4152.820512,4485.128205,4182.051282,4637.948717,3987.179488,4012.820512
255,4361.025641,4507.179487,4353.846153,4265.128205,4480.512820,4171.794871,4438.974358,4196.923076,4149.743589,4485.641025,4167.692307,4628.717948,3982.564103,4001.538461
256,4363.589743,4510.256410,4360.000000,4270.769230,4482.564102,4174.358974,4442.564102,4200.000000,4167.692307,4495.897435,4173.846153,4635.384615,3991.282052,4009.230769
257,4377.948717,4530.256410,4372.820512,4290.256410,4489.230769,4180.512820,4452.820512,4211.794871,4178.974358,4502.051282,4189.230769,4650.769230,4013.333333,4028.717948
258,4389.230769,4542.051282,4382.564102,4297.435897,4493.333333,4186.666666,4459.487179,4220.000000,4180.512820,4509.743589,4194.871794,4660.512820,4026.666666,4041.025641
259,4392.307692,4539.487179,4393.333333,4298.461538,4496.923076,4186.666666,4462.051282,4226.666666,4191.282051,4518.461538,4188.717948,4667.692307,4028.205128,4044.615384
260,4390.769230,4536.410256,4398.461538,4300.512820,4496.410256,4182.051282,4460.512820,4233.333333,4197.435897,4516.410256,4180.000000,4673.333333,4028.205128,4043.589743
