,AF3,F7,F3,FC5,T7,P7,O1,O2,P8,T8,FC6,F4,F8,AF4
0,4396.410256,4555.897435,4526.153846,4286.153846,4479.487179,4140.512820,4429.230769,4221.538461,4220.000000,4560.000000,4208.717948,4652.820512,3991.282052,4062.051282
1,4395.384615,4548.205128,4533.333333,4286.666666,4474.358974,4136.410256,4427.692307,4216.923076,4220.512820,4556.923076,4211.794871,4651.794871,3992.820513,4065.641025
2,4394.871794,4547.692307,4530.256410,4290.256410,4471.794871,4128.205128,4424.615384,4215.897435,4220.000000,4553.333333,4211.794871,4652.307692,3998.461539,4068.717948
3,4395.384615,4550.256410,4528.205128,4295.897435,4473.333333,4127.179487,4424.615384,4220.000000,4217.435897,4552.820512,4211.794871,4655.897435,3999.487180,4070.769230
4,4391.282051,4547.692307,4529.230769,4288.205128,4470.256410,4128.205128,4428.205128,4215.384615,4212.820512,4549.743589,4208.205128,4653.846153,3990.769231,4065.641025
5,4382.564102,4540.512820,4520.000000,4274.358974,4462.564102,4125.641025,4425.128205,4208.717948,4205.128205,4542.051282,4197.948717,4642.051282,3978.461539,4052.820512
6,4375.897435,4533.846153,4506.666666,4273.333333,4458.461538,4125.128205,4422.564102,4206.666666,4201.025641,4538.974358,4189.743589,4634.358974,3972.820513,4047.179487
7,4375.897435,4530.256410,4507.692307,4275.384615,4462.051282,4128.205128,4427.179487,4205.641025,4203.589743,4542.051282,4193.846153,4637.435897,3976.923077,4052.820512
8,4377.435897,4530.769230,4511.794871,4268.205128,4468.205128,4129.230769,4426.666666,4209.743589,4206.666666,4540.000000,4200.512820,4641.538461,3982.564103,4055.384615
9,4376.923076,4534.358974,4509.230769,4266.666666,4466.666666,4125.641025,4422.051282,4212.820512,4206.666666,4535.384615,4202.564102,4642.564102,3976.923077,4053.333333
10,4376.923076,4534.358974,4509.230769,4274.871794,4463.076923,4125.128205,4423.589743,4211.794871,4204.102564,4535.897435,4203.589743,4641.538461,3967.692308,4053.846153
11,4375.897435,4535.897435,4508.717948,4277.435897,4465.641025,4127.692307,4424.102564,4210.256410,4202.564102,4535.897435,4201.538461,4637.435897,3975.384616,4051.282051
12,4373.846153,4541.538461,4505.641025,4273.333333,4468.205128,4125.641025,4420.512820,4207.179487,4203.076923,4533.333333,4200.000000,4634.871794,3988.205129,4047.692307
13,4373.846153,4539.487179,4509.743589,4274.358974,4468.717948,4124.615384,4422.051282,4205.128205,4203.076923,4532.307692,4197.435897,4640.000000,3984.102565,4052.820512
14,4378.461538,4534.358974,4515.897435,4281.025641,4468.205128,4129.743589,4428.717948,4205.128205,4202.564102,4536.923076,4197.435897,4643.076923,3975.384616,4061.538461
15,4384.102564,4537.435897,4513.846153,4282.564102,4464.615384,4128.717948,4425.641025,4206.666666,4203.076923,4539.487179,4200.512820,4642.051282,3977.435898,4059.487179
16,4388.205128,4546.153846,4514.871794,4282.051282,4466.153846,4126.153846,4419.487179,4210.256410,4206.153846,4536.923076,4206.153846,4645.641025,3979.487180,4061.538461
17,4393.333333,4551.794871,4525.641025,4287.179487,4473.333333,4133.333333,4424.615384,4215.384615,4210.256410,4537.435897,4209.230769,4654.358974,3981.538462,4075.384615
18,4394.358974,4546.153846,4527.692307,4288.205128,4472.307692,4132.307692,4425.641025,4211.282051,4206.153846,4537.435897,4205.641025,4655.897435,3982.051283,4075.897435
19,4391.794871,4536.923076,4521.538461,4280.512820,4462.564102,4120.512820,4417.435897,4206.153846,4197.948717,4534.871794,4205.128205,4650.256410,3978.461539,4065.641025
20,4393.333333,4538.461538,4524.102564,4275.897435,4465.128205,4121.538461,4421.025641,4213.333333,4205.641025,4540.512820,4210.769230,4652.820512,3980.000000,4065.128205
21,4390.769230,4542.564102,4523.589743,4274.871794,4470.256410,4127.179487,4426.666666,4214.871794,4216.410256,4543.589743,4207.692307,4649.230769,3979.487180,4066.153846
22,4376.923076,4532.307692,4508.205128,4269.230769,4463.076923,4121.025641,4416.923076,4206.153846,4205.641025,4530.256410,4192.820512,4634.358974,3968.717949,4054.358974
23,4371.282051,4524.102564,4500.512820,4264.102564,4453.333333,4115.897435,4409.230769,4199.487179,4194.871794,4522.564102,4190.256410,4627.179487,3961.025642,4045.641025
24,4373.846153,4526.666666,4503.589743,4267.179487,4454.358974,4118.974358,4413.333333,4200.512820,4197.948717,4528.205128,4196.410256,4628.717948,3965.641026,4046.666666
25,4368.205128,4527.179487,4500.000000,4269.230769,4462.051282,4118.461538,4412.307692,4201.025641,4197.948717,4528.205128,4191.794871,4625.641025,3968.205129,4046.666666
26,4365.128205,4526.666666,4492.820512,4265.128205,4464.615384,4116.923076,4410.769230,4202.051282,4196.410256,4526.666666,4190.256410,4626.153846,3964.615385,4048.205128
27,4367.692307,4526.153846,4492.307692,4264.615384,4462.564102,4121.538461,4416.410256,4208.205128,4203.076923,4531.282051,4200.000000,4634.358974,3967.692308,4053.333333
28,4368.717948,4526.153846,4494.871794,4268.205128,4461.538461,4120.512820,4414.358974,4206.666666,4205.128205,4529.743589,4201.538461,4633.846153,3972.307693,4053.333333
29,4372.307692,4528.717948,4501.025641,4267.692307,4458.461538,4114.871794,4412.307692,4198.461538,4198.974358,4517.435897,4196.410256,4632.307692,3973.846154,4054.358974
30,4378.974358,4530.769230,4507.179487,4266.153846,4456.410256,4116.923076,4417.948717,4198.974358,4200.000000,4512.820512,4200.512820,4641.025641,3975.384616,4061.538461
31,4381.538461,4531.282051,4509.230769,4269.230769,4461.025641,4121.538461,4417.948717,4206.153846,4207.179487,4524.102564,4210.256410,4648.717948,3975.897436,4068.205128
32,4383.589743,4537.435897,4508.205128,4272.820512,4467.692307,4122.051282,4414.358974,4207.179487,4205.641025,4526.666666,4213.846153,4647.692307,3975.384616,4069.230769
33,4386.153846,4543.589743,4509.743589,4277.435897,4470.256410,4124.615384,4419.487179,4201.025641,4196.923076,4515.897435,4207.179487,4647.179487,3976.923077,4067.692307
34,4383.076923,4539.487179,4512.307692,4282.051282,4469.743589,4123.589743,4421.025641,4198.461538,4195.897435,4512.820512,4203.076923,4645.641025,3975.384616,4066.153846
35,4383.076923,4538.974358,4511.282051,4282.051282,4467.179487,4119.487179,4413.846153,4201.538461,4198.974358,4518.461538,4206.666666,4641.025641,3971.794872,4066.153846
36,4389.230769,4542.564102,4512.820512,4278.974358,4465.641025,4120.000000,4412.820512,4201.538461,4196.923076,4520.512820,4202.051282,4642.051282,3971.282052,4065.641025
37,4388.717948,4538.461538,4515.897435,4278.461538,4462.051282,4115.897435,4414.358974,4199.487179,4194.871794,4516.923076,4197.435897,4643.076923,3969.230770,4064.102564
38,4384.102564,4533.846153,4513.846153,4281.025641,4460.000000,4112.820512,4414.871794,4200.000000,4198.461538,4516.410256,4203.589743,4640.000000,3970.769231,4065.641025
39,4382.051282,4533.333333,4508.205128,4276.410256,4463.076923,4116.923076,4415.384615,4200.512820,4199.487179,4518.461538,4201.538461,4637.948717,3974.358975,4064.615384
40,4376.410256,4525.641025,4506.666666,4270.256410,4461.538461,4116.410256,4413.333333,4200.512820,4190.769230,4508.717948,4189.230769,4635.897435,3962.564103,4057.435897
41,4371.794871,4520.512820,4507.692307,4267.179487,4454.358974,4113.846153,4415.384615,4201.538461,4189.230769,4499.487179,4188.717948,4632.820512,3950.769231,4052.820512
42,4375.897435,4528.205128,4508.205128,4264.102564,4456.923076,4117.948717,4418.974358,4202.051282,4196.410256,4510.769230,4191.794871,4634.871794,3958.461539,4057.435897
43,4379.487179,4529.743589,4508.205128,4264.102564,4465.128205,4119.487179,4415.384615,4201.538461,4197.435897,4516.923076,4192.307692,4638.461538,3965.128206,4059.487179
44,4373.333333,4523.076923,4505.128205,4268.205128,4463.589743,4115.897435,4411.282051,4200.000000,4191.282051,4506.153846,4194.871794,4632.307692,3954.871795,4052.820512
45,4369.230769,4525.128205,4506.153846,4270.256410,4461.025641,4113.846153,4412.820512,4191.282051,4188.205128,4505.641025,4190.256410,4627.179487,3945.128206,4049.743589
46,4371.794871,4525.641025,4508.205128,4271.282051,4462.051282,4115.384615,4413.846153,4188.205128,4190.769230,4513.333333,4181.025641,4629.743589,3947.179488,4054.358974
47,4372.820512,4520.000000,4506.153846,4272.820512,4460.512820,4115.384615,4414.358974,4195.384615,4191.794871,4505.128205,4182.051282,4629.230769,3949.230770,4052.820512
48,4370.769230,4522.564102,4507.179487,4269.230769,4457.435897,4115.384615,4415.384615,4193.846153,4189.230769,4496.923076,4185.641025,4626.153846,3947.179488,4046.666666
49,4371.282051,4530.769230,4509.230769,4269.743589,4457.948717,4117.948717,4415.897435,4191.794871,4190.256410,4503.589743,4189.743589,4631.282051,3949.230770,4049.230769
50,4372.820512,4527.692307,4508.205128,4275.897435,4460.000000,4122.564102,4420.512820,4198.461538,4195.897435,4511.282051,4197.435897,4635.384615,3954.358975,4055.897435
51,4367.692307,4519.487179,4506.153846,4270.769230,4457.948717,4120.512820,4424.102564,4201.025641,4194.871794,4509.743589,4192.820512,4629.230769,3952.307693,4056.410256
52,4361.025641,4515.897435,4502.051282,4258.461538,4454.871794,4118.974358,4422.051282,4198.974358,4192.307692,4508.205128,4181.025641,4622.564102,3949.230770,4051.794871
53,4360.512820,4513.333333,4495.897435,4256.923076,4454.871794,4124.102564,4422.051282,4204.615384,4201.025641,4513.333333,4182.564102,4622.051282,3952.820513,4047.179487
54,4359.487179,4512.307692,4491.282051,4257.948717,4456.410256,4124.102564,4423.076923,4209.230769,4205.641025,4512.820512,4186.153846,4623.076923,3953.846154,4045.641025
55,4353.846153,4511.794871,4489.230769,4251.282051,4457.435897,4120.512820,4423.076923,4206.153846,4195.897435,4501.538461,4177.435897,4618.974358,3945.641026,4042.564102
56,4354.871794,4513.333333,4489.230769,4252.307692,4457.435897,4121.025641,4423.076923,4201.025641,4187.692307,4500.512820,4173.846153,4619.487179,3949.743590,4042.051282
57,4359.487179,4515.897435,4491.794871,4261.025641,4458.461538,4123.076923,4424.102564,4199.487179,4189.230769,4512.307692,4177.435897,4627.179487,3966.666667,4045.128205
58,4359.487179,4516.923076,4491.794871,4258.461538,4460.000000,4123.076923,4424.102564,4203.076923,4191.282051,4517.435897,4172.307692,4627.692307,3972.307693,4044.102564
59,4360.512820,4518.461538,4493.333333,4253.846153,4464.102564,4125.641025,4425.128205,4203.076923,4193.333333,4521.538461,4171.794871,4625.128205,3972.307693,4046.153846
60,4365.641025,4522.051282,4498.461538,4260.000000,4467.179487,4129.230769,4424.615384,4200.512820,4196.410256,4529.230769,4177.435897,4631.282051,3978.461539,4056.923076
61,4367.692307,4526.153846,4495.897435,4262.564102,4466.153846,4126.666666,4421.538461,4201.538461,4193.846153,4526.153846,4175.384615,4635.897435,3985.128206,4057.948717
62,4366.666666,4527.179487,4495.384615,4260.000000,4464.615384,4123.076923,4417.948717,4200.512820,4191.794871,4521.538461,4173.333333,4633.333333,3989.230770,4050.769230
63,4366.153846,4523.589743,4500.000000,4262.051282,4460.512820,4123.589743,4415.897435,4198.974358,4193.846153,4524.102564,4174.871794,4634.871794,3989.230770,4052.307692
64,4371.282051,4524.102564,4502.564102,4265.128205,4458.974358,4123.076923,4421.025641,4203.076923,4193.333333,4521.025641,4174.358974,4638.974358,3983.076924,4057.948717
65,4376.923076,4531.794871,4505.641025,4265.128205,4464.102564,4124.102564,4428.717948,4208.205128,4195.897435,4520.512820,4175.897435,4643.076923,3982.564103,4059.487179
66,4373.333333,4529.743589,4505.641025,4261.538461,4467.179487,4125.641025,4429.230769,4209.230769,4204.615384,4530.256410,4178.461538,4644.102564,3984.102565,4056.410256
67,4366.153846,4518.461538,4501.538461,4257.948717,4463.589743,4123.589743,4423.076923,4204.615384,4205.128205,4526.153846,4169.743589,4636.923076,3972.307693,4050.769230
68,4369.743589,4520.000000,4495.897435,4260.000000,4461.538461,4120.512820,4415.384615,4200.512820,4200.000000,4513.333333,4165.641025,4632.307692,3969.230770,4052.307692
69,4375.897435,4530.769230,4500.000000,4262.051282,4465.128205,4120.000000,4413.333333,4201.025641,4204.615384,4517.948717,4174.871794,4638.974358,3988.205129,4059.487179
70,4375.897435,4532.307692,4503.589743,4261.025641,4464.102564,4121.025641,4415.897435,4201.538461,4210.256410,4524.102564,4177.948717,4644.615384,3994.358975,4058.461538
71,4373.846153,4528.717948,4498.461538,4264.615384,4461.538461,4122.051282,4414.871794,4201.538461,4207.179487,4517.948717,4173.846153,4642.564102,3980.512821,4055.384615
72,4373.846153,4531.282051,4496.923076,4268.205128,4465.128205,4121.025641,4413.333333,4203.589743,4204.102564,4517.948717,4174.358974,4643.589743,3978.974359,4061.538461
73,4378.461538,4533.333333,4505.641025,4268.717948,4468.717948,4122.051282,4422.051282,4203.589743,4207.179487,4526.666666,4176.410256,4652.307692,3992.820513,4068.717948
74,4379.487179,4531.282051,4509.743589,4267.179487,4466.666666,4124.615384,4423.589743,4202.051282,4209.230769,4526.153846,4176.410256,4653.333333,3997.435898,4069.230769
75,4377.948717,4529.743589,4506.666666,4266.153846,4465.128205,4123.076923,4415.897435,4203.589743,4209.743589,4523.076923,4178.974358,4648.205128,3992.820513,4067.179487
76,4384.615384,4533.846153,4509.743589,4270.256410,4466.153846,4122.564102,4417.435897,4206.153846,4212.307692,4528.717948,4186.666666,4654.871794,3990.769231,4067.692307
77,4385.128205,4535.897435,4511.282051,4267.692307,4467.692307,4125.128205,4421.538461,4205.128205,4215.897435,4531.794871,4190.256410,4664.615384,3993.846154,4069.743589
78,4377.948717,4532.307692,4506.666666,4259.487179,4466.153846,4122.564102,4414.358974,4203.076923,4211.794871,4522.051282,4181.025641,4661.538461,3996.410257,4068.717948
79,4377.948717,4530.769230,4507.179487,4261.538461,4463.589743,4120.000000,4408.717948,4200.000000,4205.128205,4517.435897,4175.384615,4655.384615,3994.358975,4066.153846
80,4380.512820,4534.358974,4508.205128,4271.794871,4465.641025,4124.615384,4412.820512,4197.948717,4208.717948,4527.179487,4185.641025,4657.435897,3992.307693,4068.717948
81,4376.923076,4538.461538,4506.153846,4273.333333,4468.205128,4125.641025,4414.871794,4201.025641,4220.000000,4533.333333,4190.769230,4657.948717,3995.384616,4073.333333
82,4372.820512,4534.871794,4501.025641,4269.230769,4466.153846,4126.153846,4412.820512,4207.179487,4220.000000,4528.205128,4180.512820,4652.307692,3993.333334,4068.205128
83,4375.384615,4534.358974,4499.487179,4270.769230,4470.769230,4128.205128,4414.871794,4207.692307,4212.820512,4526.666666,4177.948717,4650.769230,3987.692308,4062.051282
84,4382.564102,4543.076923,4505.128205,4278.974358,4481.025641,4132.307692,4422.564102,4210.256410,4217.948717,4533.846153,4189.230769,4656.923076,3991.794872,4067.692307
85,4387.692307,4546.153846,4510.769230,4282.051282,4478.461538,4134.358974,4423.589743,4213.846153,4224.615384,4534.358974,4195.897435,4660.000000,3997.948718,4071.794871
86,4383.076923,4539.487179,4504.615384,4271.794871,4465.641025,4125.128205,4412.820512,4206.666666,4217.948717,4526.666666,4186.666666,4654.358974,3991.794872,4066.153846
87,4377.948717,4533.846153,4495.897435,4267.692307,4463.589743,4119.487179,4408.717948,4201.538461,4212.820512,4521.538461,4174.871794,4649.230769,3983.589744,4060.512820
88,4377.948717,4535.897435,4499.487179,4273.846153,4469.230769,4127.179487,4414.871794,4207.179487,4216.410256,4520.512820,4174.871794,4648.717948,3985.128206,4063.589743
89,4378.461538,4537.948717,4506.153846,4273.846153,4466.666666,4129.743589,4415.384615,4207.692307,4216.923076,4521.025641,4184.615384,4650.256410,3987.692308,4069.230769
90,4377.435897,4537.435897,4505.641025,4271.282051,4463.589743,4122.564102,4412.307692,4201.025641,4213.333333,4517.948717,4187.179487,4650.769230,3985.641026,4070.256410
91,4377.948717,4535.897435,4505.641025,4275.384615,4470.256410,4123.589743,4417.435897,4200.000000,4210.256410,4518.461538,4182.564102,4650.769230,3982.051283,4066.153846
92,4378.974358,4535.897435,4507.179487,4274.358974,4467.179487,4127.179487,4420.512820,4203.589743,4209.743589,4520.000000,4182.051282,4649.230769,3980.512821,4065.128205
93,4376.923076,4535.897435,4506.153846,4269.230769,4458.461538,4124.615384,4418.461538,4205.641025,4212.307692,4520.000000,4186.153846,4649.743589,3981.025642,4065.641025
94,4372.307692,4532.307692,4502.564102,4269.230769,4459.487179,4122.564102,4417.948717,4207.179487,4211.282051,4521.025641,4183.076923,4652.820512,3977.948718,4061.538461
95,4367.179487,4526.666666,4499.487179,4263.076923,4458.974358,4118.461538,4414.871794,4205.128205,4207.179487,4520.000000,4173.846153,4651.282051,3971.282052,4055.897435
96,4365.641025,4523.076923,4503.589743,4258.974358,4455.897435,4118.974358,4411.794871,4202.564102,4211.282051,4517.435897,4176.410256,4648.717948,3973.846154,4056.410256
97,4370.769230,4525.641025,4509.743589,4265.128205,4463.076923,4125.128205,4418.461538,4208.205128,4216.923076,4521.025641,4190.256410,4653.333333,3981.025642,4062.051282
98,4374.358974,4530.256410,4507.692307,4265.641025,4466.666666,4124.615384,4424.102564,4212.307692,4214.358974,4526.153846,4190.769230,4655.897435,3977.948718,4063.589743
99,4370.769230,4530.256410,4505.641025,4263.589743,4463.076923,4122.564102,4420.000000,4209.743589,4212.307692,4525.641025,4180.512820,4651.282051,3973.846154,4063.589743
100,4370.256410,4531.282051,4508.717948,4264.615384,4467.692307,4129.230769,4424.615384,4213.333333,4214.871794,4527.692307,4180.512820,4649.743589,3979.487180,4067.179487
101,4374.871794,4532.820512,4508.205128,4260.512820,4471.794871,4132.307692,4432.820512,4215.897435,4214.871794,4526.666666,4184.102564,4652.820512,3982.564103,4067.179487
102,4375.897435,4527.179487,4506.666666,4257.948717,4463.589743,4124.102564,4424.615384,4212.307692,4212.820512,4516.923076,4181.025641,4653.846153,3978.974359,4062.564102
103,4370.256410,4519.487179,4507.692307,4260.000000,4456.410256,4118.974358,4412.307692,4209.743589,4210.256410,4514.871794,4180.000000,4649.743589,3976.410257,4058.974358
104,4363.589743,4520.512820,4501.538461,4249.743589,4454.871794,4120.512820,4414.871794,4208.717948,4206.153846,4518.461538,4181.025641,4640.512820,3973.333334,4057.435897
105,4362.051282,4521.025641,4494.871794,4240.512820,4455.384615,4124.102564,4426.153846,4208.205128,4206.666666,4516.410256,4181.538461,4638.974358,3970.769231,4056.410256
106,4365.641025,4519.487179,4500.512820,4246.666666,4458.461538,4127.179487,4429.230769,4212.307692,4210.769230,4515.384615,4180.512820,4645.128205,3973.846154,4055.897435
107,4368.205128,4523.589743,4508.205128,4251.794871,4464.102564,4126.666666,4426.153846,4215.384615,4211.282051,4516.410256,4182.051282,4647.692307,3976.410257,4058.461538
108,4373.333333,4529.230769,4508.717948,4253.333333,4468.205128,4124.102564,4426.666666,4212.820512,4210.769230,4515.384615,4187.692307,4649.230769,3974.358975,4064.102564
109,4376.923076,4532.307692,4508.717948,4258.974358,4468.205128,4125.641025,4428.717948,4217.435897,4212.820512,4517.948717,4189.743589,4654.358974,3974.871795,4067.179487
110,4368.717948,4525.128205,4509.230769,4253.846153,4463.076923,4126.153846,4427.692307,4218.974358,4213.846153,4521.538461,4182.051282,4651.282051,3976.410257,4061.025641
111,4358.974358,4518.461538,4501.538461,4244.615384,4458.974358,4123.589743,4423.076923,4213.846153,4211.282051,4521.025641,4177.435897,4643.076923,3971.282052,4053.846153
112,4362.564102,4523.589743,4493.333333,4248.717948,4462.051282,4124.102564,4423.076923,4216.410256,4209.230769,4518.461538,4182.564102,4640.512820,3969.743590,4056.410256
113,4364.102564,4525.128205,4491.794871,4251.794871,4461.538461,4124.102564,4423.589743,4216.410256,4206.153846,4510.256410,4184.102564,4640.512820,3967.179488,4055.897435
114,4358.974358,4517.948717,4489.743589,4247.692307,4455.897435,4120.512820,4422.564102,4207.179487,4202.051282,4504.102564,4180.512820,4641.538461,3959.487180,4052.307692
115,4364.615384,4524.102564,4492.820512,4252.820512,4458.974358,4125.128205,4424.102564,4205.641025,4203.076923,4509.230769,4183.589743,4646.666666,3963.076924,4059.487179
116,4372.820512,4532.820512,4499.487179,4258.974358,4463.589743,4128.717948,4426.153846,4213.846153,4208.205128,4517.435897,4187.692307,4649.743589,3973.846154,4067.179487
117,4370.769230,4527.692307,4496.923076,4255.897435,4463.076923,4124.615384,4426.153846,4217.948717,4209.743589,4524.102564,4191.794871,4651.282051,3978.461539,4066.666666
118,4372.820512,4528.717948,4496.410256,4257.435897,4467.692307,4129.230769,4427.179487,4218.461538,4211.282051,4526.153846,4198.461538,4656.923076,3981.538462,4069.743589
119,4377.948717,4536.410256,4502.564102,4262.564102,4470.256410,4133.846153,4429.230769,4219.487179,4213.333333,4518.974358,4197.948717,4659.487179,3982.051283,4071.794871
120,4371.282051,4530.769230,4497.948717,4260.000000,4465.641025,4127.692307,4425.128205,4217.435897,4211.794871,4513.846153,4192.307692,4654.871794,3976.923077,4063.589743
121,4364.615384,4523.589743,4488.205128,4257.435897,4465.641025,4123.589743,4423.076923,4213.846153,4210.256410,4518.974358,4193.333333,4654.871794,3977.948718,4061.025641
122,4368.205128,4525.641025,4491.282051,4258.461538,4465.128205,4125.128205,4420.512820,4209.230769,4209.743589,4519.487179,4195.384615,4658.461538,3983.076924,4068.205128
123,4366.666666,4524.102564,4495.384615,4254.358974,4458.974358,4121.538461,4411.282051,4206.153846,4202.051282,4513.333333,4190.769230,4651.794871,3977.435898,4066.666666
124,4358.974358,4518.461538,4490.256410,4247.179487,4454.358974,4117.435897,4411.794871,4202.564102,4193.333333,4511.794871,4187.692307,4644.102564,3966.666667,4058.461538
125,4360.000000,4522.051282,4492.307692,4248.717948,4455.384615,4123.589743,4425.128205,4206.153846,4194.871794,4513.333333,4191.282051,4649.230769,3964.102565,4058.974358
126,4365.128205,4530.256410,4502.564102,4260.512820,4462.564102,4130.256410,4430.769230,4214.358974,4201.025641,4511.794871,4197.948717,4655.897435,3974.358975,4066.666666
127,4366.666666,4531.282051,4507.179487,4264.102564,4472.307692,4133.333333,4427.179487,4211.282051,4204.615384,4513.333333,4199.487179,4653.846153,3984.615385,4070.256410
128,4365.641025,4526.666666,4502.564102,4257.948717,4475.384615,4129.230769,4426.153846,4207.179487,4207.692307,4519.487179,4196.410256,4651.282051,3982.051283,4067.179487
129,4365.641025,4522.051282,4500.512820,4256.923076,4469.230769,4123.076923,4423.589743,4211.282051,4208.205128,4521.538461,4193.333333,4649.743589,3973.333334,4065.641025
130,4364.615384,4517.948717,4498.974358,4258.461538,4464.102564,4123.589743,4417.948717,4208.717948,4202.564102,4516.923076,4190.769230,4645.641025,3968.717949,4062.564102
131,4360.512820,4515.384615,4492.307692,4252.820512,4463.589743,4123.076923,4417.948717,4201.538461,4195.384615,4508.205128,4187.692307,4640.000000,3963.589744,4050.769230
132,4355.384615,4518.974358,4490.256410,4252.307692,4465.128205,4121.025641,4423.076923,4204.102564,4196.923076,4502.564102,4187.179487,4637.435897,3961.025642,4047.179487
133,4359.487179,4525.128205,4495.897435,4258.974358,4466.153846,4124.615384,4426.666666,4209.230769,4205.128205,4512.820512,4191.282051,4642.564102,3969.743590,4057.948717
134,4368.717948,4530.769230,4504.102564,4263.076923,4466.666666,4128.717948,4428.205128,4214.358974,4209.230769,4527.692307,4199.487179,4652.307692,3981.538462,4063.076923
135,4369.230769,4529.743589,4507.692307,4266.666666,4465.641025,4124.102564,4425.641025,4212.820512,4207.179487,4524.102564,4206.153846,4653.846153,3982.564103,4057.435897
136,4361.025641,4522.564102,4504.615384,4266.153846,4460.000000,4118.461538,4415.897435,4201.025641,4201.025641,4513.333333,4201.538461,4647.692307,3972.820513,4052.307692
137,4358.974358,4517.435897,4502.051282,4256.410256,4458.974358,4118.461538,4411.794871,4198.974358,4195.897435,4515.897435,4192.307692,4647.179487,3967.179488,4051.794871
138,4362.564102,4521.025641,4505.641025,4252.820512,4465.641025,4118.974358,4418.974358,4203.589743,4194.871794,4518.974358,4189.743589,4649.743589,3970.769231,4057.435897
139,4364.615384,4526.666666,4508.205128,4258.974358,4468.205128,4120.000000,4419.487179,4197.948717,4193.846153,4512.820512,4194.358974,4650.256410,3966.666667,4063.589743
140,4367.179487,4526.666666,4507.692307,4267.179487,4467.179487,4121.538461,4415.897435,4194.871794,4191.282051,4509.743589,4194.871794,4652.820512,3961.538462,4063.076923
141,4372.307692,4525.128205,4512.307692,4269.230769,4470.769230,4127.179487,4424.102564,4203.589743,4192.307692,4515.384615,4191.794871,4655.897435,3969.230770,4062.564102
142,4376.923076,4530.769230,4517.948717,4268.205128,4475.384615,4132.307692,4431.794871,4210.256410,4200.000000,4518.974358,4196.410256,4657.435897,3977.435898,4067.692307
143,4375.384615,4530.256410,4514.358974,4267.179487,4472.820512,4131.282051,4431.282051,4212.307692,4202.051282,4514.871794,4199.487179,4655.384615,3973.333334,4070.769230
144,4367.692307,4520.512820,4511.794871,4267.179487,4470.256410,4130.769230,4430.769230,4213.846153,4200.000000,4510.256410,4191.282051,4650.769230,3964.615385,4065.128205
145,4366.153846,4521.538461,4513.333333,4266.153846,4470.769230,4132.820512,4430.769230,4210.769230,4200.512820,4512.307692,4188.717948,4649.230769,3960.512821,4060.000000
146,4369.230769,4524.615384,4513.333333,4260.512820,4463.076923,4126.666666,4426.153846,4205.128205,4198.974358,4507.692307,4193.846153,4648.717948,3961.538462,4060.512820
147,4367.692307,4520.512820,4513.846153,4260.000000,4455.384615,4121.025641,4422.564102,4201.025641,4193.333333,4501.025641,4190.256410,4644.102564,3965.128206,4060.512820
148,4364.615384,4520.512820,4514.871794,4266.153846,4462.564102,4123.589743,4421.025641,4203.076923,4193.846153,4508.717948,4185.128205,4644.615384,3964.615385,4064.615384
149,4366.153846,4522.051282,4511.794871,4264.615384,4470.256410,4122.051282,4417.948717,4208.205128,4196.923076,4514.358974,4187.692307,4646.666666,3958.461539,4068.205128
150,4368.717948,4521.538461,4509.743589,4258.974358,4464.615384,4119.487179,4418.461538,4210.769230,4199.487179,4510.256410,4190.256410,4642.051282,3958.461539,4063.589743
151,4369.743589,4524.615384,4510.769230,4261.025641,4465.128205,4124.615384,4423.076923,4214.871794,4208.205128,4516.410256,4191.282051,4642.051282,3968.717949,4062.051282
152,4365.641025,4520.512820,4508.205128,4260.000000,4467.692307,4121.538461,4420.512820,4213.333333,4211.282051,4521.538461,4189.743589,4647.692307,3969.743590,4067.179487
153,4359.487179,4510.256410,4505.641025,4251.794871,4452.820512,4110.256410,4411.794871,4201.538461,4199.487179,4508.205128,4185.641025,4642.051282,3954.358975,4061.538461
154,4358.461538,4511.794871,4504.615384,4252.307692,4446.666666,4111.794871,4409.743589,4191.282051,4187.692307,4499.487179,4185.641025,4633.846153,3945.641026,4051.282051
155,4360.512820,4512.820512,4506.153846,4254.871794,4457.948717,4118.974358,4415.384615,4189.230769,4186.153846,4501.538461,4184.615384,4635.384615,3948.717949,4051.794871
156,4360.000000,4510.256410,4508.205128,4252.820512,4458.974358,4116.923076,4416.410256,4190.769230,4190.769230,4496.410256,4180.000000,4636.923076,3950.769231,4055.897435
157,4358.974358,4512.820512,4507.179487,4251.282051,4450.769230,4112.820512,4414.358974,4195.384615,4193.846153,4495.384615,4184.102564,4634.871794,3954.358975,4057.435897
158,4362.564102,4515.384615,4507.179487,4254.871794,4454.358974,4113.846153,4412.307692,4200.000000,4193.846153,4510.769230,4191.282051,4637.435897,3960.512821,4061.025641
159,4368.205128,4514.871794,4510.769230,4261.538461,4457.948717,4115.897435,4410.769230,4203.589743,4200.000000,4521.025641,4191.282051,4641.025641,3962.051283,4064.615384
160,4373.846153,4520.000000,4517.948717,4268.717948,4457.948717,4118.974358,4413.333333,4212.820512,4212.307692,4522.051282,4196.410256,4646.666666,3966.153847,4067.179487
161,4378.461538,4529.230769,4523.589743,4270.769230,4464.615384,4123.076923,4417.948717,4213.333333,4214.871794,4524.615384,4205.641025,4654.358974,3972.307693,4068.205128
162,4374.358974,4525.128205,4520.000000,4262.564102,4465.128205,4117.948717,4416.923076,4200.000000,4199.487179,4515.897435,4198.974358,4647.692307,3967.179488,4063.076923
163,4364.102564,4511.794871,4511.282051,4255.384615,4457.948717,4111.794871,4412.820512,4193.846153,4187.179487,4506.153846,4185.128205,4638.974358,3961.025642,4057.948717
164,4366.666666,4510.256410,4514.358974,4256.410256,4454.358974,4115.897435,4417.948717,4203.589743,4195.897435,4517.948717,4186.153846,4651.794871,3967.179488,4065.128205
165,4378.974358,4522.564102,4526.153846,4261.538461,4458.974358,4123.076923,4426.153846,4211.794871,4208.205128,4532.307692,4196.410256,4665.641025,3978.461539,4076.410256
166,4381.025641,4523.589743,4524.102564,4260.000000,4463.076923,4121.538461,4421.025641,4207.179487,4205.641025,4526.666666,4194.871794,4657.435897,3982.564103,4074.358974
167,4368.717948,4516.923076,4510.256410,4257.435897,4460.512820,4116.410256,4411.282051,4206.153846,4201.025641,4523.589743,4180.512820,4643.589743,3984.615385,4066.153846
168,4364.615384,4521.538461,4505.641025,4261.538461,4460.512820,4120.512820,4411.282051,4215.897435,4207.179487,4538.974358,4172.820512,4646.153846,3991.794872,4069.743589
169,4374.358974,4526.666666,4515.384615,4265.641025,4466.153846,4124.615384,4414.871794,4222.051282,4214.358974,4545.641025,4176.923076,4656.410256,3998.974359,4077.948717
170,4376.410256,4520.512820,4518.974358,4262.051282,4468.717948,4120.000000,4413.846153,4216.923076,4213.333333,4535.897435,4176.410256,4654.358974,4000.512820,4074.871794
171,4366.666666,4513.333333,4509.230769,4253.846153,4463.589743,4113.333333,4409.743589,4207.692307,4203.589743,4527.179487,4162.051282,4643.076923,3997.435898,4062.564102
172,4363.076923,4516.410256,4503.589743,4253.333333,4458.461538,4114.358974,4410.769230,4205.128205,4195.384615,4524.102564,4150.769230,4640.000000,3991.794872,4055.897435
173,4363.589743,4518.974358,4505.128205,4254.358974,4459.487179,4122.051282,4417.948717,4205.128205,4197.948717,4524.102564,4152.307692,4644.615384,3988.205129,4057.435897
174,4364.102564,4516.410256,4509.230769,4252.820512,4464.102564,4124.102564,4422.051282,4206.153846,4205.128205,4527.692307,4156.923076,4646.666666,3990.256411,4061.538461
175,4370.769230,4518.974358,4514.358974,4251.794871,4465.641025,4122.564102,4420.512820,4209.743589,4207.692307,4533.333333,4158.974358,4649.230769,3995.897436,4061.025641
176,4375.384615,4521.538461,4514.871794,4251.794871,4462.564102,4123.589743,4418.461538,4213.333333,4209.743589,4533.333333,4165.128205,4653.333333,4001.025641,4063.589743
177,4373.846153,4521.025641,4513.846153,4252.820512,4465.128205,4123.076923,4418.461538,4215.384615,4214.358974,4534.358974,4169.230769,4655.897435,4002.564102,4070.769230
178,4372.307692,4518.974358,4514.358974,4253.846153,4469.230769,4122.564102,4416.923076,4218.461538,4215.897435,4537.435897,4163.589743,4654.871794,3994.871795,4070.256410
179,4367.692307,4517.435897,4510.256410,4252.307692,4464.615384,4123.589743,4413.846153,4216.410256,4209.230769,4531.794871,4154.358974,4648.205128,3986.666667,4061.025641
180,4360.512820,4511.794871,4503.076923,4245.641025,4457.948717,4118.974358,4411.794871,4204.102564,4196.410256,4515.384615,4146.666666,4641.025641,3982.051283,4052.307692
181,4358.974358,4507.692307,4504.615384,4243.589743,4455.897435,4111.794871,4410.256410,4198.461538,4190.769230,4506.666666,4140.000000,4640.000000,3977.435898,4048.717948
182,4363.589743,4514.358974,4513.846153,4251.282051,4458.461538,4115.897435,4412.820512,4201.538461,4195.897435,4512.820512,4141.538461,4646.666666,3978.974359,4054.358974
183,4368.717948,4519.487179,4520.512820,4257.435897,4456.410256,4120.000000,4414.358974,4202.051282,4201.025641,4519.487179,4149.743589,4651.282051,3983.076924,4063.589743
184,4369.230769,4517.435897,4522.051282,4255.384615,4453.846153,4114.871794,4410.256410,4203.076923,4204.615384,4524.102564,4154.358974,4651.282051,3984.102565,4065.128205
185,4373.846153,4522.051282,4525.641025,4257.435897,4461.538461,4116.410256,4410.769230,4212.307692,4212.820512,4534.358974,4163.589743,4655.897435,3996.410257,4068.717948
186,4383.589743,4530.769230,4533.333333,4263.076923,4470.256410,4125.641025,4421.538461,4216.923076,4222.564102,4541.538461,4177.435897,4661.025641,4011.282051,4079.487179
187,4377.435897,4524.615384,4526.153846,4252.820512,4468.205128,4126.153846,4427.179487,4210.769230,4218.461538,4530.769230,4172.820512,4654.358974,4000.000000,4073.846153
188,4363.589743,4511.794871,4515.897435,4241.538461,4463.076923,4120.512820,4426.153846,4210.256410,4210.769230,4518.461538,4156.923076,4644.102564,3980.000000,4056.410256
189,4369.230769,4511.794871,4520.000000,4251.282051,4465.128205,4126.666666,4428.717948,4219.487179,4213.333333,4525.128205,4156.410256,4645.128205,3984.615385,4056.923076
190,4376.923076,4518.974358,4524.615384,4259.487179,4466.666666,4135.384615,4431.794871,4225.641025,4216.923076,4533.333333,4162.564102,4650.769230,3994.871795,4067.179487
191,4371.282051,4521.538461,4524.102564,4253.333333,4464.615384,4129.743589,4427.692307,4224.615384,4216.410256,4529.743589,4160.000000,4652.820512,3993.333334,4068.717948
192,4370.769230,4517.948717,4525.641025,4253.333333,4461.538461,4118.974358,4417.435897,4217.435897,4212.307692,4529.230769,4165.128205,4653.846153,3994.358975,4066.666666
193,4372.820512,4513.333333,4523.076923,4253.846153,4457.948717,4119.487179,4414.871794,4212.307692,4211.794871,4532.820512,4174.358974,4654.871794,3996.410257,4066.153846
194,4373.846153,4517.948717,4522.051282,4254.871794,4462.051282,4124.615384,4425.641025,4219.487179,4219.487179,4536.410256,4172.820512,4659.487179,3996.410257,4069.230769
195,4377.948717,4525.641025,4528.205128,4261.025641,4464.102564,4123.589743,4429.230769,4227.179487,4224.615384,4533.846153,4166.153846,4661.025641,3998.974359,4073.846153
196,4373.333333,4523.589743,4529.230769,4260.000000,4455.897435,4118.461538,4421.025641,4222.564102,4217.948717,4526.153846,4162.051282,4656.410256,3996.923077,4071.794871
197,4366.666666,4518.461538,4524.615384,4255.897435,4456.410256,4115.897435,4414.871794,4214.871794,4211.794871,4525.641025,4162.051282,4653.846153,3991.794872,4068.717948
198,4368.205128,4515.897435,4521.025641,4258.974358,4465.641025,4116.923076,4413.333333,4212.307692,4213.846153,4531.282051,4165.128205,4651.794871,3993.333334,4069.230769
199,4371.794871,4516.410256,4522.051282,4260.000000,4465.128205,4121.025641,4416.923076,4213.846153,4217.435897,4539.487179,4171.794871,4650.769230,3995.897436,4071.794871
200,4374.358974,4518.974358,4528.205128,4253.333333,4465.128205,4124.615384,4426.666666,4221.538461,4221.025641,4545.128205,4177.435897,4657.435897,3995.897436,4075.384615
201,4374.358974,4520.512820,4529.230769,4250.769230,4467.692307,4124.102564,4427.179487,4225.641025,4223.589743,4540.000000,4181.538461,4661.025641,4000.000000,4079.487179
202,4371.282051,4521.025641,4525.128205,4255.897435,4465.128205,4121.538461,4420.000000,4221.025641,4220.000000,4531.794871,4182.564102,4654.358974,4002.051282,4078.461538
203,4372.307692,4523.589743,4526.153846,4258.461538,4463.589743,4123.076923,4422.051282,4218.974358,4215.897435,4534.871794,4181.538461,4652.307692,3998.974359,4074.871794
204,4373.333333,4525.641025,4528.717948,4254.871794,4460.000000,4125.128205,4427.179487,4220.000000,4213.846153,4540.512820,4177.435897,4656.923076,3994.358975,4071.794871
205,4367.692307,4522.564102,4524.615384,4251.794871,4458.974358,4123.076923,4424.102564,4215.897435,4212.820512,4532.820512,4173.333333,4654.358974,3991.282052,4069.743589
206,4367.692307,4516.410256,4521.025641,4256.410256,4466.153846,4122.051282,4421.538461,4213.846153,4210.769230,4524.615384,4177.948717,4648.205128,3990.256411,4071.282051
207,4372.820512,4516.410256,4524.102564,4262.564102,4467.692307,4125.128205,4423.589743,4215.897435,4212.820512,4528.717948,4178.974358,4650.256410,3994.358975,4072.307692
208,4375.897435,4527.179487,4532.820512,4268.205128,4464.615384,4130.256410,4427.179487,4214.871794,4219.487179,4535.897435,4175.897435,4656.410256,3997.948718,4075.897435
209,4381.025641,4537.435897,4540.512820,4272.820512,4477.948717,4137.948717,4427.179487,4216.923076,4223.076923,4539.487179,4184.102564,4663.076923,3997.948718,4087.179487
210,4389.743589,4538.974358,4541.025641,4275.897435,4483.589743,4138.974358,4427.179487,4225.128205,4225.641025,4543.589743,4196.923076,4667.692307,4002.564102,4092.307692
211,4388.205128,4533.846153,4541.025641,4272.820512,4468.205128,4134.871794,4430.256410,4231.794871,4228.717948,4549.743589,4195.897435,4668.205128,4009.743589,4085.128205
212,4375.384615,4523.589743,4535.897435,4259.487179,4464.102564,4136.923076,4431.282051,4233.333333,4227.692307,4547.692307,4188.205128,4662.051282,4007.179487,4076.923076
213,4365.128205,4515.897435,4523.589743,4248.205128,4472.307692,4136.410256,4430.769230,4229.743589,4221.538461,4536.410256,4182.564102,4653.333333,3994.358975,4071.794871
214,4365.641025,4517.948717,4521.538461,4252.820512,4469.230769,4125.641025,4429.743589,4222.051282,4215.897435,4528.717948,4175.897435,4650.256410,3986.153847,4067.179487
215,4369.230769,4520.512820,4529.230769,4261.025641,4463.076923,4126.666666,4429.230769,4216.410256,4213.333333,4529.230769,4174.358974,4652.820512,3989.230770,4065.641025
216,4370.256410,4518.974358,4532.307692,4259.487179,4467.692307,4132.307692,4429.230769,4214.358974,4212.307692,4535.897435,4181.538461,4657.435897,3997.435898,4070.256410
217,4373.846153,4524.102564,4533.846153,4258.461538,4473.846153,4131.282051,4430.256410,4216.410256,4216.410256,4542.564102,4188.717948,4661.538461,4000.000000,4076.410256
218,4377.948717,4530.769230,4538.974358,4263.589743,4473.846153,4130.769230,4431.794871,4221.538461,4218.974358,4542.051282,4191.282051,4666.153846,3990.769231,4076.923076
219,4379.487179,4530.769230,4537.948717,4266.666666,4474.358974,4130.769230,4428.717948,4224.615384,4221.025641,4542.564102,4194.871794,4668.205128,3989.743590,4075.384615
220,4374.871794,4523.589743,4532.307692,4262.564102,4470.256410,4124.615384,4425.128205,4221.025641,4222.051282,4542.564102,4188.717948,4664.615384,3992.307693,4074.358974
221,4366.153846,4515.897435,4531.282051,4258.974358,4465.128205,4122.051282,4426.153846,4215.384615,4213.333333,4532.820512,4178.461538,4658.974358,3984.615385,4069.230769
222,4363.076923,4511.794871,4531.794871,4257.435897,4463.589743,4125.641025,4426.666666,4214.871794,4208.717948,4524.615384,4181.025641,4654.871794,3987.692308,4064.615384
223,4362.051282,4506.666666,4524.102564,4249.230769,4458.974358,4125.641025,4428.205128,4221.025641,4217.435897,4531.282051,4185.641025,4649.230769,3998.974359,4066.666666
224,4360.000000,4502.564102,4518.461538,4246.153846,4456.923076,4123.589743,4430.256410,4225.641025,4222.564102,4536.923076,4183.589743,4645.128205,3995.897436,4066.666666
225,4362.051282,4505.641025,4525.641025,4254.871794,4461.538461,4125.641025,4429.230769,4225.128205,4220.000000,4534.871794,4188.205128,4649.743589,3993.333334,4066.153846
226,4372.820512,4516.410256,4535.897435,4262.051282,4469.230769,4128.717948,4425.641025,4227.179487,4224.102564,4540.512820,4196.923076,4658.974358,4002.564102,4073.333333
227,4385.128205,4526.153846,4540.000000,4266.153846,4475.384615,4130.769230,4428.717948,4234.358974,4227.692307,4547.692307,4197.948717,4667.179487,4006.666666,4078.461538
228,4386.666666,4527.179487,4542.051282,4270.256410,4475.384615,4129.743589,4431.282051,4234.358974,4222.051282,4541.025641,4197.948717,4667.692307,4002.051282,4075.384615
229,4374.358974,4516.923076,4535.897435,4264.615384,4468.717948,4125.641025,4424.102564,4220.512820,4213.333333,4530.769230,4192.820512,4656.410256,3992.307693,4068.205128
230,4362.051282,4508.205128,4527.179487,4257.435897,4463.076923,4119.487179,4420.000000,4210.769230,4208.717948,4530.769230,4184.102564,4645.641025,3984.102565,4062.564102
231,4363.076923,4511.282051,4529.230769,4257.435897,4459.487179,4118.461538,4425.128205,4217.948717,4209.743589,4533.333333,4186.153846,4645.641025,3987.179488,4062.051282
232,4367.692307,4510.769230,4534.358974,4255.384615,4458.461538,4123.076923,4429.230769,4225.641025,4215.897435,4534.358974,4190.256410,4651.282051,3992.307693,4062.564102
233,4369.743589,4509.743589,4533.333333,4252.820512,4466.153846,4125.641025,4428.717948,4227.692307,4222.564102,4537.948717,4191.282051,4651.794871,3993.333334,4066.666666
234,4371.282051,4515.384615,4534.358974,4258.461538,4468.717948,4124.615384,4427.179487,4229.743589,4222.564102,4543.076923,4193.846153,4653.846153,3993.333334,4068.205128
235,4374.358974,4516.923076,4540.000000,4264.102564,4464.102564,4124.102564,4426.666666,4230.769230,4222.051282,4544.102564,4197.435897,4659.487179,3995.897436,4068.717948
236,4375.897435,4512.820512,4542.051282,4264.102564,4464.615384,4122.564102,4427.179487,4229.743589,4225.641025,4537.435897,4198.461538,4661.025641,3996.410257,4074.871794
237,4370.256410,4511.282051,4537.435897,4258.974358,4462.564102,4121.538461,4428.205128,4228.717948,4220.000000,4530.256410,4196.923076,4656.923076,3987.692308,4074.358974
238,4362.564102,4509.743589,4526.666666,4254.358974,4452.307692,4120.000000,4425.641025,4220.512820,4210.256410,4529.230769,4188.205128,4647.692307,3976.410257,4062.564102
239,4360.000000,4503.076923,4521.538461,4253.333333,4453.333333,4121.538461,4428.717948,4213.333333,4207.692307,4529.743589,4177.948717,4637.948717,3974.358975,4056.410256
240,4361.025641,4501.025641,4524.102564,4254.358974,4462.564102,4124.102564,4428.717948,4215.897435,4207.692307,4525.128205,4174.871794,4632.820512,3973.846154,4056.923076
241,4358.974358,4508.205128,4523.076923,4253.846153,4460.000000,4121.025641,4420.512820,4215.897435,4204.615384,4523.589743,4175.384615,4633.846153,3973.333334,4054.871794
242,4363.076923,4515.384615,4527.179487,4254.871794,4457.435897,4120.512820,4421.538461,4214.358974,4206.153846,4528.717948,4183.589743,4641.025641,3978.461539,4060.000000
243,4373.846153,4514.871794,4537.435897,4258.974358,4466.666666,4123.589743,4429.230769,4221.538461,4210.769230,4532.820512,4196.923076,4651.282051,3985.641026,4070.256410
244,4378.974358,4512.820512,4540.000000,4260.512820,4468.717948,4126.666666,4428.205128,4229.230769,4212.820512,4535.897435,4201.025641,4658.461538,3992.307693,4075.897435
245,4377.948717,4515.384615,4539.487179,4257.948717,4465.128205,4126.153846,4426.666666,4226.153846,4212.307692,4538.461538,4196.410256,4659.487179,3998.461539,4077.435897
246,4373.846153,4515.384615,4538.461538,4255.897435,4464.615384,4123.589743,4430.256410,4216.410256,4206.666666,4532.820512,4190.256410,4652.307692,3991.282052,4071.794871
247,4366.153846,4510.256410,4529.230769,4257.948717,4464.615384,4121.538461,4429.743589,4211.282051,4201.538461,4521.025641,4186.666666,4639.487179,3972.307693,4064.102564
248,4363.589743,4509.230769,4526.153846,4261.025641,4462.564102,4123.076923,4428.205128,4217.435897,4205.641025,4523.076923,4187.179487,4638.461538,3967.692308,4064.615384
249,4370.256410,4515.897435,4533.846153,4262.051282,4460.512820,4125.128205,4428.717948,4226.666666,4210.256410,4531.794871,4193.846153,4648.717948,3976.410257,4069.230769
250,4372.820512,4522.051282,4535.384615,4265.128205,4460.000000,4122.564102,4426.153846,4231.282051,4215.384615,4532.820512,4201.025641,4652.307692,3981.538462,4071.282051
251,4377.435897,4527.179487,4537.948717,4272.307692,4469.743589,4126.666666,4426.666666,4230.769230,4221.538461,4537.948717,4206.666666,4656.410256,3988.717949,4073.846153
252,4385.641025,4529.743589,4547.179487,4276.410256,4481.025641,4131.282051,4428.205128,4231.282051,4225.128205,4550.256410,4209.743589,4663.076923,3996.410257,4078.461538
253,4384.615384,4530.256410,4546.153846,4273.846153,4481.538461,4127.179487,4427.692307,4235.384615,4224.102564,4551.794871,4213.846153,4665.641025,3996.923077,4084.102564
254,4378.974358,4526.666666,4539.487179,4270.769230,4474.871794,4122.564102,4427.179487,4233.846153,4218.461538,4543.076923,4211.794871,4661.538461,3993.333334,4085.641025
255,4372.307692,4517.435897,4534.871794,4267.692307,4469.743589,4122.564102,4425.641025,4221.025641,4208.717948,4531.794871,4195.897435,4650.256410,3981.538462,4074.358974
256,4367.692307,4512.307692,4531.282051,4267.179487,4468.205128,4127.179487,4429.230769,4218.974358,4205.641025,4524.102564,4184.615384,4642.051282,3968.717949,4063.076923
257,4373.333333,4524.102564,4534.358974,4271.794871,4474.358974,4136.410256,4440.512820,4234.871794,4213.846153,4527.179487,4194.358974,4648.205128,3971.794872,4069.230769
258,4383.076923,4531.282051,4543.076923,4272.307692,4479.487179,4141.538461,4446.666666,4242.564102,4224.102564,4540.000000,4205.128205,4657.435897,3985.641026,4080.512820
259,4381.538461,4521.538461,4543.076923,4266.666666,4475.897435,4135.897435,4440.512820,4234.358974,4226.666666,4546.153846,4203.589743,4656.923076,3990.769231,4082.051282
