,AF3,F7,F3,FC5,T7,P7,O1,O2,P8,T8,FC6,F4,F8,AF4
0,4357.948717,4526.666666,4531.794871,4270.256410,4498.461538,4204.615384,4442.564102,4214.871794,4223.076923,4459.487179,4205.128205,4643.589743,3961.025642,4030.256410
1,4355.897435,4518.974358,4529.230769,4268.205128,4491.794871,4205.641025,4443.076923,4212.307692,4224.102564,4451.794871,4196.410256,4635.897435,3959.487180,4025.128205
2,4354.358974,4526.153846,4529.230769,4258.974358,4489.743589,4212.307692,4442.564102,4217.435897,4232.307692,4464.615384,4198.461538,4634.871794,3963.589744,4023.589743
3,4360.512820,4538.974358,4536.410256,4266.666666,4495.384615,4212.820512,4444.102564,4229.743589,4239.487179,4478.974358,4215.384615,4645.641025,3971.282052,4032.820512
4,4366.153846,4537.435897,4537.435897,4278.461538,4491.282051,4202.564102,4443.076923,4229.230769,4243.589743,4475.897435,4218.974358,4651.794871,3976.410257,4041.538461
5,4363.589743,4525.128205,4533.333333,4276.923076,4488.205128,4198.974358,4440.000000,4218.974358,4242.564102,4477.435897,4209.230769,4646.153846,3976.923077,4038.974358
6,4362.564102,4526.666666,4538.974358,4277.435897,4498.461538,4207.179487,4441.025641,4221.025641,4242.564102,4489.743589,4210.769230,4647.179487,3984.102565,4042.051282
7,4374.358974,4545.641025,4550.256410,4283.589743,4507.179487,4218.974358,4448.205128,4231.794871,4249.743589,4491.282051,4223.076923,4659.487179,3996.410257,4053.846153
8,4383.076923,4554.358974,4551.794871,4285.641025,4506.666666,4220.512820,4454.358974,4232.820512,4250.256410,4476.410256,4228.205128,4663.076923,3992.820513,4055.897435
9,4375.897435,4543.076923,4544.102564,4281.538461,4503.076923,4215.384615,4450.256410,4225.128205,4245.128205,4469.230769,4221.538461,4656.923076,3981.025642,4049.230769
10,4372.307692,4535.384615,4543.076923,4278.974358,4501.025641,4215.897435,4444.615384,4226.666666,4248.205128,4481.538461,4216.410256,4657.435897,3991.282052,4050.769230
11,4382.051282,4545.128205,4547.179487,4286.153846,4501.538461,4216.410256,4445.641025,4231.282051,4250.256410,4489.743589,4222.051282,4665.128205,4000.512820,4052.307692
12,4383.076923,4551.794871,4545.128205,4292.820512,4505.641025,4212.307692,4444.615384,4224.102564,4244.102564,4477.948717,4229.743589,4661.025641,3991.794872,4047.179487
13,4371.794871,4543.589743,4541.025641,4292.307692,4508.205128,4210.256410,4442.051282,4214.358974,4236.923076,4471.282051,4220.000000,4652.307692,3986.666667,4044.102564
14,4368.205128,4536.923076,4539.487179,4287.179487,4498.974358,4211.794871,4443.076923,4213.846153,4232.820512,4476.410256,4198.974358,4649.230769,3985.641026,4038.974358
15,4366.153846,4536.923076,4537.435897,4281.025641,4493.846153,4211.794871,4440.512820,4213.846153,4232.307692,4470.769230,4202.051282,4646.153846,3977.948718,4032.820512
16,4370.256410,4542.051282,4539.487179,4284.102564,4506.153846,4213.846153,4445.641025,4217.948717,4238.461538,4467.179487,4222.564102,4647.179487,3975.897436,4038.974358
17,4382.051282,4551.794871,4546.153846,4293.846153,4514.358974,4221.025641,4455.897435,4231.794871,4248.205128,4474.871794,4226.666666,4657.948717,3987.179488,4051.282051
18,4385.128205,4554.358974,4551.282051,4294.871794,4512.307692,4221.538461,4453.846153,4237.948717,4255.897435,4481.538461,4223.589743,4666.666666,3999.487180,4056.410256
19,4386.153846,4552.307692,4557.435897,4293.333333,4513.846153,4216.923076,4446.666666,4233.333333,4257.435897,4490.256410,4230.769230,4670.256410,4005.128205,4060.000000
20,4389.743589,4553.333333,4558.461538,4298.461538,4513.846153,4217.948717,4445.641025,4234.871794,4253.333333,4491.794871,4237.948717,4669.743589,3998.461539,4061.025641
21,4382.051282,4547.179487,4548.717948,4295.897435,4505.641025,4218.461538,4446.153846,4231.794871,4246.153846,4477.435897,4233.333333,4660.000000,3983.076924,4050.769230
22,4369.743589,4536.923076,4541.025641,4284.102564,4505.641025,4216.410256,4444.615384,4217.435897,4238.974358,4467.692307,4217.948717,4651.794871,3980.512821,4042.051282
23,4369.743589,4538.461538,4543.076923,4284.102564,4508.717948,4215.384615,4443.076923,4214.871794,4234.358974,4476.410256,4206.153846,4653.333333,3988.205129,4039.487179
24,4370.769230,4540.512820,4546.666666,4292.307692,4503.076923,4215.897435,4446.153846,4226.666666,4239.487179,4490.256410,4214.871794,4656.410256,3988.205129,4038.461538
25,4369.230769,4536.410256,4548.717948,4289.230769,4506.666666,4215.897435,4450.256410,4234.871794,4249.743589,4495.384615,4222.564102,4658.974358,3982.564103,4041.025641
26,4372.820512,4540.000000,4553.333333,4284.102564,4515.897435,4214.871794,4447.179487,4234.358974,4251.282051,4496.923076,4216.923076,4662.564102,3987.692308,4048.717948
27,4375.384615,4553.846153,4556.410256,4291.794871,4512.307692,4214.358974,4446.666666,4234.871794,4248.717948,4499.487179,4221.538461,4664.615384,3997.948718,4051.282051
28,4373.846153,4554.871794,4556.923076,4298.974358,4508.205128,4216.923076,4456.923076,4244.102564,4256.923076,4511.282051,4229.743589,4665.128205,3996.923077,4047.692307
29,4368.717948,4540.512820,4556.410256,4292.307692,4506.666666,4218.461538,4462.051282,4247.692307,4263.589743,4524.615384,4220.512820,4662.564102,3988.717949,4043.589743
30,4357.435897,4537.948717,4553.333333,4282.564102,4500.000000,4215.897435,4459.487179,4238.974358,4253.333333,4516.923076,4209.230769,4655.384615,3981.538462,4037.948717
31,4344.615384,4539.487179,4544.615384,4277.948717,4498.461538,4214.871794,4457.948717,4229.743589,4240.000000,4493.846153,4208.205128,4646.666666,3975.384616,4029.230769
32,4340.512820,4527.692307,4540.000000,4283.589743,4506.666666,4215.897435,4458.974358,4230.256410,4242.051282,4485.128205,4204.615384,4644.615384,3974.358975,4026.153846
33,4346.153846,4532.307692,4543.076923,4296.410256,4509.743589,4219.487179,4460.000000,4232.307692,4248.717948,4495.384615,4200.000000,4647.179487,3980.000000,4032.820512
34,4351.282051,4552.820512,4545.641025,4292.820512,4509.230769,4223.589743,4461.538461,4233.333333,4250.769230,4505.641025,4207.179487,4648.717948,3982.051283,4034.871794
35,4348.717948,4550.256410,4542.564102,4280.000000,4513.333333,4222.051282,4460.512820,4233.846153,4249.230769,4506.666666,4211.794871,4647.692307,3979.487180,4029.743589
36,4341.538461,4535.384615,4540.000000,4283.589743,4509.230769,4217.435897,4458.461538,4228.717948,4245.128205,4503.589743,4206.153846,4643.589743,3984.102565,4027.179487
37,4341.025641,4537.948717,4545.641025,4293.333333,4504.102564,4219.487179,4460.000000,4228.205128,4246.666666,4509.743589,4205.128205,4643.076923,3990.256411,4034.358974
38,4343.076923,4545.128205,4548.205128,4290.256410,4508.205128,4222.564102,4462.564102,4232.307692,4250.256410,4517.435897,4213.846153,4647.692307,3983.589744,4037.435897
39,4338.974358,4541.025641,4542.564102,4282.051282,4509.230769,4219.487179,4460.512820,4229.743589,4244.615384,4505.128205,4213.333333,4646.666666,3978.974359,4029.743589
40,4343.076923,4538.461538,4543.589743,4282.564102,4505.128205,4218.461538,4458.461538,4229.743589,4244.615384,4501.025641,4213.333333,4648.205128,3997.948718,4034.871794
41,4358.461538,4547.179487,4552.820512,4291.794871,4508.205128,4221.025641,4459.487179,4235.897435,4257.435897,4514.358974,4224.615384,4661.025641,4013.333333,4050.256410
42,4359.487179,4552.307692,4556.410256,4296.923076,4513.846153,4219.487179,4458.974358,4235.897435,4256.410256,4510.769230,4227.179487,4665.641025,4001.025641,4049.230769
43,4345.128205,4543.589743,4550.256410,4290.256410,4508.717948,4215.384615,4457.948717,4230.256410,4246.153846,4502.051282,4217.435897,4650.769230,3991.282052,4037.435897
44,4340.512820,4535.897435,4544.615384,4286.153846,4501.025641,4214.871794,4457.948717,4230.769230,4251.282051,4515.897435,4212.307692,4643.589743,3998.461539,4036.410256
45,4342.564102,4539.487179,4543.589743,4289.743589,4506.666666,4217.948717,4458.974358,4233.846153,4256.410256,4520.000000,4218.974358,4649.743589,3998.461539,4038.974358
46,4340.512820,4540.000000,4544.102564,4288.205128,4511.282051,4219.487179,4460.000000,4233.846153,4251.794871,4509.743589,4223.589743,4650.769230,3989.743590,4035.384615
47,4338.461538,4535.897435,4541.538461,4286.153846,4506.153846,4218.461538,4461.025641,4232.307692,4253.333333,4509.743589,4213.333333,4644.615384,3989.743590,4035.384615
48,4339.487179,4537.948717,4540.512820,4286.666666,4502.564102,4217.435897,4461.538461,4232.820512,4255.897435,4514.871794,4203.589743,4644.102564,3997.948718,4042.051282
49,4342.564102,4545.128205,4549.230769,4289.743589,4506.153846,4217.948717,4463.076923,4234.871794,4255.384615,4520.512820,4213.846153,4652.307692,4002.564102,4047.692307
50,4344.102564,4545.641025,4554.358974,4293.333333,4510.769230,4219.487179,4462.564102,4228.205128,4252.820512,4517.435897,4221.025641,4654.358974,4004.615384,4045.641025
51,4340.000000,4538.461538,4548.205128,4288.717948,4511.282051,4219.487179,4460.512820,4217.948717,4243.076923,4502.051282,4206.666666,4648.717948,4001.025641,4037.948717
52,4337.948717,4536.923076,4542.564102,4289.743589,4506.153846,4216.923076,4460.512820,4215.384615,4235.897435,4502.051282,4202.564102,4646.153846,3992.307693,4033.846153
53,4340.000000,4541.025641,4544.615384,4293.846153,4504.615384,4214.871794,4457.948717,4215.384615,4235.384615,4507.692307,4208.205128,4647.692307,3985.128206,4034.871794
54,4341.538461,4540.000000,4545.128205,4286.666666,4506.666666,4216.410256,4455.384615,4218.974358,4236.923076,4495.384615,4204.102564,4646.666666,3983.589744,4036.410256
55,4343.076923,4541.025641,4544.102564,4281.538461,4505.641025,4218.974358,4460.000000,4225.128205,4242.564102,4493.333333,4200.512820,4646.153846,3985.641026,4036.923076
56,4335.897435,4541.025641,4542.051282,4285.641025,4505.641025,4217.948717,4463.589743,4222.051282,4242.564102,4500.512820,4194.358974,4641.538461,3984.102565,4028.205128
57,4320.000000,4526.153846,4531.282051,4281.025641,4501.025641,4215.384615,4457.948717,4213.846153,4231.282051,4482.051282,4181.025641,4628.205128,3965.641026,4007.692307
58,4319.487179,4517.435897,4525.641025,4274.871794,4490.769230,4216.410256,4461.025641,4214.358974,4229.230769,4474.358974,4179.487179,4623.076923,3953.333334,4000.512820
59,4328.205128,4523.076923,4532.307692,4280.000000,4490.256410,4219.487179,4472.307692,4222.051282,4240.000000,4493.846153,4189.743589,4626.153846,3965.641026,4013.333333
60,4323.589743,4525.641025,4528.717948,4277.435897,4496.410256,4218.974358,4469.230769,4225.641025,4244.102564,4494.871794,4182.051282,4621.025641,3971.794872,4016.923076
61,4315.897435,4523.076923,4517.948717,4267.692307,4493.333333,4217.948717,4458.974358,4222.051282,4238.461538,4479.487179,4172.307692,4612.307692,3965.641026,4008.717948
62,4314.358974,4519.487179,4521.538461,4264.615384,4487.692307,4218.461538,4458.461538,4215.384615,4232.307692,4473.333333,4175.897435,4614.358974,3962.564103,4004.102564
63,4314.871794,4514.871794,4523.076923,4268.717948,4489.743589,4218.461538,4460.512820,4216.410256,4231.794871,4474.358974,4175.384615,4616.923076,3958.461539,4002.564102
64,4320.512820,4520.512820,4518.461538,4272.820512,4493.846153,4216.923076,4461.025641,4219.487179,4232.820512,4477.948717,4176.410256,4615.897435,3958.974359,4008.205128
65,4324.102564,4527.692307,4524.102564,4272.820512,4493.333333,4215.897435,4462.051282,4217.435897,4230.769230,4487.179487,4183.589743,4619.487179,3972.820513,4018.461538
66,4321.025641,4520.000000,4532.307692,4276.410256,4491.794871,4213.846153,4459.487179,4218.461538,4233.333333,4488.717948,4186.153846,4624.615384,3979.487180,4020.512820
67,4322.564102,4522.051282,4534.358974,4279.487179,4494.871794,4212.307692,4456.410256,4223.589743,4237.948717,4482.564102,4187.692307,4626.666666,3969.743590,4021.025641
68,4331.794871,4536.923076,4534.358974,4279.487179,4498.974358,4214.358974,4460.000000,4223.076923,4238.461538,4488.205128,4194.871794,4630.769230,3971.282052,4024.615384
69,4327.179487,4535.384615,4531.794871,4281.025641,4497.435897,4216.923076,4457.435897,4218.974358,4237.948717,4500.512820,4191.282051,4632.307692,3983.076924,4023.076923
70,4309.743589,4517.948717,4522.564102,4273.333333,4488.205128,4214.358974,4448.717948,4214.871794,4233.846153,4486.153846,4178.974358,4621.538461,3973.333334,4011.282051
71,4311.794871,4510.256410,4521.538461,4267.179487,4484.615384,4207.179487,4446.666666,4211.282051,4227.692307,4469.230769,4180.000000,4616.923076,3956.923077,4008.205128
72,4333.846153,4524.102564,4534.358974,4283.076923,4498.461538,4212.820512,4456.410256,4220.000000,4236.410256,4487.692307,4196.923076,4635.384615,3975.897436,4026.153846
73,4343.589743,4541.025641,4547.692307,4296.923076,4512.820512,4226.153846,4467.692307,4234.871794,4251.794871,4510.256410,4218.461538,4652.307692,4002.564102,4041.538461
74,4337.948717,4541.025641,4549.230769,4287.692307,4508.717948,4224.615384,4468.717948,4236.410256,4253.333333,4508.205128,4213.846153,4651.794871,3995.384616,4038.461538
75,4337.435897,4538.974358,4545.641025,4285.128205,4501.025641,4216.923076,4463.076923,4228.717948,4246.153846,4506.153846,4187.179487,4648.717948,3988.205129,4038.461538
76,4337.435897,4537.948717,4542.051282,4291.282051,4508.717948,4219.487179,4461.538461,4225.128205,4242.051282,4501.538461,4171.794871,4645.128205,3993.846154,4044.102564
77,4329.230769,4527.179487,4535.384615,4282.564102,4511.794871,4221.538461,4461.538461,4220.000000,4234.871794,4480.000000,4169.230769,4634.871794,3981.025642,4032.307692
78,4327.692307,4519.487179,4532.820512,4273.333333,4498.461538,4214.871794,4458.974358,4214.871794,4230.769230,4475.897435,4172.307692,4629.743589,3966.666667,4018.461538
79,4327.179487,4524.102564,4532.307692,4277.948717,4489.743589,4213.846153,4452.820512,4216.410256,4232.820512,4485.641025,4182.051282,4632.820512,3970.769231,4018.974358
80,4319.487179,4524.102564,4530.256410,4281.538461,4491.282051,4215.384615,4447.692307,4217.948717,4232.820512,4477.435897,4185.128205,4631.794871,3976.923077,4021.025641
81,4312.820512,4520.000000,4529.743589,4273.846153,4486.153846,4206.153846,4442.051282,4213.333333,4229.230769,4466.153846,4171.282051,4625.641025,3970.256411,4020.000000
82,4314.871794,4516.923076,4530.256410,4268.205128,4481.538461,4203.589743,4444.615384,4212.820512,4229.230769,4474.871794,4168.205128,4622.051282,3956.923077,4017.948717
83,4325.128205,4520.000000,4533.846153,4273.846153,4489.230769,4214.871794,4454.871794,4224.615384,4237.948717,4489.230769,4186.666666,4633.333333,3964.615385,4021.025641
84,4334.358974,4535.897435,4537.948717,4280.512820,4494.358974,4222.564102,4462.564102,4229.743589,4245.128205,4487.692307,4203.589743,4647.692307,3987.692308,4035.384615
85,4330.769230,4536.923076,4536.410256,4280.000000,4500.000000,4218.974358,4458.974358,4218.461538,4237.435897,4475.384615,4202.051282,4642.564102,3983.589744,4038.974358
86,4325.128205,4520.000000,4533.846153,4276.410256,4505.128205,4215.897435,4448.717948,4210.256410,4223.076923,4472.820512,4188.717948,4632.820512,3966.153847,4025.641025
87,4330.256410,4523.076923,4532.820512,4277.435897,4498.461538,4216.923076,4444.102564,4213.846153,4223.076923,4482.051282,4185.641025,4636.923076,3971.282052,4022.051282
88,4331.794871,4537.948717,4531.282051,4282.051282,4494.871794,4216.410256,4444.615384,4214.871794,4228.717948,4479.487179,4190.256410,4640.000000,3976.410257,4028.717948
89,4331.794871,4538.461538,4536.923076,4287.179487,4505.128205,4217.435897,4446.153846,4213.846153,4231.794871,4473.846153,4190.256410,4640.512820,3970.256411,4031.282051
90,4344.615384,4536.923076,4548.205128,4292.307692,4512.307692,4218.461538,4448.717948,4217.435897,4238.461538,4485.641025,4191.794871,4647.179487,3975.384616,4036.410256
91,4346.153846,4539.487179,4550.769230,4288.717948,4503.076923,4218.974358,4448.205128,4219.487179,4238.974358,4493.333333,4193.846153,4649.743589,3982.564103,4038.974358
92,4333.333333,4536.410256,4544.615384,4282.564102,4497.435897,4217.435897,4444.615384,4219.487179,4232.820512,4478.461538,4190.769230,4644.615384,3978.974359,4034.871794
93,4336.923076,4534.358974,4543.589743,4286.666666,4502.564102,4216.410256,4444.615384,4220.512820,4235.897435,4474.358974,4197.948717,4645.128205,3974.871795,4034.871794
94,4344.615384,4536.923076,4544.102564,4290.256410,4500.512820,4216.923076,4447.179487,4219.487179,4242.564102,4490.256410,4204.615384,4649.743589,3975.897436,4038.461538
95,4336.923076,4535.384615,4540.512820,4281.025641,4495.897435,4216.410256,4445.641025,4216.410256,4237.435897,4490.256410,4190.256410,4647.692307,3984.102565,4037.435897
96,4330.256410,4527.692307,4534.871794,4275.897435,4496.923076,4214.358974,4441.538461,4210.256410,4226.153846,4472.820512,4182.564102,4640.000000,3987.179488,4032.307692
97,4332.820512,4521.538461,4533.333333,4280.000000,4499.487179,4213.333333,4437.948717,4205.641025,4225.641025,4469.743589,4200.000000,4638.461538,3975.384616,4028.205128
98,4338.461538,4524.615384,4537.948717,4278.974358,4501.025641,4213.846153,4438.974358,4207.179487,4229.230769,4483.589743,4205.128205,4647.179487,3972.820513,4034.871794
99,4341.538461,4536.410256,4539.487179,4277.435897,4502.564102,4215.384615,4442.564102,4206.153846,4223.076923,4488.205128,4191.794871,4649.743589,3980.000000,4040.000000
100,4335.897435,4537.948717,4536.410256,4278.974358,4502.051282,4216.410256,4442.051282,4204.102564,4216.410256,4475.897435,4182.564102,4637.948717,3974.358975,4031.282051
101,4325.641025,4526.666666,4531.282051,4278.974358,4501.025641,4217.435897,4440.000000,4210.256410,4224.615384,4468.205128,4183.076923,4634.358974,3965.128206,4024.102564
102,4329.230769,4525.128205,4531.794871,4278.461538,4503.076923,4216.410256,4442.564102,4216.923076,4234.358974,4479.487179,4193.333333,4641.538461,3973.846154,4028.205128
103,4341.538461,4534.871794,4537.435897,4282.564102,4499.487179,4215.384615,4442.051282,4214.358974,4234.871794,4489.743589,4200.000000,4641.538461,3984.102565,4039.487179
104,4345.641025,4539.487179,4540.512820,4284.102564,4493.846153,4213.333333,4440.512820,4216.923076,4238.461538,4491.794871,4201.025641,4643.589743,3986.666667,4047.692307
105,4338.974358,4535.897435,4535.897435,4273.846153,4492.820512,4206.153846,4436.923076,4221.538461,4240.512820,4493.846153,4201.538461,4649.743589,3991.282052,4043.589743
106,4328.205128,4524.102564,4530.256410,4265.128205,4491.282051,4197.948717,4427.692307,4208.205128,4227.692307,4487.692307,4198.461538,4643.589743,3986.153847,4033.846153
107,4326.666666,4520.512820,4533.333333,4272.820512,4490.769230,4202.564102,4428.717948,4201.538461,4222.564102,4476.410256,4197.435897,4637.435897,3974.358975,4033.846153
108,4337.435897,4533.333333,4540.000000,4288.205128,4496.923076,4214.358974,4442.051282,4213.333333,4232.820512,4473.846153,4198.974358,4646.153846,3976.410257,4037.435897
109,4345.128205,4542.564102,4538.461538,4288.205128,4507.692307,4218.974358,4446.666666,4219.487179,4237.435897,4474.871794,4200.512820,4649.743589,3990.256411,4042.564102
110,4342.564102,4537.948717,4535.897435,4282.051282,4507.179487,4215.897435,4439.487179,4213.846153,4231.282051,4479.487179,4200.512820,4645.128205,3994.871795,4045.641025
111,4340.512820,4536.410256,4539.487179,4286.153846,4503.076923,4214.358974,4438.461538,4213.333333,4233.846153,4489.743589,4200.000000,4645.641025,3985.128206,4039.487179
112,4341.538461,4540.000000,4540.000000,4288.717948,4508.717948,4218.974358,4443.589743,4216.923076,4240.512820,4491.282051,4198.461538,4648.205128,3977.948718,4036.923076
113,4344.102564,4541.025641,4537.948717,4283.589743,4508.205128,4221.025641,4444.102564,4215.897435,4236.410256,4489.230769,4207.179487,4649.230769,3978.461539,4040.000000
114,4341.538461,4535.897435,4538.974358,4283.589743,4498.974358,4212.307692,4441.025641,4213.333333,4229.230769,4492.307692,4211.282051,4647.692307,3983.076924,4036.923076
115,4339.487179,4529.230769,4542.564102,4286.153846,4501.538461,4211.794871,4441.538461,4212.820512,4235.897435,4488.717948,4207.692307,4650.256410,3991.794872,4037.948717
116,4346.666666,4533.846153,4543.076923,4278.461538,4502.564102,4215.897435,4441.538461,4215.384615,4247.692307,4483.076923,4214.358974,4656.410256,3994.358975,4044.615384
117,4351.282051,4541.538461,4537.948717,4275.384615,4493.846153,4206.666666,4440.000000,4215.897435,4242.564102,4487.692307,4215.384615,4653.333333,3991.282052,4046.153846
118,4347.692307,4536.923076,4536.923076,4284.615384,4498.974358,4205.128205,4441.025641,4217.948717,4236.410256,4491.794871,4206.666666,4646.153846,3992.307693,4047.179487
119,4342.051282,4533.846153,4538.974358,4285.641025,4508.717948,4215.384615,4437.435897,4217.948717,4238.461538,4486.153846,4200.000000,4645.128205,3985.128206,4042.564102
120,4336.410256,4537.948717,4533.846153,4280.000000,4496.923076,4207.179487,4428.717948,4206.153846,4228.205128,4476.923076,4192.820512,4641.538461,3968.205129,4026.666666
121,4333.333333,4529.230769,4525.641025,4275.897435,4485.641025,4194.871794,4425.128205,4194.358974,4211.794871,4472.307692,4183.076923,4633.846153,3966.666667,4021.025641
122,4334.358974,4517.948717,4524.615384,4272.820512,4493.846153,4200.512820,4427.692307,4198.461538,4214.871794,4470.256410,4180.000000,4632.307692,3972.307693,4026.153846
123,4327.179487,4517.435897,4521.025641,4266.153846,4495.897435,4203.076923,4426.666666,4203.076923,4221.538461,4472.820512,4176.410256,4630.256410,3956.923077,4018.461538
124,4322.564102,4518.974358,4517.948717,4260.512820,4486.666666,4196.410256,4424.615384,4196.410256,4213.846153,4480.512820,4175.384615,4627.692307,3946.666667,4008.717948
125,4333.333333,4524.615384,4528.717948,4267.692307,4492.820512,4198.461538,4430.769230,4200.512820,4216.923076,4490.769230,4189.230769,4636.923076,3966.666667,4022.564102
126,4342.564102,4536.410256,4542.051282,4276.923076,4507.692307,4209.230769,4444.615384,4222.564102,4238.974358,4501.538461,4201.538461,4651.282051,3989.743590,4042.051282
127,4341.025641,4538.461538,4541.025641,4279.487179,4508.205128,4216.923076,4448.717948,4229.743589,4252.820512,4518.461538,4204.102564,4655.384615,3990.256411,4042.051282
128,4334.871794,4535.897435,4538.461538,4275.897435,4498.974358,4215.897435,4443.076923,4219.487179,4242.564102,4530.256410,4206.666666,4650.256410,3986.666667,4035.897435
129,4332.820512,4536.923076,4541.025641,4277.948717,4502.051282,4213.846153,4442.051282,4213.846153,4230.769230,4513.846153,4202.051282,4649.230769,3994.871795,4040.000000
130,4331.282051,4532.820512,4541.538461,4284.615384,4509.743589,4213.846153,4441.025641,4212.820512,4231.282051,4491.794871,4189.743589,4649.230769,3990.769231,4042.051282
131,4326.666666,4531.794871,4536.923076,4283.589743,4507.692307,4211.282051,4437.948717,4209.230769,4229.743589,4495.897435,4192.820512,4643.076923,3969.230770,4030.256410
132,4322.051282,4539.487179,4533.333333,4277.948717,4504.102564,4212.307692,4438.974358,4211.282051,4225.641025,4505.128205,4202.051282,4641.538461,3969.743590,4022.564102
133,4324.102564,4540.512820,4534.358974,4278.461538,4504.102564,4217.948717,4446.153846,4224.102564,4235.384615,4508.717948,4200.000000,4649.230769,3991.282052,4032.820512
134,4328.717948,4537.435897,4540.000000,4285.641025,4508.205128,4217.948717,4450.769230,4231.282051,4247.179487,4516.923076,4198.461538,4654.871794,3995.384616,4043.589743
135,4327.179487,4536.923076,4540.000000,4282.564102,4506.666666,4214.358974,4447.179487,4225.128205,4242.051282,4517.435897,4198.461538,4648.205128,3988.205129,4036.410256
136,4319.487179,4530.769230,4528.717948,4270.256410,4494.358974,4213.846153,4441.538461,4216.923076,4231.282051,4509.230769,4187.692307,4636.923076,3985.128206,4022.051282
137,4307.692307,4514.871794,4523.076923,4262.564102,4485.641025,4211.794871,4442.051282,4214.871794,4230.256410,4503.076923,4178.461538,4635.897435,3974.358975,4015.384615
138,4305.128205,4512.820512,4530.769230,4263.589743,4490.256410,4209.230769,4443.589743,4213.333333,4231.282051,4497.948717,4186.666666,4642.051282,3968.205129,4020.000000
139,4319.487179,4532.820512,4538.974358,4275.384615,4501.025641,4211.794871,4442.051282,4210.769230,4229.743589,4498.974358,4198.974358,4646.666666,3985.641026,4033.333333
140,4332.307692,4545.641025,4538.974358,4287.692307,4506.153846,4217.948717,4443.589743,4216.410256,4233.846153,4513.333333,4198.461538,4648.205128,4002.564102,4044.615384
141,4329.743589,4539.487179,4533.846153,4285.641025,4507.179487,4219.487179,4446.666666,4219.487179,4238.461538,4514.871794,4193.846153,4645.641025,3995.384616,4042.051282
142,4324.102564,4538.974358,4532.307692,4274.871794,4503.589743,4213.333333,4442.051282,4211.794871,4233.846153,4505.641025,4193.333333,4641.538461,3985.128206,4033.333333
143,4324.615384,4540.000000,4532.307692,4278.974358,4498.461538,4205.128205,4433.333333,4203.076923,4223.589743,4508.205128,4193.846153,4640.512820,3975.384616,4026.666666
144,4315.384615,4528.205128,4525.641025,4280.512820,4493.846153,4198.461538,4425.128205,4196.410256,4215.384615,4503.076923,4185.128205,4637.435897,3959.487180,4018.974358
145,4305.641025,4520.000000,4522.051282,4266.666666,4487.179487,4196.410256,4422.564102,4192.820512,4211.794871,4488.717948,4176.410256,4632.820512,3957.435898,4015.384615
146,4315.384615,4527.692307,4530.769230,4268.205128,4487.692307,4204.102564,4431.794871,4201.025641,4223.076923,4498.461538,4182.051282,4641.025641,3973.846154,4024.102564
147,4330.256410,4539.487179,4541.538461,4282.564102,4503.076923,4216.410256,4445.128205,4217.435897,4241.025641,4518.974358,4198.461538,4654.358974,3983.076924,4038.974358
148,4330.256410,4543.589743,4538.461538,4284.102564,4512.307692,4222.051282,4449.743589,4224.615384,4245.128205,4524.102564,4206.666666,4655.384615,3981.538462,4042.051282
149,4317.948717,4533.333333,4529.230769,4276.410256,4495.897435,4215.897435,4445.128205,4218.974358,4238.974358,4522.564102,4195.897435,4646.666666,3982.051283,4028.717948
150,4316.923076,4527.179487,4531.282051,4276.923076,4486.153846,4210.256410,4440.512820,4214.358974,4234.871794,4512.820512,4185.641025,4645.128205,3973.333334,4020.000000
151,4322.051282,4536.410256,4535.384615,4282.051282,4503.076923,4215.384615,4445.128205,4213.333333,4235.384615,4497.948717,4185.128205,4647.179487,3965.128206,4020.000000
152,4316.923076,4542.051282,4531.282051,4280.512820,4511.282051,4216.923076,4444.102564,4205.641025,4228.717948,4496.923076,4185.641025,4640.512820,3967.179488,4017.948717
153,4310.256410,4536.410256,4525.641025,4272.820512,4497.435897,4204.615384,4431.282051,4195.897435,4217.435897,4496.410256,4182.051282,4631.794871,3962.051283,4015.384615
154,4318.974358,4536.923076,4528.717948,4272.307692,4488.717948,4197.435897,4428.717948,4201.538461,4221.538461,4489.743589,4181.025641,4636.410256,3963.589744,4024.102564
155,4327.692307,4539.487179,4534.871794,4279.487179,4492.820512,4204.102564,4439.487179,4214.358974,4230.256410,4495.897435,4183.589743,4644.615384,3973.333334,4028.717948
156,4315.897435,4529.743589,4525.128205,4271.282051,4491.282051,4204.102564,4436.923076,4209.230769,4226.153846,4500.512820,4175.897435,4635.384615,3965.128206,4012.820512
157,4303.076923,4521.025641,4513.333333,4257.435897,4485.128205,4196.410256,4428.205128,4198.974358,4218.974358,4490.769230,4167.692307,4622.051282,3951.282052,3998.974359
158,4305.641025,4522.564102,4516.410256,4262.051282,4485.641025,4198.461538,4428.717948,4200.512820,4221.025641,4485.128205,4174.871794,4624.102564,3957.948718,4006.153846
159,4313.333333,4524.615384,4524.615384,4269.230769,4489.743589,4203.589743,4430.769230,4205.641025,4225.128205,4492.307692,4187.692307,4632.820512,3967.692308,4018.461538
160,4319.487179,4529.230769,4529.230769,4262.051282,4489.743589,4200.000000,4435.384615,4212.307692,4230.256410,4503.076923,4189.230769,4641.538461,3970.256411,4021.538461
161,4326.153846,4536.410256,4536.410256,4262.564102,4490.769230,4202.564102,4443.589743,4216.410256,4235.384615,4511.794871,4183.076923,4646.666666,3975.384616,4022.051282
162,4327.692307,4538.974358,4542.051282,4276.410256,4496.410256,4212.307692,4445.128205,4213.333333,4232.820512,4505.128205,4184.615384,4647.692307,3972.820513,4021.538461
163,4326.153846,4535.897435,4537.435897,4278.974358,4497.948717,4210.256410,4438.461538,4210.256410,4227.179487,4494.358974,4186.153846,4643.589743,3965.641026,4020.512820
164,4326.666666,4530.256410,4533.333333,4274.871794,4492.820512,4207.179487,4440.000000,4216.410256,4227.179487,4497.948717,4181.025641,4640.000000,3966.153847,4021.538461
165,4315.897435,4521.538461,4529.743589,4272.820512,4490.256410,4208.717948,4442.564102,4215.384615,4231.282051,4497.435897,4180.000000,4638.974358,3964.615385,4018.974358
166,4307.692307,4524.615384,4523.076923,4266.153846,4491.794871,4205.641025,4437.948717,4208.717948,4230.769230,4489.230769,4185.641025,4636.410256,3961.025642,4015.897435
167,4319.487179,4539.487179,4523.589743,4267.692307,4493.333333,4204.615384,4439.487179,4211.282051,4230.769230,4495.897435,4187.179487,4639.487179,3969.230770,4017.948717
168,4330.256410,4538.974358,4532.307692,4277.435897,4493.846153,4206.666666,4440.512820,4215.384615,4234.358974,4508.717948,4176.410256,4642.051282,3976.410257,4021.025641
169,4320.000000,4521.025641,4531.794871,4271.794871,4490.769230,4200.512820,4429.743589,4206.153846,4227.692307,4497.435897,4168.205128,4636.923076,3971.282052,4019.487179
170,4311.282051,4516.923076,4524.615384,4259.487179,4484.615384,4196.410256,4421.025641,4195.897435,4214.358974,4483.589743,4164.615384,4630.769230,3964.615385,4016.923076
171,4315.897435,4534.871794,4528.205128,4262.051282,4487.179487,4204.102564,4427.692307,4203.076923,4217.435897,4492.307692,4155.897435,4635.384615,3965.641026,4018.974358
172,4317.435897,4537.948717,4530.256410,4269.743589,4493.333333,4203.589743,4430.256410,4209.743589,4228.205128,4494.871794,4155.897435,4639.487179,3964.615385,4021.025641
173,4315.897435,4527.179487,4527.179487,4274.358974,4492.307692,4200.000000,4425.128205,4205.128205,4224.102564,4485.128205,4166.153846,4633.846153,3960.512821,4018.974358
174,4316.410256,4535.897435,4529.743589,4277.435897,4489.230769,4202.051282,4428.205128,4202.051282,4217.435897,4494.358974,4175.384615,4630.256410,3958.461539,4013.333333
175,4312.307692,4542.564102,4528.717948,4274.871794,4491.794871,4200.000000,4426.666666,4202.051282,4218.974358,4505.641025,4174.871794,4631.794871,3958.461539,4011.282051
176,4310.256410,4527.179487,4520.512820,4269.743589,4493.846153,4197.948717,4420.000000,4201.538461,4221.538461,4494.358974,4175.897435,4631.794871,3960.000000,4015.384615
177,4314.871794,4521.025641,4522.051282,4264.102564,4490.769230,4200.000000,4422.564102,4201.538461,4224.615384,4484.102564,4180.000000,4632.307692,3961.025642,4022.051282
178,4313.333333,4527.692307,4525.128205,4262.564102,4489.230769,4197.948717,4423.589743,4201.538461,4223.076923,4483.589743,4177.435897,4630.769230,3960.512821,4019.487179
179,4307.179487,4523.076923,4517.435897,4261.538461,4490.256410,4192.820512,4416.923076,4197.435897,4214.358974,4476.410256,4168.205128,4624.102564,3954.871795,4005.641025
180,4313.333333,4517.435897,4517.435897,4259.487179,4486.153846,4196.410256,4418.974358,4196.923076,4214.871794,4477.435897,4165.641025,4624.615384,3949.230770,4002.564102
181,4322.564102,4522.564102,4528.205128,4261.538461,4477.435897,4201.538461,4430.256410,4207.692307,4229.743589,4492.307692,4173.333333,4635.897435,3956.923077,4018.461538
182,4327.179487,4527.692307,4531.794871,4264.615384,4477.435897,4200.512820,4431.282051,4215.384615,4235.384615,4494.871794,4178.461538,4644.102564,3969.743590,4031.282051
183,4327.692307,4527.692307,4529.230769,4261.025641,4485.128205,4200.000000,4428.717948,4212.820512,4228.717948,4489.230769,4182.564102,4644.615384,3975.897436,4029.230769
184,4327.179487,4524.102564,4532.820512,4260.512820,4491.282051,4202.051282,4430.256410,4212.820512,4230.256410,4490.256410,4188.717948,4646.666666,3974.358975,4027.179487
185,4325.128205,4524.615384,4531.794871,4266.153846,4491.794871,4203.589743,4430.769230,4215.897435,4233.846153,4492.307692,4191.794871,4646.666666,3968.205129,4025.128205
186,4320.000000,4521.025641,4522.564102,4267.179487,4487.179487,4202.051282,4429.743589,4209.230769,4229.743589,4486.153846,4187.179487,4637.435897,3959.487180,4013.846153
187,4317.435897,4509.230769,4517.948717,4264.615384,4486.666666,4198.974358,4427.692307,4200.000000,4227.179487,4478.974358,4179.487179,4630.256410,3957.435898,4010.256410
188,4322.051282,4512.307692,4524.102564,4261.025641,4484.615384,4196.923076,4425.641025,4200.512820,4225.641025,4485.641025,4182.564102,4633.846153,3963.076924,4018.974358
189,4325.641025,4523.589743,4527.179487,4256.923076,4476.923076,4196.410256,4424.615384,4204.615384,4224.615384,4492.820512,4188.205128,4637.948717,3964.615385,4023.589743
190,4328.205128,4528.717948,4527.179487,4261.538461,4479.487179,4198.974358,4426.666666,4210.769230,4232.820512,4489.743589,4189.743589,4638.461538,3967.179488,4025.128205
191,4336.410256,4530.769230,4532.820512,4271.282051,4490.769230,4202.051282,4431.794871,4216.410256,4240.512820,4489.230769,4194.358974,4645.128205,3974.358975,4029.230769
192,4342.564102,4527.692307,4536.410256,4271.794871,4493.846153,4200.512820,4433.846153,4217.435897,4236.410256,4496.410256,4200.000000,4647.692307,3974.871795,4025.641025
193,4341.025641,4521.538461,4529.743589,4262.564102,4485.641025,4199.487179,4433.846153,4213.846153,4233.333333,4492.820512,4194.871794,4641.025641,3973.333334,4019.487179
194,4337.948717,4520.512820,4523.589743,4256.923076,4484.102564,4200.512820,4433.333333,4206.666666,4235.384615,4478.974358,4185.128205,4637.948717,3970.769231,4022.051282
195,4329.743589,4521.025641,4521.025641,4254.871794,4486.666666,4192.307692,4429.743589,4199.487179,4230.256410,4480.512820,4183.076923,4637.948717,3963.076924,4022.564102
196,4323.076923,4519.487179,4515.897435,4257.948717,4481.538461,4187.692307,4425.128205,4197.435897,4225.128205,4490.769230,4186.666666,4631.794871,3954.871795,4016.923076
197,4330.769230,4523.076923,4517.948717,4264.615384,4482.564102,4197.948717,4425.641025,4202.051282,4231.794871,4485.641025,4184.615384,4629.743589,3957.948718,4016.410256
198,4337.435897,4521.025641,4524.102564,4266.666666,4491.282051,4203.589743,4428.205128,4206.153846,4233.333333,4474.358974,4166.666666,4633.333333,3964.102565,4019.487179
199,4335.384615,4519.487179,4521.538461,4258.461538,4489.743589,4200.512820,4428.205128,4204.615384,4224.102564,4473.846153,4154.358974,4632.820512,3961.025642,4020.000000
200,4333.846153,4520.512820,4516.410256,4250.256410,4484.102564,4201.538461,4427.692307,4202.051282,4223.589743,4475.384615,4160.000000,4631.282051,3954.871795,4019.487179
201,4331.794871,4509.743589,4517.435897,4254.358974,4482.564102,4200.000000,4426.153846,4199.487179,4225.641025,4475.897435,4158.974358,4630.769230,3956.410257,4017.948717
202,4334.358974,4508.717948,4523.076923,4266.666666,4484.102564,4197.435897,4426.153846,4202.051282,4224.102564,4478.974358,4159.487179,4636.923076,3965.641026,4020.000000
203,4347.692307,4521.025641,4533.333333,4268.205128,4489.230769,4201.025641,4428.717948,4212.820512,4235.384615,4474.358974,4175.384615,4649.743589,3974.871795,4031.282051
204,4355.897435,4526.153846,4540.000000,4255.897435,4493.846153,4200.512820,4429.230769,4216.923076,4245.128205,4475.897435,4181.538461,4652.820512,3973.333334,4039.487179
205,4346.666666,4522.051282,4530.769230,4251.794871,4484.615384,4191.794871,4425.641025,4205.641025,4234.871794,4487.692307,4168.717948,4644.102564,3963.589744,4032.307692
206,4340.000000,4515.384615,4525.641025,4260.512820,4475.897435,4191.794871,4424.102564,4198.974358,4225.641025,4478.974358,4165.641025,4642.051282,3959.487180,4022.564102
207,4345.128205,4514.871794,4533.333333,4270.256410,4480.000000,4201.025641,4430.256410,4203.589743,4233.846153,4464.615384,4172.820512,4648.717948,3965.641026,4030.256410
208,4345.128205,4514.358974,4532.307692,4268.205128,4477.948717,4195.897435,4429.230769,4202.051282,4232.820512,4470.256410,4171.282051,4646.153846,3964.615385,4034.871794
209,4340.000000,4510.769230,4523.076923,4253.846153,4472.820512,4180.512820,4418.974358,4195.897435,4220.000000,4476.923076,4168.205128,4639.487179,3953.846154,4026.153846
210,4342.564102,4514.871794,4522.564102,4252.307692,4478.461538,4186.666666,4420.512820,4197.435897,4219.487179,4473.333333,4171.282051,4640.512820,3958.461539,4027.179487
211,4350.256410,4522.564102,4528.717948,4264.102564,4488.205128,4197.435897,4429.230769,4201.025641,4231.282051,4467.692307,4173.846153,4646.666666,3975.897436,4036.923076
212,4351.282051,4519.487179,4526.666666,4257.435897,4491.282051,4187.692307,4426.666666,4202.051282,4233.846153,4467.692307,4173.846153,4645.128205,3980.000000,4032.307692
213,4349.743589,4516.923076,4524.615384,4245.641025,4484.615384,4186.153846,4424.102564,4202.564102,4230.256410,4474.871794,4177.948717,4642.564102,3973.333334,4027.692307
214,4352.307692,4522.564102,4528.205128,4257.948717,4475.384615,4196.923076,4428.205128,4203.076923,4233.333333,4481.025641,4181.538461,4647.692307,3966.153847,4033.846153
215,4352.820512,4518.974358,4526.153846,4269.230769,4470.256410,4196.410256,4425.128205,4198.974358,4234.358974,4476.410256,4174.358974,4645.128205,3965.128206,4031.794871
216,4352.820512,4516.923076,4525.128205,4263.589743,4470.769230,4193.846153,4421.538461,4197.948717,4230.769230,4470.256410,4164.615384,4640.512820,3963.076924,4024.102564
217,4354.871794,4524.102564,4530.256410,4261.025641,4474.358974,4201.025641,4428.205128,4203.076923,4235.384615,4475.384615,4167.692307,4643.589743,3965.641026,4027.179487
218,4357.948717,4526.153846,4529.743589,4267.692307,4477.435897,4202.564102,4426.153846,4205.128205,4242.051282,4483.589743,4178.461538,4643.589743,3969.743590,4033.333333
219,4355.897435,4518.461538,4526.666666,4271.794871,4469.743589,4192.307692,4414.358974,4200.000000,4238.974358,4484.615384,4175.384615,4635.897435,3963.076924,4028.717948
220,4348.717948,4511.794871,4528.717948,4266.153846,4459.487179,4184.615384,4414.871794,4199.487179,4235.384615,4482.051282,4168.717948,4637.435897,3956.923077,4020.512820
221,4353.846153,4520.000000,4531.794871,4260.512820,4467.179487,4188.717948,4426.153846,4207.692307,4242.564102,4487.179487,4180.000000,4649.743589,3964.615385,4024.615384
222,4369.230769,4528.717948,4535.384615,4272.307692,4478.461538,4201.538461,4435.384615,4216.923076,4251.794871,4496.410256,4192.307692,4656.923076,3976.923077,4036.410256
223,4369.743589,4523.589743,4539.487179,4281.025641,4476.410256,4205.641025,4442.564102,4219.487179,4251.282051,4496.410256,4185.641025,4656.410256,3981.025642,4037.948717
224,4359.487179,4516.923076,4540.000000,4269.743589,4471.794871,4200.000000,4444.102564,4215.384615,4244.615384,4493.846153,4178.974358,4653.333333,3980.000000,4034.871794
225,4358.461538,4519.487179,4540.512820,4266.153846,4477.948717,4201.025641,4442.051282,4214.358974,4245.128205,4497.948717,4184.615384,4658.461538,3980.512821,4041.025641
226,4361.538461,4525.641025,4544.615384,4276.923076,4485.641025,4208.717948,4442.564102,4217.435897,4253.333333,4510.256410,4190.256410,4665.641025,3984.102565,4045.128205
227,4357.948717,4531.794871,4550.256410,4281.025641,4487.692307,4209.743589,4445.128205,4222.051282,4258.974358,4525.128205,4196.410256,4667.179487,3990.256411,4045.128205
228,4353.333333,4532.307692,4550.256410,4277.435897,4485.641025,4204.102564,4444.102564,4223.076923,4253.333333,4524.102564,4199.487179,4665.641025,3991.282052,4043.589743
229,4350.769230,4524.102564,4543.589743,4275.897435,4475.384615,4200.000000,4442.564102,4216.923076,4244.615384,4508.717948,4196.410256,4658.461538,3980.000000,4036.923076
230,4353.846153,4518.974358,4542.564102,4278.461538,4468.717948,4200.000000,4442.051282,4214.358974,4246.153846,4501.538461,4200.512820,4656.410256,3971.794872,4034.358974
231,4358.461538,4525.641025,4548.205128,4279.487179,4478.461538,4206.666666,4443.589743,4215.897435,4248.717948,4504.615384,4209.230769,4663.076923,3982.051283,4041.025641
232,4355.384615,4536.410256,4548.205128,4278.461538,4489.230769,4214.358974,4446.153846,4216.410256,4248.205128,4506.153846,4209.230769,4665.641025,3991.282052,4044.102564
233,4357.948717,4542.051282,4551.282051,4284.102564,4491.282051,4216.923076,4454.871794,4223.589743,4257.435897,4518.461538,4212.820512,4664.615384,3993.846154,4045.128205
234,4373.333333,4543.076923,4560.000000,4294.871794,4494.871794,4218.974358,4464.102564,4234.871794,4268.717948,4535.897435,4225.128205,4676.410256,4006.153846,4056.923076
235,4373.846153,4540.000000,4558.974358,4290.769230,4496.923076,4220.512820,4461.538461,4235.897435,4267.692307,4533.846153,4228.205128,4681.025641,4016.410256,4064.615384
236,4363.589743,4536.410256,4553.846153,4278.461538,4490.256410,4215.897435,4455.384615,4228.205128,4261.538461,4519.487179,4216.923076,4668.717948,4002.564102,4056.923076
237,4364.102564,4537.435897,4554.871794,4283.076923,4493.333333,4216.410256,4457.948717,4230.256410,4262.051282,4517.435897,4208.717948,4666.153846,3988.717949,4049.230769
238,4363.589743,4541.025641,4552.307692,4296.410256,4496.923076,4220.000000,4462.564102,4232.820512,4257.435897,4514.871794,4209.230769,4670.769230,3991.794872,4048.205128
239,4358.461538,4539.487179,4550.769230,4294.358974,4488.205128,4216.410256,4456.410256,4223.076923,4247.179487,4497.435897,4211.282051,4666.666666,3991.282052,4041.025641
240,4359.487179,4536.923076,4552.307692,4281.025641,4485.128205,4213.846153,4449.743589,4214.871794,4246.666666,4495.897435,4210.256410,4661.025641,3984.102565,4033.846153
241,4358.461538,4537.435897,4544.615384,4278.974358,4489.230769,4215.384615,4452.820512,4216.410256,4248.717948,4512.820512,4197.948717,4657.435897,3984.615385,4035.384615
242,4356.410256,4537.948717,4539.487179,4287.179487,4492.307692,4218.461538,4459.487179,4220.512820,4249.743589,4517.435897,4186.153846,4654.358974,3990.256411,4037.435897
243,4356.923076,4536.923076,4546.153846,4287.692307,4492.307692,4217.948717,4455.897435,4218.461538,4250.769230,4505.128205,4190.769230,4653.846153,3986.153847,4035.384615
244,4351.282051,4537.435897,4544.615384,4278.974358,4492.307692,4213.846153,4445.128205,4215.384615,4247.692307,4502.564102,4202.051282,4655.384615,3975.384616,4034.358974
245,4351.282051,4538.974358,4542.564102,4277.435897,4491.282051,4212.820512,4440.512820,4215.384615,4246.153846,4509.743589,4204.102564,4656.923076,3975.897436,4035.384615
246,4364.102564,4536.410256,4553.846153,4286.666666,4488.205128,4216.410256,4451.282051,4224.615384,4252.307692,4508.717948,4200.000000,4662.564102,3986.153847,4041.025641
247,4368.717948,4533.846153,4560.000000,4293.333333,4489.230769,4215.897435,4460.000000,4232.820512,4255.384615,4506.153846,4201.538461,4667.179487,3992.820513,4044.102564
248,4357.948717,4540.000000,4551.282051,4290.256410,4493.333333,4214.358974,4449.743589,4225.128205,4248.717948,4509.230769,4204.615384,4663.076923,3987.179488,4041.538461
249,4344.615384,4539.487179,4542.564102,4280.512820,4486.153846,4211.282051,4440.000000,4214.871794,4244.615384,4507.692307,4199.487179,4653.846153,3970.256411,4035.384615
250,4338.461538,4525.641025,4537.435897,4272.820512,4476.410256,4205.641025,4443.589743,4213.846153,4245.128205,4497.435897,4190.769230,4647.179487,3960.000000,4026.666666
251,4339.487179,4516.923076,4533.333333,4271.282051,4482.564102,4204.615384,4442.564102,4213.333333,4245.641025,4486.666666,4184.102564,4646.666666,3968.205129,4021.025641
252,4342.051282,4519.487179,4533.333333,4273.846153,4491.282051,4207.179487,4437.435897,4211.794871,4243.076923,4487.692307,4183.589743,4647.692307,3973.846154,4022.564102
253,4347.179487,4528.717948,4537.948717,4278.974358,4491.282051,4211.282051,4441.025641,4215.384615,4243.589743,4493.846153,4191.282051,4651.282051,3966.153847,4030.256410
254,4351.282051,4534.358974,4543.076923,4285.128205,4490.256410,4214.871794,4446.153846,4219.487179,4251.794871,4491.282051,4196.410256,4656.923076,3968.717949,4035.384615
255,4350.256410,4529.743589,4540.000000,4285.641025,4492.307692,4217.435897,4446.153846,4218.974358,4255.384615,4487.179487,4187.692307,4656.923076,3983.589744,4031.282051
256,4352.307692,4524.102564,4538.461538,4280.000000,4491.282051,4216.923076,4445.128205,4217.948717,4249.743589,4503.076923,4185.641025,4654.871794,3985.128206,4031.282051
257,4358.461538,4524.102564,4538.461538,4277.435897,4488.205128,4212.307692,4443.589743,4216.410256,4246.153846,4510.769230,4196.410256,4655.897435,3975.897436,4038.974358
258,4357.948717,4529.743589,4538.974358,4281.538461,4489.230769,4211.794871,4443.076923,4215.384615,4248.717948,4495.384615,4202.051282,4657.435897,3973.333334,4043.076923
259,4357.435897,4537.948717,4541.538461,4286.153846,4493.846153,4217.435897,4444.615384,4216.923076,4250.769230,4496.923076,4196.923076,4658.974358,3975.384616,4043.589743
