,AF3,F7,F3,FC5,T7,P7,O1,O2,P8,T8,FC6,F4,F8,AF4
0,4318.974358,4547.179487,4558.461538,4194.358974,4520.512820,4200.512820,4448.717948,4230.256410,4258.974358,4519.487179,4211.794871,4673.846153,4024.615384,4078.461538
1,4307.692307,4545.128205,4557.948717,4195.897435,4523.589743,4200.512820,4447.179487,4225.641025,4258.461538,4513.846153,4211.282051,4673.333333,4017.435897,4077.948717
2,4292.307692,4537.435897,4553.333333,4196.923076,4522.564102,4196.923076,4443.589743,4217.948717,4243.589743,4509.743589,4207.692307,4669.743589,4015.897435,4075.384615
3,4290.769230,4539.487179,4554.871794,4197.948717,4518.461538,4197.948717,4446.666666,4226.153846,4242.564102,4518.974358,4215.897435,4671.282051,4028.205128,4079.487179
4,4295.384615,4543.076923,4557.948717,4194.871794,4517.948717,4202.564102,4448.717948,4231.794871,4251.282051,4517.435897,4218.974358,4668.717948,4031.282051,4082.051282
5,4282.564102,4537.435897,4554.358974,4191.282051,4515.384615,4198.461538,4445.128205,4220.512820,4247.692307,4504.102564,4202.051282,4663.076923,4017.948717,4075.384615
6,4280.000000,4535.897435,4551.794871,4186.666666,4511.794871,4189.230769,4442.564102,4213.846153,4240.000000,4503.076923,4194.871794,4662.564102,4014.871794,4071.794871
7,4309.230769,4538.974358,4553.333333,4189.230769,4506.666666,4187.692307,4441.538461,4222.051282,4241.025641,4507.179487,4208.717948,4663.076923,4023.589743,4073.333333
8,4339.487179,4536.410256,4555.897435,4193.333333,4504.615384,4195.384615,4448.205128,4230.769230,4246.153846,4504.615384,4212.820512,4662.051282,4026.666666,4074.358974
9,4348.205128,4536.410256,4556.410256,4194.358974,4507.179487,4199.487179,4458.461538,4232.820512,4250.769230,4509.230769,4207.692307,4665.641025,4025.128205,4076.410256
10,4353.333333,4536.923076,4553.846153,4193.846153,4507.179487,4198.461538,4459.487179,4231.794871,4253.333333,4514.358974,4205.128205,4668.205128,4018.461538,4075.384615
11,4360.000000,4529.230769,4552.820512,4190.769230,4503.589743,4198.461538,4458.461538,4232.307692,4254.358974,4507.692307,4203.076923,4663.589743,4013.333333,4069.230769
12,4353.846153,4526.666666,4555.897435,4191.282051,4502.051282,4200.512820,4462.564102,4232.307692,4251.282051,4507.179487,4209.230769,4662.564102,4021.025641,4073.333333
13,4338.461538,4536.410256,4557.435897,4196.410256,4504.615384,4200.000000,4461.025641,4233.333333,4246.153846,4514.358974,4215.897435,4666.666666,4030.769230,4082.051282
14,4324.615384,4540.000000,4555.384615,4196.410256,4501.538461,4200.000000,4457.435897,4233.846153,4246.666666,4513.846153,4215.384615,4669.743589,4032.820512,4079.487179
15,4317.948717,4535.897435,4555.897435,4193.846153,4492.307692,4199.487179,4459.487179,4232.820512,4253.333333,4510.769230,4213.846153,4667.692307,4030.256410,4074.871794
16,4312.307692,4536.923076,4558.461538,4200.000000,4490.769230,4195.897435,4458.974358,4231.794871,4255.897435,4512.307692,4210.769230,4666.153846,4025.641025,4077.435897
17,4304.102564,4541.538461,4555.897435,4205.641025,4493.333333,4194.358974,4457.948717,4232.307692,4252.307692,4510.256410,4208.205128,4666.153846,4022.051282,4078.974358
18,4296.410256,4537.435897,4556.923076,4200.000000,4490.769230,4197.948717,4459.487179,4228.205128,4246.666666,4504.615384,4209.230769,4667.179487,4022.051282,4074.358974
19,4284.102564,4527.692307,4555.897435,4194.358974,4489.743589,4201.538461,4454.871794,4218.974358,4240.000000,4497.435897,4201.025641,4664.102564,4015.384615,4071.794871
20,4280.000000,4523.589743,4545.128205,4194.358974,4490.769230,4200.000000,4448.717948,4214.871794,4233.846153,4488.205128,4184.615384,4656.410256,4004.102564,4067.692307
21,4299.487179,4522.564102,4538.974358,4197.948717,4484.615384,4191.282051,4446.153846,4214.358974,4231.794871,4487.692307,4184.102564,4654.358974,4001.025641,4061.025641
22,4325.641025,4525.128205,4540.000000,4196.410256,4474.871794,4184.102564,4444.102564,4212.307692,4230.769230,4493.846153,4195.897435,4654.871794,4007.179487,4062.051282
23,4344.615384,4529.230769,4542.564102,4194.871794,4474.358974,4190.769230,4446.153846,4214.871794,4235.384615,4497.435897,4204.102564,4658.461538,4014.358974,4070.256410
24,4352.307692,4530.256410,4546.153846,4197.948717,4478.974358,4195.897435,4450.256410,4219.487179,4241.538461,4498.974358,4205.128205,4662.564102,4014.871794,4072.307692
25,4350.769230,4531.794871,4542.564102,4195.384615,4477.435897,4187.692307,4447.692307,4214.358974,4235.384615,4495.897435,4204.615384,4658.461538,4008.717948,4068.205128
26,4341.538461,4533.846153,4536.410256,4187.179487,4473.846153,4185.128205,4443.076923,4211.282051,4229.743589,4491.794871,4201.538461,4650.256410,4000.000000,4065.128205
27,4325.641025,4526.666666,4535.384615,4184.615384,4474.871794,4188.717948,4443.589743,4215.897435,4233.333333,4492.820512,4189.230769,4647.692307,3990.769231,4063.589743
28,4300.000000,4520.512820,4531.282051,4185.128205,4473.846153,4184.615384,4443.076923,4217.435897,4234.871794,4497.435897,4184.615384,4647.692307,3985.641026,4060.000000
29,4281.538461,4524.615384,4523.589743,4186.153846,4466.666666,4181.025641,4440.512820,4214.358974,4233.333333,4497.435897,4190.769230,4645.641025,3984.102565,4055.897435
30,4276.410256,4525.128205,4523.589743,4186.153846,4464.615384,4184.102564,4437.435897,4212.307692,4232.820512,4491.282051,4190.256410,4644.102564,3977.435898,4052.307692
31,4268.205128,4521.025641,4524.102564,4185.641025,4466.666666,4180.512820,4434.358974,4212.307692,4230.256410,4487.692307,4183.589743,4641.025641,3968.205129,4050.256410
32,4260.512820,4522.051282,4521.025641,4187.179487,4463.589743,4172.820512,4432.307692,4214.871794,4232.820512,4490.769230,4178.461538,4638.974358,3967.179488,4052.307692
33,4259.487179,4519.487179,4521.025641,4186.153846,4459.487179,4169.230769,4429.230769,4212.820512,4232.307692,4489.743589,4177.435897,4638.461538,3967.179488,4050.769230
34,4258.461538,4518.974358,4521.538461,4184.615384,4459.487179,4169.743589,4427.179487,4204.615384,4222.051282,4486.666666,4182.051282,4638.974358,3961.025642,4047.692307
35,4261.538461,4521.538461,4522.051282,4187.179487,4460.000000,4170.769230,4429.743589,4205.641025,4221.538461,4490.769230,4189.230769,4644.102564,3964.102565,4053.333333
36,4276.923076,4518.461538,4522.564102,4187.692307,4457.435897,4169.230769,4430.256410,4206.153846,4224.615384,4493.333333,4191.794871,4646.666666,3968.717949,4056.923076
37,4302.564102,4516.410256,4523.589743,4184.615384,4457.435897,4168.717948,4430.256410,4200.512820,4218.974358,4490.256410,4188.717948,4645.641025,3966.153847,4053.333333
38,4321.538461,4521.025641,4522.051282,4190.256410,4461.025641,4171.282051,4431.794871,4198.974358,4214.358974,4488.205128,4173.846153,4644.102564,3962.564103,4051.794871
39,4328.717948,4520.000000,4522.564102,4197.435897,4462.564102,4174.871794,4432.307692,4200.000000,4214.871794,4487.692307,4165.641025,4644.615384,3961.025642,4052.307692
40,4337.435897,4524.102564,4532.307692,4204.615384,4465.128205,4179.487179,4435.897435,4203.589743,4220.512820,4490.769230,4183.589743,4650.769230,3966.153847,4058.974358
41,4352.820512,4533.333333,4540.512820,4211.794871,4466.153846,4183.076923,4443.076923,4212.820512,4227.692307,4500.000000,4201.025641,4658.461538,3975.384616,4068.205128
42,4358.974358,4531.794871,4538.974358,4211.794871,4468.205128,4184.615384,4446.666666,4219.487179,4232.307692,4507.179487,4194.871794,4658.974358,3980.000000,4068.717948
43,4344.102564,4528.205128,4536.410256,4207.179487,4472.307692,4183.589743,4444.102564,4217.948717,4234.358974,4507.179487,4185.128205,4655.897435,3978.461539,4065.128205
44,4323.076923,4530.769230,4537.948717,4206.153846,4470.769230,4182.564102,4443.589743,4218.974358,4232.820512,4500.000000,4192.820512,4656.923076,3980.000000,4066.666666
45,4309.743589,4528.717948,4535.897435,4205.641025,4467.179487,4185.641025,4444.615384,4219.487179,4228.717948,4498.461538,4204.615384,4655.897435,3978.974359,4067.179487
46,4300.512820,4523.076923,4534.358974,4202.051282,4467.692307,4185.128205,4444.102564,4216.923076,4228.205128,4501.025641,4197.948717,4651.794871,3973.333334,4063.076923
47,4291.282051,4522.564102,4533.333333,4202.051282,4464.615384,4175.384615,4443.589743,4215.897435,4229.230769,4497.435897,4187.692307,4649.743589,3970.256411,4061.538461
48,4281.025641,4521.025641,4524.615384,4202.564102,4459.487179,4172.307692,4442.564102,4215.384615,4227.179487,4490.256410,4185.128205,4647.692307,3970.256411,4058.974358
49,4275.384615,4521.538461,4524.615384,4201.025641,4458.974358,4178.974358,4441.025641,4213.846153,4222.051282,4487.179487,4182.564102,4647.692307,3970.769231,4058.974358
50,4268.717948,4522.051282,4531.794871,4203.076923,4455.384615,4174.871794,4441.538461,4215.384615,4223.589743,4493.846153,4183.589743,4651.282051,3968.717949,4061.025641
51,4262.051282,4518.974358,4530.769230,4202.051282,4448.717948,4166.153846,4440.512820,4214.358974,4230.256410,4501.538461,4191.282051,4653.846153,3965.641026,4061.025641
52,4268.717948,4520.512820,4529.230769,4200.000000,4448.205128,4169.743589,4435.897435,4207.179487,4227.179487,4496.410256,4191.794871,4651.794871,3965.641026,4059.487179
53,4298.974358,4522.564102,4536.923076,4205.128205,4450.769230,4175.384615,4436.410256,4209.230769,4216.410256,4491.794871,4189.230769,4647.692307,3968.205129,4058.461538
54,4330.256410,4522.051282,4540.000000,4214.358974,4450.256410,4172.820512,4441.538461,4213.333333,4215.897435,4497.435897,4185.128205,4649.230769,3968.205129,4058.461538
55,4342.051282,4521.025641,4531.794871,4215.897435,4446.153846,4169.230769,4441.538461,4207.179487,4220.512820,4497.435897,4178.461538,4652.307692,3966.153847,4054.358974
56,4349.743589,4522.051282,4528.717948,4212.307692,4442.051282,4168.717948,4440.000000,4203.589743,4216.410256,4487.692307,4182.051282,4652.307692,3967.179488,4054.358974
57,4356.410256,4518.461538,4534.871794,4213.333333,4444.102564,4170.769230,4444.102564,4212.820512,4213.333333,4486.153846,4193.846153,4649.743589,3972.820513,4057.948717
58,4345.128205,4516.410256,4537.948717,4215.897435,4453.333333,4172.307692,4446.153846,4216.923076,4221.538461,4494.871794,4195.897435,4649.743589,3973.333334,4055.897435
59,4319.487179,4516.410256,4529.230769,4213.846153,4453.333333,4170.769230,4442.051282,4209.743589,4228.205128,4501.025641,4187.692307,4649.230769,3970.769231,4049.743589
60,4298.461538,4511.282051,4520.000000,4210.769230,4449.230769,4167.692307,4436.923076,4209.230769,4223.589743,4498.974358,4181.538461,4645.128205,3969.230770,4047.179487
61,4290.769230,4511.282051,4527.179487,4213.846153,4452.307692,4171.794871,4440.000000,4213.333333,4222.051282,4495.384615,4179.487179,4647.179487,3971.794872,4049.743589
62,4295.384615,4523.076923,4540.000000,4222.564102,4462.564102,4184.615384,4454.358974,4220.000000,4234.358974,4503.076923,4192.307692,4659.487179,3985.128206,4060.512820
63,4294.871794,4527.692307,4542.051282,4223.076923,4470.256410,4188.717948,4462.564102,4225.128205,4240.512820,4512.307692,4207.692307,4665.641025,3993.333334,4067.692307
64,4280.512820,4512.307692,4536.410256,4216.923076,4469.230769,4182.564102,4458.461538,4223.076923,4233.333333,4505.128205,4203.076923,4656.923076,3984.102565,4059.487179
65,4273.846153,4508.717948,4534.871794,4216.410256,4464.615384,4184.615384,4456.923076,4219.487179,4230.769230,4496.923076,4193.333333,4650.256410,3974.871795,4053.333333
66,4287.692307,4518.461538,4531.282051,4218.461538,4460.512820,4188.205128,4455.384615,4217.948717,4233.846153,4502.051282,4188.205128,4651.794871,3973.846154,4051.282051
67,4305.128205,4511.282051,4524.102564,4215.897435,4459.487179,4176.923076,4444.615384,4218.974358,4234.358974,4505.641025,4183.589743,4647.692307,3971.794872,4046.666666
68,4321.538461,4501.025641,4527.692307,4213.846153,4460.000000,4172.307692,4442.051282,4219.487179,4235.384615,4499.487179,4189.230769,4646.666666,3970.256411,4046.666666
69,4334.358974,4511.794871,4535.897435,4217.435897,4466.666666,4181.538461,4452.820512,4218.974358,4236.923076,4496.923076,4197.948717,4652.307692,3973.333334,4049.230769
70,4329.230769,4525.128205,4537.948717,4221.025641,4476.923076,4186.153846,4453.333333,4217.435897,4236.923076,4505.128205,4191.282051,4652.307692,3976.410257,4049.230769
71,4305.641025,4521.538461,4534.358974,4221.538461,4477.435897,4185.641025,4443.589743,4216.410256,4239.487179,4508.205128,4185.641025,4647.692307,3976.923077,4050.769230
72,4285.641025,4513.333333,4526.153846,4217.435897,4474.871794,4181.538461,4442.564102,4212.820512,4237.435897,4497.948717,4185.128205,4643.076923,3972.307693,4048.717948
73,4272.820512,4507.179487,4521.538461,4214.871794,4474.871794,4172.820512,4444.102564,4201.538461,4223.589743,4489.743589,4171.794871,4635.384615,3965.641026,4039.487179
74,4266.666666,4508.717948,4523.589743,4221.025641,4475.384615,4174.358974,4442.051282,4197.435897,4218.461538,4493.846153,4165.641025,4635.897435,3963.076924,4036.923076
75,4267.692307,4519.487179,4523.589743,4222.051282,4475.897435,4182.564102,4443.076923,4207.692307,4229.230769,4498.974358,4180.000000,4643.076923,3967.692308,4043.076923
76,4268.205128,4525.128205,4523.076923,4222.051282,4480.000000,4184.102564,4445.128205,4216.410256,4233.333333,4494.871794,4191.794871,4646.153846,3974.871795,4045.128205
77,4276.923076,4518.974358,4526.666666,4224.102564,4483.076923,4180.512820,4445.128205,4212.307692,4227.179487,4490.256410,4184.615384,4647.179487,3976.410257,4044.102564
78,4302.564102,4510.769230,4525.641025,4222.051282,4478.461538,4177.435897,4445.128205,4209.743589,4229.230769,4493.846153,4173.846153,4647.692307,3973.846154,4044.102564
79,4328.205128,4513.846153,4523.076923,4221.538461,4473.333333,4175.384615,4443.589743,4213.846153,4233.846153,4497.948717,4176.923076,4646.666666,3972.820513,4045.128205
80,4340.512820,4514.358974,4526.153846,4227.692307,4475.897435,4173.846153,4441.025641,4210.769230,4226.153846,4492.820512,4184.615384,4647.179487,3973.333334,4045.128205
81,4348.717948,4514.358974,4532.820512,4234.871794,4478.974358,4178.461538,4444.615384,4207.179487,4222.564102,4491.794871,4187.692307,4651.282051,3977.948718,4048.717948
82,4360.000000,4516.410256,4540.000000,4232.820512,4477.435897,4184.102564,4451.794871,4214.358974,4228.205128,4500.000000,4184.102564,4656.923076,3985.641026,4055.897435
83,4356.923076,4517.435897,4536.923076,4225.641025,4476.410256,4180.000000,4448.717948,4212.820512,4226.666666,4495.384615,4177.435897,4657.948717,3986.666667,4054.358974
84,4333.846153,4519.487179,4525.128205,4222.051282,4476.410256,4170.769230,4442.564102,4202.051282,4221.025641,4481.025641,4177.435897,4652.307692,3983.589744,4045.128205
85,4313.846153,4520.000000,4528.205128,4224.102564,4468.205128,4170.256410,4444.615384,4203.076923,4222.051282,4485.641025,4185.128205,4649.743589,3983.589744,4044.102564
86,4303.589743,4513.333333,4533.846153,4223.076923,4462.564102,4171.282051,4446.666666,4205.128205,4225.128205,4494.358974,4184.615384,4648.717948,3980.000000,4045.128205
87,4287.692307,4503.076923,4528.717948,4215.897435,4464.615384,4167.692307,4443.076923,4200.512820,4229.230769,4488.717948,4176.410256,4645.641025,3975.384616,4040.000000
88,4280.000000,4508.205128,4532.307692,4218.974358,4466.153846,4170.769230,4443.076923,4211.282051,4237.948717,4489.743589,4178.974358,4648.717948,3978.461539,4041.538461
89,4282.051282,4516.410256,4535.897435,4229.230769,4468.717948,4172.307692,4445.641025,4221.538461,4236.410256,4494.358974,4185.128205,4652.307692,3980.512821,4046.666666
90,4271.794871,4512.820512,4531.282051,4229.743589,4472.820512,4169.743589,4443.589743,4209.743589,4221.538461,4488.717948,4185.128205,4647.692307,3976.410257,4039.487179
91,4261.025641,4504.615384,4531.794871,4226.153846,4476.923076,4169.743589,4442.051282,4201.025641,4218.974358,4485.641025,4184.615384,4646.153846,3979.487180,4034.871794
92,4261.025641,4501.538461,4529.743589,4226.666666,4483.589743,4170.256410,4440.512820,4205.128205,4224.102564,4489.230769,4182.051282,4648.717948,3984.102565,4039.487179
93,4270.769230,4510.769230,4524.102564,4231.282051,4494.871794,4173.846153,4440.512820,4206.666666,4224.102564,4491.794871,4177.948717,4646.666666,3982.564103,4038.974358
94,4297.435897,4521.025641,4533.333333,4235.384615,4505.641025,4182.564102,4441.538461,4208.205128,4223.076923,4491.282051,4179.487179,4648.205128,3987.692308,4041.025641
95,4325.641025,4524.615384,4541.538461,4238.974358,4516.923076,4188.717948,4444.615384,4216.410256,4231.794871,4492.307692,4184.102564,4656.923076,3996.410257,4051.282051
96,4330.769230,4522.051282,4537.435897,4237.435897,4529.230769,4188.205128,4446.153846,4218.974358,4236.410256,4498.974358,4189.230769,4660.512820,3996.410257,4053.846153
97,4329.230769,4520.000000,4538.461538,4231.794871,4537.948717,4188.717948,4442.051282,4214.871794,4232.307692,4505.128205,4197.435897,4656.410256,3993.333334,4049.743589
98,4336.410256,4523.076923,4540.512820,4234.358974,4546.666666,4194.871794,4438.974358,4211.794871,4231.794871,4506.153846,4195.384615,4660.000000,3998.974359,4051.794871
99,4342.051282,4523.076923,4538.974358,4240.000000,4557.435897,4199.487179,4442.564102,4213.333333,4237.948717,4504.102564,4187.692307,4667.179487,4004.615384,4057.948717
100,4332.820512,4524.102564,4546.666666,4240.000000,4573.333333,4200.512820,4445.641025,4218.974358,4242.564102,4508.205128,4196.923076,4669.230769,4007.179487,4060.512820
101,4308.717948,4522.564102,4550.769230,4234.871794,4587.692307,4201.025641,4443.076923,4221.025641,4241.025641,4512.307692,4207.692307,4664.615384,4006.666666,4056.923076
102,4289.743589,4519.487179,4543.076923,4229.230769,4594.871794,4207.692307,4441.538461,4217.435897,4234.871794,4506.666666,4201.025641,4661.025641,4001.538461,4053.333333
103,4287.692307,4523.076923,4544.102564,4234.358974,4601.538461,4214.871794,4444.615384,4215.384615,4236.410256,4502.051282,4200.512820,4664.615384,4001.025641,4058.461538
104,4284.102564,4529.230769,4550.256410,4243.076923,4609.743589,4216.410256,4446.153846,4217.948717,4243.589743,4510.256410,4203.076923,4668.717948,4008.205128,4064.102564
105,4267.692307,4522.051282,4544.102564,4240.512820,4614.871794,4215.897435,4442.564102,4218.461538,4240.000000,4509.230769,4197.435897,4666.153846,4011.282051,4058.974358
106,4262.051282,4513.846153,4536.410256,4233.333333,4616.923076,4215.384615,4441.025641,4215.384615,4231.794871,4495.384615,4197.435897,4662.051282,4008.205128,4051.794871
107,4273.333333,4519.487179,4541.025641,4234.358974,4615.384615,4214.871794,4443.076923,4211.794871,4234.358974,4498.974358,4204.102564,4663.589743,4003.589743,4054.871794
108,4276.410256,4523.589743,4542.564102,4234.871794,4613.333333,4214.871794,4441.538461,4204.615384,4235.384615,4505.128205,4199.487179,4663.076923,4002.051282,4056.923076
109,4279.487179,4520.512820,4537.948717,4236.923076,4618.974358,4215.897435,4440.512820,4205.128205,4230.256410,4497.435897,4192.820512,4659.487179,4000.512820,4053.333333
110,4303.589743,4523.076923,4540.512820,4246.153846,4628.205128,4215.897435,4442.564102,4212.820512,4233.333333,4497.435897,4194.871794,4661.025641,4003.589743,4054.358974
111,4327.179487,4525.128205,4538.461538,4243.589743,4631.794871,4216.410256,4438.974358,4210.256410,4233.846153,4500.000000,4193.846153,4657.435897,4005.128205,4055.384615
112,4336.923076,4523.076923,4533.333333,4236.410256,4636.410256,4216.923076,4435.897435,4200.512820,4221.538461,4490.256410,4194.358974,4649.230769,4003.076923,4051.794871
113,4349.230769,4522.051282,4535.384615,4242.564102,4646.666666,4216.410256,4441.538461,4202.051282,4223.076923,4488.717948,4195.384615,4649.743589,4005.128205,4052.820512
114,4353.846153,4525.128205,4539.487179,4246.666666,4652.820512,4222.564102,4445.128205,4208.717948,4234.358974,4503.589743,4191.794871,4657.435897,4010.769230,4058.461538
115,4337.948717,4533.333333,4539.487179,4245.641025,4656.923076,4230.769230,4443.076923,4213.333333,4233.333333,4507.692307,4194.871794,4662.564102,4012.820512,4058.461538
116,4321.538461,4536.410256,4541.538461,4248.205128,4662.564102,4231.282051,4444.615384,4214.358974,4230.256410,4500.512820,4206.153846,4664.615384,4014.358974,4061.025641
117,4308.205128,4530.256410,4542.051282,4248.717948,4667.179487,4229.743589,4444.615384,4207.179487,4234.358974,4495.384615,4203.076923,4659.487179,4015.897435,4063.076923
118,4290.256410,4525.641025,4537.948717,4243.076923,4667.179487,4228.717948,4440.000000,4201.538461,4232.307692,4490.769230,4194.871794,4651.282051,4008.205128,4054.358974
119,4274.871794,4525.641025,4536.923076,4242.051282,4667.692307,4227.692307,4441.025641,4209.230769,4230.769230,4493.333333,4200.000000,4652.307692,4006.153846,4050.256410
120,4265.128205,4529.230769,4539.487179,4245.641025,4675.897435,4229.743589,4444.615384,4218.461538,4239.487179,4503.589743,4201.025641,4659.487179,4015.897435,4059.487179
121,4246.153846,4530.256410,4540.512820,4249.230769,4683.076923,4234.358974,4443.589743,4215.384615,4240.000000,4503.076923,4198.974358,4658.461538,4016.410256,4063.589743
122,4223.076923,4526.153846,4534.358974,4248.205128,4683.076923,4234.358974,4440.000000,4204.102564,4228.205128,4492.307692,4202.564102,4651.282051,4010.256410,4053.333333
123,4230.256410,4522.051282,4527.692307,4243.589743,4683.076923,4231.794871,4440.512820,4199.487179,4225.128205,4491.282051,4197.435897,4648.205128,4006.666666,4047.179487
124,4270.769230,4524.615384,4532.307692,4243.076923,4688.205128,4232.307692,4443.589743,4206.153846,4233.333333,4492.820512,4188.205128,4651.794871,4006.153846,4052.820512
125,4307.179487,4525.128205,4541.538461,4246.666666,4694.871794,4235.897435,4444.615384,4214.871794,4234.871794,4492.820512,4191.794871,4657.435897,4011.794871,4057.948717
126,4323.076923,4525.128205,4541.025641,4249.743589,4698.461538,4240.512820,4443.076923,4217.948717,4230.256410,4502.564102,4202.051282,4662.564102,4019.487179,4058.461538
127,4334.358974,4527.179487,4535.384615,4248.205128,4697.948717,4243.076923,4442.564102,4216.410256,4236.410256,4507.179487,4207.179487,4661.538461,4017.435897,4056.923076
128,4346.153846,4532.820512,4545.128205,4247.692307,4702.051282,4246.666666,4449.743589,4219.487179,4247.179487,4505.641025,4214.358974,4662.051282,4019.487179,4060.000000
129,4341.025641,4543.076923,4554.358974,4250.769230,4713.333333,4251.282051,4458.461538,4223.589743,4244.615384,4507.179487,4214.871794,4670.256410,4027.692307,4065.128205
130,4321.025641,4535.897435,4545.128205,4247.692307,4713.333333,4250.769230,4458.461538,4217.948717,4233.846153,4497.435897,4202.051282,4670.769230,4020.512820,4061.538461
131,4310.769230,4521.025641,4539.487179,4245.641025,4703.076923,4245.641025,4455.384615,4218.974358,4235.897435,4486.153846,4198.974358,4663.589743,4013.333333,4054.871794
132,4321.538461,4529.230769,4551.282051,4250.769230,4707.692307,4251.282051,4458.974358,4232.307692,4252.307692,4505.128205,4221.538461,4669.743589,4027.692307,4065.128205
133,4327.179487,4538.974358,4558.461538,4252.307692,4718.461538,4259.487179,4461.025641,4233.333333,4255.384615,4520.512820,4233.846153,4675.897435,4038.461538,4077.948717
134,4316.923076,4531.282051,4548.717948,4246.153846,4717.948717,4255.384615,4453.333333,4217.948717,4239.487179,4503.076923,4214.358974,4666.666666,4028.205128,4069.743589
135,4311.794871,4531.794871,4540.000000,4248.717948,4714.358974,4251.282051,4449.743589,4212.820512,4236.410256,4494.871794,4200.512820,4661.538461,4020.512820,4059.487179
136,4318.461538,4540.000000,4542.564102,4256.410256,4718.974358,4260.000000,4456.410256,4223.076923,4248.205128,4508.717948,4211.794871,4664.102564,4026.153846,4063.076923
137,4333.333333,4536.923076,4547.692307,4259.487179,4722.564102,4265.641025,4462.564102,4233.333333,4251.282051,4513.846153,4221.025641,4664.102564,4033.846153,4067.179487
138,4354.871794,4535.897435,4545.128205,4263.589743,4719.487179,4263.076923,4462.051282,4231.794871,4244.615384,4506.666666,4215.384615,4661.538461,4032.307692,4064.102564
139,4374.871794,4540.000000,4537.948717,4265.128205,4717.435897,4263.076923,4458.974358,4226.666666,4244.102564,4505.641025,4206.666666,4660.000000,4026.153846,4060.512820
140,4383.589743,4531.282051,4537.435897,4256.923076,4718.974358,4262.564102,4456.923076,4227.692307,4247.179487,4509.743589,4208.717948,4657.948717,4023.076923,4060.512820
141,4383.076923,4523.589743,4537.435897,4248.205128,4717.948717,4259.487179,4452.820512,4224.102564,4245.128205,4507.179487,4212.307692,4657.435897,4023.076923,4058.974358
142,4382.051282,4523.076923,4532.820512,4245.641025,4713.846153,4259.487179,4453.333333,4218.974358,4239.487179,4500.512820,4208.205128,4657.435897,4020.000000,4051.282051
143,4384.102564,4522.051282,4531.794871,4245.641025,4712.307692,4260.000000,4456.410256,4224.102564,4237.948717,4498.974358,4203.076923,4655.897435,4016.923076,4047.692307
144,4383.076923,4524.615384,4535.897435,4247.692307,4718.974358,4261.025641,4457.948717,4229.743589,4244.102564,4503.589743,4206.153846,4659.487179,4021.025641,4056.410256
145,4371.794871,4530.256410,4539.487179,4249.743589,4722.051282,4264.102564,4458.974358,4231.794871,4254.358974,4507.179487,4211.794871,4664.615384,4027.179487,4063.589743
146,4356.410256,4523.589743,4538.974358,4243.076923,4715.897435,4260.000000,4454.358974,4228.717948,4255.897435,4504.615384,4209.230769,4660.512820,4024.615384,4056.410256
147,4345.641025,4510.769230,4535.384615,4236.923076,4713.333333,4254.871794,4445.641025,4218.974358,4242.051282,4497.435897,4204.615384,4650.769230,4020.512820,4047.179487
148,4336.410256,4512.820512,4526.153846,4233.333333,4716.923076,4255.897435,4440.000000,4210.256410,4226.153846,4487.692307,4196.410256,4644.615384,4012.820512,4042.051282
149,4331.282051,4517.435897,4522.051282,4229.743589,4714.871794,4253.333333,4441.025641,4211.282051,4224.615384,4483.076923,4186.153846,4642.051282,4002.051282,4036.923076
150,4340.512820,4521.538461,4534.358974,4235.897435,4715.897435,4256.923076,4449.230769,4221.538461,4237.435897,4493.846153,4196.923076,4648.717948,4006.666666,4045.128205
151,4350.256410,4531.282051,4544.615384,4250.769230,4720.512820,4265.641025,4460.000000,4233.846153,4249.230769,4505.641025,4216.923076,4663.589743,4024.102564,4060.512820
152,4344.102564,4530.256410,4540.000000,4248.717948,4718.974358,4261.025641,4458.461538,4236.410256,4247.692307,4500.000000,4216.923076,4664.102564,4025.641025,4061.538461
153,4334.358974,4521.025641,4537.948717,4233.846153,4714.358974,4251.794871,4446.666666,4228.205128,4236.410256,4489.743589,4207.692307,4651.794871,4014.871794,4054.358974
154,4336.410256,4522.564102,4541.538461,4231.282051,4711.282051,4253.846153,4445.641025,4223.076923,4233.333333,4491.282051,4208.205128,4653.333333,4011.282051,4054.358974
155,4349.230769,4527.179487,4535.897435,4234.871794,4708.717948,4253.333333,4446.666666,4219.487179,4235.897435,4493.846153,4197.435897,4654.358974,4004.102564,4051.282051
156,4363.076923,4522.051282,4525.128205,4226.153846,4707.179487,4246.153846,4441.538461,4211.282051,4228.205128,4487.692307,4182.564102,4640.512820,3990.256411,4042.051282
157,4375.897435,4520.000000,4522.051282,4218.461538,4704.102564,4248.717948,4438.974358,4208.717948,4218.974358,4484.615384,4186.153846,4634.871794,3984.615385,4038.974358
158,4388.717948,4528.205128,4524.615384,4227.692307,4701.025641,4249.743589,4442.051282,4214.871794,4220.512820,4487.179487,4190.256410,4641.025641,3984.615385,4043.076923
159,4398.974358,4532.820512,4525.128205,4232.820512,4701.025641,4247.179487,4443.076923,4215.897435,4225.641025,4486.153846,4185.128205,4646.153846,3984.102565,4048.205128
160,4401.538461,4527.692307,4523.589743,4223.589743,4701.538461,4248.717948,4438.974358,4206.153846,4222.051282,4483.076923,4183.589743,4645.128205,3984.615385,4049.230769
161,4395.384615,4522.564102,4522.051282,4219.487179,4698.974358,4248.717948,4434.871794,4196.923076,4213.333333,4481.538461,4188.717948,4640.512820,3983.076924,4042.564102
162,4381.538461,4524.102564,4520.512820,4220.512820,4698.461538,4246.666666,4437.435897,4202.051282,4217.948717,4483.589743,4189.230769,4638.974358,3974.871795,4038.461538
163,4368.205128,4525.128205,4522.051282,4223.589743,4700.512820,4250.256410,4443.076923,4214.358974,4232.307692,4488.205128,4189.743589,4646.153846,3972.307693,4044.102564
164,4363.076923,4525.128205,4525.641025,4225.128205,4701.025641,4256.410256,4445.128205,4220.000000,4236.410256,4490.256410,4196.410256,4652.307692,3977.948718,4050.256410
165,4358.461538,4526.666666,4525.641025,4222.564102,4700.512820,4253.846153,4446.666666,4218.974358,4232.820512,4491.794871,4196.410256,4650.769230,3980.512821,4048.717948
166,4348.717948,4522.564102,4523.589743,4219.487179,4700.512820,4248.205128,4446.153846,4217.948717,4230.769230,4491.282051,4191.282051,4649.230769,3976.923077,4043.589743
167,4340.000000,4518.974358,4521.025641,4221.538461,4697.948717,4248.717948,4437.435897,4209.230769,4221.025641,4482.564102,4190.769230,4645.128205,3969.743590,4036.923076
168,4338.461538,4523.076923,4521.025641,4220.000000,4698.461538,4250.256410,4432.307692,4201.538461,4220.000000,4481.025641,4197.435897,4643.589743,3972.307693,4039.487179
169,4338.974358,4520.512820,4522.564102,4216.410256,4702.051282,4248.717948,4433.846153,4206.666666,4229.230769,4496.923076,4198.974358,4647.692307,3980.512821,4047.692307
170,4336.923076,4514.871794,4521.538461,4215.384615,4704.102564,4248.205128,4431.282051,4207.692307,4228.205128,4500.512820,4190.256410,4645.128205,3981.538462,4047.179487
171,4332.820512,4520.512820,4518.974358,4215.897435,4700.512820,4247.692307,4425.641025,4201.025641,4224.102564,4488.717948,4185.128205,4641.025641,3977.435898,4040.512820
172,4335.897435,4521.538461,4522.051282,4217.948717,4697.948717,4246.153846,4428.205128,4201.538461,4225.128205,4484.615384,4190.769230,4643.589743,3973.333334,4040.000000
173,4349.230769,4510.769230,4519.487179,4216.923076,4698.461538,4246.666666,4433.846153,4203.076923,4216.923076,4481.025641,4190.256410,4641.025641,3966.666667,4038.974358
174,4365.128205,4504.615384,4514.358974,4211.794871,4696.923076,4246.153846,4432.820512,4201.538461,4210.769230,4472.307692,4180.512820,4633.846153,3960.000000,4030.769230
175,4375.897435,4507.692307,4514.871794,4211.794871,4696.410256,4243.076923,4428.717948,4203.589743,4217.948717,4475.897435,4182.564102,4631.282051,3963.076924,4030.769230
176,4381.538461,4515.897435,4513.846153,4212.307692,4700.000000,4244.615384,4426.666666,4202.564102,4214.871794,4482.564102,4183.589743,4631.794871,3965.641026,4036.923076
177,4388.205128,4521.025641,4513.846153,4212.307692,4706.666666,4249.230769,4426.666666,4201.538461,4210.769230,4478.974358,4179.487179,4635.384615,3970.256411,4040.512820
178,4388.205128,4514.871794,4517.435897,4214.871794,4706.666666,4250.256410,4428.717948,4208.717948,4222.564102,4482.051282,4187.692307,4642.051282,3978.461539,4043.589743
179,4367.179487,4506.666666,4517.435897,4214.871794,4702.564102,4248.205128,4432.307692,4211.282051,4226.666666,4485.128205,4195.897435,4642.051282,3974.871795,4043.589743
180,4344.102564,4509.743589,4515.384615,4213.846153,4703.589743,4247.692307,4430.769230,4205.128205,4220.512820,4480.512820,4191.282051,4640.512820,3967.179488,4041.025641
181,4339.487179,4514.358974,4520.000000,4219.487179,4706.666666,4247.179487,4430.256410,4200.512820,4221.538461,4480.000000,4184.615384,4644.615384,3969.743590,4040.000000
182,4336.410256,4516.923076,4522.051282,4227.692307,4709.743589,4246.666666,4438.461538,4205.641025,4224.615384,4489.743589,4183.589743,4643.076923,3973.846154,4043.076923
183,4326.666666,4522.051282,4517.435897,4232.820512,4713.333333,4254.358974,4445.128205,4214.871794,4225.128205,4494.358974,4187.692307,4641.538461,3974.358975,4045.641025
184,4323.589743,4525.128205,4518.974358,4232.307692,4715.384615,4261.538461,4443.076923,4218.974358,4228.717948,4490.256410,4196.410256,4648.205128,3978.974359,4046.666666
185,4320.512820,4519.487179,4522.051282,4226.153846,4713.333333,4255.384615,4441.538461,4217.435897,4233.846153,4490.769230,4207.692307,4649.230769,3982.564103,4046.666666
186,4308.717948,4510.256410,4515.897435,4218.461538,4708.717948,4249.230769,4442.051282,4216.410256,4233.846153,4492.820512,4205.128205,4644.615384,3976.410257,4044.615384
187,4301.025641,4504.615384,4509.230769,4215.897435,4702.051282,4249.743589,4439.487179,4214.358974,4226.666666,4487.692307,4187.179487,4641.025641,3972.820513,4041.538461
188,4309.230769,4506.153846,4515.384615,4221.538461,4701.538461,4248.717948,4438.461538,4210.256410,4221.538461,4481.025641,4182.051282,4637.435897,3977.435898,4040.000000
189,4334.358974,4510.769230,4522.051282,4232.307692,4711.282051,4252.307692,4441.025641,4211.282051,4224.615384,4484.102564,4196.410256,4636.923076,3983.589744,4043.076923
190,4363.589743,4514.871794,4522.051282,4241.538461,4721.538461,4261.025641,4448.205128,4221.538461,4232.820512,4494.358974,4208.205128,4646.666666,3990.256411,4050.769230
191,4369.743589,4516.410256,4524.615384,4245.128205,4728.205128,4264.102564,4457.435897,4232.307692,4240.000000,4501.025641,4201.025641,4655.897435,3996.923077,4058.974358
192,4349.230769,4518.461538,4527.179487,4245.128205,4732.307692,4264.615384,4459.487179,4235.897435,4247.692307,4505.128205,4195.384615,4657.435897,4000.000000,4059.487179
193,4325.641025,4521.538461,4525.641025,4248.717948,4738.974358,4268.205128,4457.948717,4236.410256,4253.333333,4509.743589,4210.256410,4657.948717,4004.102564,4055.384615
194,4310.769230,4521.538461,4524.615384,4248.717948,4745.641025,4271.282051,4457.948717,4232.820512,4249.743589,4509.743589,4220.000000,4654.871794,4001.538461,4055.384615
195,4300.512820,4521.538461,4528.205128,4248.717948,4754.358974,4275.384615,4455.384615,4222.051282,4237.948717,4500.512820,4210.769230,4652.307692,3994.871795,4058.974358
196,4290.769230,4523.589743,4534.358974,4257.948717,4763.589743,4278.461538,4450.256410,4219.487179,4233.333333,4493.846153,4206.153846,4655.897435,3995.384616,4058.974358
197,4284.102564,4523.589743,4538.974358,4264.615384,4768.717948,4277.435897,4447.179487,4229.230769,4244.102564,4501.538461,4212.307692,4661.025641,4002.051282,4060.000000
198,4288.205128,4523.589743,4536.410256,4255.897435,4771.794871,4277.435897,4446.666666,4233.846153,4251.282051,4509.230769,4214.358974,4660.000000,4006.153846,4064.102564
199,4302.051282,4522.564102,4528.205128,4247.692307,4775.384615,4279.487179,4448.205128,4230.256410,4246.666666,4505.641025,4215.384615,4657.948717,4004.615384,4059.487179
200,4309.230769,4522.051282,4524.615384,4250.256410,4782.564102,4280.512820,4447.692307,4231.282051,4247.179487,4505.641025,4213.846153,4656.923076,4002.564102,4057.435897
201,4310.256410,4521.538461,4524.615384,4251.282051,4789.743589,4282.564102,4445.641025,4231.794871,4250.769230,4507.179487,4201.538461,4652.820512,4002.564102,4062.051282
202,4314.358974,4518.461538,4524.102564,4247.692307,4794.871794,4280.512820,4443.589743,4224.102564,4247.179487,4505.128205,4198.461538,4650.769230,3998.974359,4055.384615
203,4306.153846,4517.435897,4520.512820,4248.205128,4801.025641,4277.435897,4442.564102,4220.000000,4241.025641,4503.589743,4204.615384,4648.205128,3988.717949,4045.128205
204,4287.179487,4528.205128,4522.564102,4253.846153,4814.358974,4284.102564,4449.743589,4225.128205,4240.512820,4504.102564,4203.589743,4646.153846,3988.205129,4048.717948
205,4278.461538,4537.435897,4531.282051,4262.564102,4831.282051,4293.846153,4456.410256,4232.820512,4246.153846,4504.615384,4202.051282,4653.333333,3997.948718,4057.435897
206,4272.307692,4530.769230,4531.794871,4264.102564,4845.128205,4298.461538,4450.256410,4229.743589,4249.743589,4504.615384,4200.512820,4657.948717,3998.974359,4059.487179
207,4259.487179,4522.051282,4524.615384,4253.846153,4854.871794,4300.000000,4441.538461,4217.948717,4243.076923,4502.564102,4203.589743,4651.794871,3998.974359,4057.948717
208,4248.205128,4523.076923,4522.051282,4247.179487,4862.564102,4304.615384,4443.589743,4212.820512,4238.461538,4503.076923,4210.769230,4646.153846,4005.128205,4056.410256
209,4245.128205,4526.153846,4525.641025,4251.794871,4870.256410,4308.717948,4447.692307,4218.974358,4249.743589,4509.230769,4212.307692,4648.717948,4007.692307,4055.897435
210,4246.153846,4521.025641,4525.641025,4252.307692,4871.794871,4304.102564,4444.615384,4227.692307,4251.794871,4506.666666,4204.102564,4648.717948,4000.512820,4052.820512
211,4254.358974,4516.410256,4522.051282,4246.666666,4870.256410,4300.512820,4445.128205,4230.256410,4239.487179,4501.025641,4200.000000,4644.615384,3996.410257,4048.205128
212,4277.948717,4518.461538,4522.051282,4245.641025,4880.000000,4304.615384,4451.282051,4230.769230,4238.461538,4504.102564,4201.538461,4645.128205,3996.410257,4047.692307
213,4307.179487,4521.538461,4524.615384,4247.692307,4890.256410,4310.256410,4451.282051,4232.307692,4245.128205,4501.538461,4198.974358,4649.743589,3995.384616,4051.282051
214,4325.128205,4523.076923,4526.153846,4252.820512,4892.307692,4309.743589,4445.128205,4231.794871,4244.102564,4498.461538,4208.717948,4654.358974,3999.487180,4055.897435
215,4333.846153,4523.589743,4527.179487,4260.512820,4900.512820,4310.256410,4440.512820,4229.230769,4243.589743,4504.615384,4216.923076,4655.384615,4007.692307,4057.948717
216,4345.641025,4524.102564,4533.846153,4264.615384,4916.410256,4315.384615,4444.102564,4230.256410,4247.692307,4510.256410,4206.666666,4656.923076,4009.743589,4060.512820
217,4345.641025,4531.794871,4541.538461,4267.179487,4925.128205,4321.538461,4451.794871,4232.820512,4246.666666,4509.743589,4204.102564,4663.076923,4008.205128,4068.205128
218,4327.692307,4538.974358,4541.025641,4269.743589,4929.230769,4325.128205,4458.461538,4234.358974,4249.743589,4511.282051,4217.948717,4665.641025,4010.256410,4071.794871
219,4310.256410,4528.717948,4533.846153,4267.692307,4935.897435,4323.076923,4460.000000,4234.358974,4251.282051,4509.743589,4222.051282,4660.000000,4011.794871,4064.615384
220,4302.051282,4518.461538,4534.358974,4263.076923,4938.974358,4323.076923,4453.333333,4227.179487,4239.487179,4499.487179,4213.333333,4653.846153,4010.256410,4062.564102
221,4295.897435,4524.102564,4534.871794,4262.051282,4942.051282,4321.538461,4446.666666,4219.487179,4231.282051,4493.846153,4205.128205,4650.256410,4007.179487,4063.076923
222,4290.256410,4524.102564,4524.615384,4261.025641,4952.820512,4320.512820,4442.564102,4217.435897,4231.794871,4493.846153,4201.025641,4647.179487,4003.589743,4057.948717
223,4289.743589,4521.025641,4524.102564,4263.589743,4968.205128,4329.230769,4442.051282,4217.948717,4232.307692,4495.384615,4210.256410,4648.717948,4008.205128,4057.948717
224,4291.794871,4532.307692,4534.358974,4267.692307,4975.897435,4337.435897,4444.615384,4225.128205,4240.000000,4499.487179,4222.564102,4655.897435,4019.487179,4066.666666
225,4291.282051,4535.384615,4532.820512,4265.641025,4977.435897,4332.820512,4445.641025,4229.230769,4249.230769,4506.666666,4219.487179,4655.897435,4018.461538,4067.179487
226,4288.717948,4527.692307,4530.256410,4265.128205,4987.692307,4330.769230,4443.589743,4224.102564,4244.102564,4510.769230,4213.333333,4653.846153,4012.307692,4063.589743
227,4300.000000,4532.307692,4537.948717,4275.384615,5005.641025,4341.025641,4443.076923,4222.051282,4238.974358,4507.692307,4215.897435,4659.487179,4018.461538,4071.282051
228,4324.615384,4540.000000,4541.025641,4279.487179,5021.025641,4348.717948,4442.564102,4222.564102,4244.615384,4505.128205,4218.974358,4660.512820,4022.051282,4073.846153
229,4341.538461,4538.461538,4535.384615,4269.743589,5038.974358,4351.794871,4438.461538,4217.435897,4248.205128,4507.692307,4219.487179,4653.846153,4016.923076,4064.615384
230,4346.666666,4533.846153,4527.692307,4264.102564,5065.128205,4359.487179,4439.487179,4217.435897,4246.666666,4507.179487,4215.384615,4651.794871,4014.871794,4062.564102
231,4346.153846,4525.128205,4520.512820,4261.025641,5087.692307,4365.641025,4441.538461,4219.487179,4238.974358,4498.461538,4205.128205,4648.205128,4012.307692,4061.025641
232,4340.512820,4518.461538,4519.487179,4256.923076,5108.205128,4367.179487,4437.948717,4213.846153,4227.179487,4488.717948,4197.435897,4637.435897,4002.051282,4049.743589
233,4333.846153,4521.025641,4521.025641,4258.461538,5140.000000,4373.333333,4440.000000,4213.846153,4228.205128,4491.282051,4202.564102,4641.538461,4001.025641,4045.641025
234,4318.974358,4526.153846,4521.025641,4265.128205,5174.871794,4386.666666,4443.589743,4216.923076,4234.871794,4494.871794,4206.153846,4648.205128,4008.717948,4050.769230
235,4298.974358,4526.153846,4522.051282,4268.205128,5199.487179,4395.384615,4440.000000,4213.846153,4228.205128,4489.230769,4197.948717,4638.461538,4005.641025,4048.717948
236,4291.794871,4524.615384,4521.538461,4268.717948,5218.974358,4397.948717,4440.000000,4213.846153,4226.666666,4487.692307,4195.384615,4637.948717,4001.538461,4049.230769
237,4290.769230,4529.743589,4523.589743,4275.384615,5235.897435,4403.076923,4444.102564,4216.410256,4238.461538,4497.948717,4202.564102,4650.769230,4010.256410,4056.410256
238,4273.846153,4533.333333,4524.615384,4274.358974,5247.692307,4409.230769,4442.564102,4215.384615,4240.000000,4504.615384,4204.102564,4652.820512,4019.487179,4054.871794
239,4255.384615,4526.153846,4522.564102,4266.153846,5255.897435,4409.743589,4442.564102,4215.897435,4233.333333,4498.461538,4203.076923,4647.179487,4015.384615,4049.743589
240,4253.846153,4519.487179,4520.512820,4267.179487,5264.102564,4406.666666,4444.102564,4215.897435,4229.230769,4488.205128,4201.538461,4645.128205,4006.153846,4047.692307
241,4261.538461,4522.564102,4521.538461,4275.384615,5275.897435,4410.256410,4442.564102,4214.871794,4230.256410,4486.666666,4193.846153,4642.564102,3998.974359,4045.641025
242,4271.282051,4531.794871,4527.692307,4278.974358,5291.282051,4421.538461,4441.538461,4218.974358,4232.820512,4496.923076,4190.769230,4643.589743,4002.564102,4047.692307
243,4284.102564,4534.358974,4530.256410,4279.487179,5299.487179,4426.666666,4443.076923,4222.564102,4232.307692,4500.512820,4196.410256,4649.230769,4014.358974,4056.410256
244,4301.538461,4526.666666,4525.128205,4280.512820,5296.923076,4422.051282,4442.564102,4217.948717,4230.769230,4491.794871,4202.564102,4648.717948,4011.282051,4056.923076
245,4323.076923,4526.666666,4522.051282,4278.974358,5295.897435,4420.512820,4442.051282,4213.333333,4231.282051,4491.282051,4207.692307,4645.641025,4001.538461,4049.230769
246,4343.076923,4532.820512,4530.769230,4278.461538,5305.128205,4425.641025,4442.051282,4214.358974,4229.743589,4494.871794,4209.743589,4647.179487,4005.128205,4049.743589
247,4356.410256,4533.333333,4535.384615,4281.025641,5319.487179,4430.769230,4441.538461,4215.384615,4229.743589,4495.897435,4205.641025,4648.205128,4020.512820,4057.435897
248,4362.564102,4530.769230,4533.333333,4283.589743,5328.205128,4432.820512,4442.051282,4215.897435,4237.948717,4499.487179,4198.461538,4649.230769,4030.256410,4059.487179
249,4360.512820,4529.743589,4533.333333,4283.076923,5331.794871,4432.307692,4442.564102,4223.076923,4246.666666,4502.051282,4203.076923,4649.230769,4026.666666,4055.897435
250,4348.205128,4532.307692,4527.692307,4280.000000,5337.435897,4435.384615,4442.564102,4228.717948,4248.717948,4500.512820,4220.000000,4647.179487,4023.589743,4054.871794
251,4332.307692,4532.820512,4524.615384,4278.461538,5337.948717,4438.974358,4441.025641,4223.076923,4242.051282,4500.512820,4227.179487,4647.692307,4029.743589,4056.410256
252,4327.179487,4530.769230,4533.333333,4281.025641,5329.230769,4437.948717,4443.076923,4221.538461,4238.974358,4502.051282,4220.512820,4652.307692,4037.435897,4060.000000
253,4327.692307,4531.794871,4540.512820,4286.666666,5322.051282,4437.948717,4454.358974,4230.769230,4245.641025,4502.564102,4214.358974,4654.871794,4034.358974,4062.564102
254,4320.512820,4538.974358,4536.410256,4288.717948,5324.102564,4438.974358,4457.948717,4235.384615,4251.282051,4508.717948,4213.333333,4656.923076,4030.256410,4061.025641
255,4314.871794,4538.974358,4537.435897,4289.230769,5333.333333,4436.410256,4448.205128,4230.769230,4250.256410,4512.307692,4217.948717,4658.974358,4033.333333,4065.128205
