,AF3,F7,F3,FC5,T7,P7,O1,O2,P8,T8,FC6,F4,F8,AF4
0,4328.717948,4532.307692,4555.897435,4252.820512,4464.102564,4199.487179,4434.358974,4218.974358,4229.230769,4496.923076,4165.128205,4666.153846,3952.307693,4073.846153
1,4326.666666,4530.256410,4553.333333,4253.333333,4460.000000,4206.666666,4436.923076,4218.974358,4233.333333,4497.435897,4161.025641,4664.615384,3950.769231,4069.230769
2,4328.205128,4526.666666,4557.948717,4268.717948,4461.538461,4211.282051,4437.435897,4224.102564,4241.025641,4497.948717,4163.589743,4668.205128,3945.128206,4068.205128
3,4336.410256,4525.641025,4565.128205,4280.512820,4472.820512,4214.871794,4444.102564,4224.102564,4245.128205,4507.179487,4182.564102,4676.923076,3957.435898,4079.487179
4,4342.051282,4529.230769,4571.282051,4283.589743,4477.948717,4218.461538,4448.717948,4224.615384,4250.256410,4511.794871,4190.769230,4684.102564,3962.051283,4089.743589
5,4337.435897,4527.692307,4568.717948,4282.564102,4472.307692,4216.410256,4442.564102,4228.205128,4249.743589,4504.615384,4176.923076,4683.589743,3956.410257,4088.205128
6,4336.923076,4516.923076,4566.153846,4281.538461,4466.153846,4207.179487,4432.820512,4228.205128,4243.076923,4501.025641,4167.179487,4678.974358,3962.564103,4082.051282
7,4345.128205,4511.282051,4569.230769,4284.102564,4464.615384,4204.102564,4430.256410,4225.641025,4242.564102,4502.564102,4169.230769,4679.487179,3963.076924,4083.589743
8,4346.666666,4517.948717,4571.794871,4291.794871,4468.205128,4205.641025,4435.384615,4225.641025,4241.025641,4502.051282,4171.282051,4682.051282,3958.461539,4087.179487
9,4343.076923,4515.897435,4568.717948,4297.435897,4473.846153,4206.666666,4438.974358,4226.153846,4240.000000,4503.076923,4168.717948,4678.461538,3963.076924,4081.538461
10,4338.461538,4496.923076,4559.487179,4295.897435,4471.282051,4212.307692,4441.025641,4220.000000,4244.102564,4501.025641,4163.589743,4669.230769,3953.333334,4070.256410
11,4329.743589,4487.692307,4551.794871,4291.794871,4465.128205,4214.871794,4441.025641,4214.871794,4239.487179,4493.846153,4155.897435,4661.025641,3936.410257,4063.076923
12,4328.717948,4495.897435,4551.282051,4287.692307,4465.128205,4211.794871,4437.948717,4215.384615,4232.307692,4494.358974,4149.743589,4658.974358,3943.076924,4066.153846
13,4340.512820,4505.128205,4556.410256,4285.641025,4468.205128,4211.794871,4439.487179,4220.512820,4238.974358,4501.025641,4154.871794,4664.615384,3959.487180,4071.282051
14,4345.641025,4505.128205,4557.435897,4289.230769,4470.256410,4217.948717,4443.589743,4229.230769,4253.846153,4500.512820,4164.102564,4669.230769,3963.589744,4071.282051
15,4344.615384,4507.179487,4558.461538,4296.923076,4471.282051,4219.487179,4444.615384,4238.461538,4260.512820,4500.512820,4167.179487,4672.307692,3964.615385,4073.333333
16,4346.153846,4513.333333,4561.025641,4301.538461,4478.974358,4223.076923,4446.666666,4241.538461,4262.051282,4509.230769,4170.256410,4673.333333,3966.666667,4075.384615
17,4344.102564,4508.717948,4560.000000,4302.051282,4482.564102,4227.692307,4447.692307,4233.846153,4257.435897,4509.743589,4172.820512,4668.205128,3959.487180,4073.333333
18,4338.974358,4499.487179,4555.384615,4294.871794,4478.461538,4223.076923,4445.128205,4225.128205,4245.641025,4498.461538,4164.615384,4662.051282,3949.743590,4068.205128
19,4338.461538,4503.076923,4551.794871,4283.076923,4475.897435,4216.923076,4444.102564,4222.051282,4241.538461,4498.461538,4156.410256,4661.025641,3955.897436,4065.128205
20,4343.076923,4510.256410,4557.435897,4287.179487,4475.384615,4220.000000,4444.615384,4226.666666,4248.205128,4501.538461,4163.076923,4663.076923,3969.230770,4069.230769
21,4349.743589,4514.871794,4567.692307,4301.538461,4477.948717,4223.076923,4446.153846,4235.384615,4257.948717,4498.461538,4175.384615,4669.230769,3965.641026,4078.974358
22,4349.230769,4509.743589,4566.153846,4302.051282,4479.487179,4216.923076,4446.153846,4236.923076,4260.512820,4501.538461,4173.846153,4670.769230,3954.871795,4078.974358
23,4340.512820,4493.846153,4554.871794,4293.846153,4472.307692,4208.205128,4436.923076,4229.743589,4251.282051,4502.051282,4162.051282,4660.512820,3953.846154,4066.666666
24,4340.512820,4494.871794,4552.307692,4294.358974,4466.153846,4209.743589,4433.333333,4227.179487,4238.974358,4495.384615,4161.538461,4654.871794,3953.846154,4067.692307
25,4345.641025,4508.205128,4555.897435,4288.717948,4468.717948,4214.871794,4444.102564,4229.230769,4237.435897,4494.358974,4167.692307,4658.461538,3953.333334,4074.358974
26,4340.000000,4502.051282,4554.358974,4278.974358,4467.692307,4217.435897,4449.230769,4226.666666,4244.102564,4494.871794,4163.589743,4653.846153,3957.435898,4064.102564
27,4330.256410,4486.153846,4548.717948,4279.487179,4466.666666,4217.435897,4441.025641,4216.923076,4234.871794,4486.153846,4154.871794,4645.128205,3956.923077,4053.333333
28,4329.230769,4486.153846,4545.128205,4280.000000,4469.743589,4214.358974,4434.871794,4212.820512,4226.666666,4484.615384,4151.794871,4646.153846,3952.307693,4056.923076
29,4333.846153,4500.000000,4548.717948,4278.974358,4468.717948,4212.307692,4437.948717,4220.000000,4240.512820,4495.384615,4155.897435,4648.717948,3954.871795,4064.102564
30,4338.461538,4503.076923,4553.846153,4278.974358,4463.589743,4212.307692,4441.538461,4227.692307,4246.666666,4495.897435,4162.564102,4648.205128,3958.461539,4065.128205
31,4342.564102,4494.358974,4553.846153,4277.948717,4464.615384,4213.846153,4443.589743,4232.820512,4242.564102,4491.794871,4170.256410,4655.384615,3951.282052,4067.692307
32,4345.641025,4494.871794,4555.384615,4280.512820,4470.256410,4212.820512,4448.205128,4241.025641,4250.769230,4500.000000,4176.923076,4662.051282,3948.717949,4071.282051
33,4347.179487,4502.051282,4557.948717,4284.615384,4473.846153,4214.871794,4449.743589,4244.102564,4260.000000,4504.615384,4178.974358,4662.051282,3962.564103,4071.794871
34,4346.153846,4497.435897,4555.384615,4279.487179,4476.923076,4219.487179,4446.153846,4236.410256,4254.358974,4499.487179,4173.846153,4657.948717,3975.897436,4071.282051
35,4345.128205,4497.948717,4555.384615,4277.948717,4472.820512,4216.923076,4443.589743,4229.743589,4247.692307,4497.948717,4167.692307,4657.435897,3974.871795,4070.256410
36,4345.641025,4506.666666,4556.410256,4282.051282,4467.692307,4209.230769,4442.564102,4228.205128,4250.256410,4496.923076,4170.256410,4657.435897,3964.615385,4071.282051
37,4345.128205,4503.589743,4554.358974,4280.512820,4468.717948,4209.230769,4440.512820,4226.666666,4249.230769,4493.846153,4172.307692,4654.358974,3958.974359,4069.743589
38,4344.102564,4497.435897,4554.358974,4277.948717,4469.230769,4214.358974,4440.512820,4228.717948,4244.102564,4495.897435,4169.230769,4656.923076,3965.641026,4069.743589
39,4344.615384,4494.871794,4555.384615,4278.461538,4469.743589,4211.282051,4440.512820,4229.743589,4243.076923,4499.487179,4168.205128,4657.948717,3976.410257,4075.897435
40,4348.717948,4502.051282,4553.333333,4278.461538,4470.256410,4209.230769,4440.512820,4228.717948,4249.743589,4501.538461,4168.205128,4651.794871,3976.923077,4077.948717
41,4349.230769,4514.871794,4552.820512,4280.000000,4469.743589,4216.410256,4443.589743,4230.256410,4248.717948,4500.000000,4170.769230,4649.743589,3964.102565,4071.282051
42,4345.128205,4515.897435,4552.820512,4283.076923,4469.230769,4218.461538,4446.666666,4232.307692,4239.487179,4492.307692,4172.307692,4654.871794,3955.897436,4065.641025
43,4349.743589,4513.846153,4557.435897,4281.025641,4472.820512,4215.897435,4450.769230,4236.410256,4245.641025,4492.820512,4171.794871,4658.974358,3960.000000,4072.307692
44,4354.871794,4513.333333,4559.487179,4277.435897,4474.871794,4217.435897,4450.256410,4239.487179,4253.333333,4498.974358,4166.153846,4657.435897,3962.051283,4076.410256
45,4353.333333,4509.230769,4556.410256,4277.435897,4472.820512,4216.410256,4446.666666,4236.410256,4251.282051,4496.923076,4164.615384,4654.871794,3959.487180,4071.794871
46,4353.333333,4515.384615,4558.461538,4278.974358,4472.307692,4213.333333,4448.205128,4233.846153,4252.820512,4501.538461,4174.358974,4656.923076,3965.128206,4073.333333
47,4351.282051,4516.410256,4562.051282,4278.974358,4466.666666,4217.948717,4449.230769,4235.897435,4255.384615,4511.282051,4180.000000,4658.974358,3967.692308,4077.435897
48,4338.974358,4492.307692,4554.358974,4272.307692,4458.974358,4215.897435,4442.564102,4229.743589,4246.153846,4506.153846,4169.743589,4651.282051,3958.974359,4071.282051
49,4333.846153,4480.512820,4548.205128,4263.076923,4458.461538,4205.128205,4437.948717,4223.076923,4240.000000,4495.897435,4156.923076,4643.589743,3957.948718,4061.025641
50,4338.974358,4496.410256,4551.794871,4263.589743,4463.589743,4207.179487,4441.025641,4223.076923,4242.564102,4493.846153,4162.051282,4645.641025,3961.025642,4061.538461
51,4340.512820,4503.076923,4554.871794,4268.717948,4469.230769,4213.333333,4442.564102,4219.487179,4240.512820,4492.820512,4168.205128,4647.692307,3949.230770,4064.615384
52,4338.461538,4502.564102,4549.743589,4267.692307,4466.153846,4210.769230,4441.538461,4218.461538,4245.128205,4488.717948,4160.000000,4643.589743,3942.564103,4060.000000
53,4332.820512,4503.076923,4538.974358,4265.641025,4458.974358,4207.179487,4440.000000,4219.487179,4244.615384,4482.564102,4148.717948,4634.871794,3946.666667,4052.307692
54,4328.205128,4498.461538,4535.897435,4266.153846,4462.564102,4207.692307,4441.538461,4218.461538,4233.333333,4484.102564,4150.256410,4631.282051,3945.128206,4048.717948
55,4336.410256,4502.564102,4547.179487,4266.153846,4471.282051,4211.282051,4447.179487,4224.615384,4237.435897,4495.384615,4161.025641,4639.487179,3944.615385,4055.897435
56,4348.205128,4512.820512,4555.897435,4271.282051,4473.846153,4215.897435,4449.230769,4233.846153,4245.641025,4497.948717,4167.692307,4649.743589,3954.358975,4066.666666
57,4353.846153,4516.410256,4556.410256,4282.564102,4475.897435,4222.051282,4450.256410,4235.384615,4243.589743,4498.461538,4175.897435,4656.923076,3966.666667,4074.358974
58,4353.333333,4516.410256,4556.923076,4281.538461,4477.435897,4223.076923,4452.820512,4232.820512,4247.179487,4503.076923,4183.076923,4656.923076,3968.205129,4074.871794
59,4347.692307,4513.333333,4553.846153,4266.153846,4472.820512,4217.948717,4451.282051,4235.384615,4252.307692,4502.564102,4177.435897,4649.743589,3960.512821,4066.666666
60,4342.051282,4513.846153,4550.256410,4261.538461,4470.769230,4221.538461,4452.820512,4234.871794,4248.717948,4501.538461,4165.641025,4645.641025,3957.948718,4062.564102
61,4343.589743,4518.974358,4555.384615,4266.153846,4476.410256,4229.230769,4459.487179,4233.846153,4254.358974,4504.102564,4165.128205,4645.128205,3960.000000,4065.128205
62,4343.589743,4515.384615,4551.282051,4262.564102,4474.871794,4225.641025,4452.820512,4232.307692,4255.384615,4500.000000,4170.256410,4640.000000,3957.435898,4064.615384
63,4340.000000,4501.538461,4542.051282,4260.000000,4467.692307,4216.410256,4441.025641,4228.205128,4241.538461,4496.410256,4164.615384,4638.461538,3951.794872,4064.102564
64,4346.666666,4505.128205,4555.897435,4265.128205,4471.794871,4216.923076,4450.769230,4231.282051,4245.641025,4504.615384,4164.615384,4648.717948,3951.282052,4068.717948
65,4357.435897,4523.589743,4569.230769,4265.641025,4476.923076,4224.615384,4464.615384,4238.461538,4257.948717,4513.846153,4180.000000,4657.948717,3961.538462,4075.897435
66,4359.487179,4528.717948,4564.615384,4269.230769,4473.846153,4227.692307,4457.435897,4233.846153,4250.256410,4512.820512,4186.666666,4659.487179,3974.871795,4078.974358
67,4357.948717,4524.102564,4562.051282,4277.435897,4472.820512,4225.641025,4453.333333,4225.128205,4238.461538,4506.666666,4176.410256,4657.948717,3975.384616,4077.948717
68,4357.435897,4522.051282,4565.128205,4277.435897,4476.923076,4226.666666,4460.512820,4229.230769,4242.051282,4505.128205,4175.384615,4655.384615,3971.282052,4076.923076
69,4353.846153,4519.487179,4560.000000,4271.794871,4476.923076,4228.717948,4456.923076,4231.282051,4248.205128,4503.076923,4180.512820,4652.307692,3968.205129,4071.282051
70,4346.666666,4516.410256,4549.743589,4267.692307,4475.897435,4221.538461,4445.128205,4224.615384,4248.205128,4496.923076,4172.307692,4646.153846,3956.923077,4066.153846
71,4340.512820,4516.923076,4545.641025,4264.102564,4472.820512,4214.358974,4441.025641,4222.051282,4241.025641,4496.410256,4163.076923,4636.923076,3949.743590,4062.051282
72,4340.000000,4521.538461,4547.179487,4263.589743,4466.666666,4218.974358,4444.102564,4224.102564,4235.897435,4497.948717,4165.128205,4634.358974,3958.974359,4056.923076
73,4343.589743,4526.153846,4547.179487,4267.692307,4467.179487,4222.564102,4444.615384,4226.153846,4240.512820,4496.410256,4172.307692,4637.435897,3961.025642,4055.897435
74,4345.641025,4525.128205,4545.641025,4267.179487,4475.384615,4221.538461,4442.051282,4224.615384,4242.564102,4501.538461,4168.205128,4635.897435,3949.230770,4062.051282
75,4343.589743,4518.974358,4547.692307,4265.641025,4477.435897,4221.025641,4441.025641,4221.025641,4235.384615,4501.025641,4160.000000,4634.358974,3946.666667,4065.641025
76,4341.025641,4516.410256,4551.794871,4263.589743,4471.282051,4215.897435,4438.974358,4216.410256,4231.282051,4488.717948,4163.589743,4638.461538,3949.230770,4061.025641
77,4337.435897,4517.435897,4551.794871,4261.538461,4467.179487,4214.871794,4440.000000,4220.000000,4236.410256,4486.153846,4164.615384,4641.538461,3951.794872,4056.410256
78,4338.461538,4521.025641,4553.333333,4263.589743,4472.820512,4217.435897,4446.153846,4231.282051,4243.076923,4497.435897,4158.974358,4642.051282,3954.358975,4059.487179
79,4347.179487,4528.205128,4555.897435,4266.666666,4474.358974,4218.461538,4450.769230,4236.410256,4244.102564,4503.076923,4168.717948,4647.179487,3956.923077,4068.205128
80,4348.717948,4530.256410,4555.384615,4265.641025,4468.205128,4217.948717,4445.641025,4236.410256,4243.076923,4501.538461,4173.333333,4648.717948,3954.358975,4069.743589
81,4337.435897,4520.512820,4554.871794,4262.564102,4465.641025,4215.897435,4439.487179,4230.769230,4243.076923,4498.974358,4159.487179,4642.564102,3940.000000,4059.487179
82,4334.871794,4516.410256,4554.358974,4261.025641,4466.153846,4214.871794,4441.538461,4223.076923,4241.025641,4497.435897,4161.538461,4643.589743,3941.538462,4058.974358
83,4343.076923,4522.051282,4553.333333,4263.589743,4468.205128,4216.410256,4445.128205,4215.384615,4234.358974,4493.846153,4174.358974,4646.666666,3954.871795,4066.666666
84,4338.974358,4518.974358,4549.743589,4263.076923,4466.666666,4215.384615,4443.076923,4212.307692,4227.692307,4486.666666,4165.641025,4637.435897,3945.128206,4062.051282
85,4328.205128,4508.205128,4546.153846,4251.282051,4461.538461,4205.641025,4438.461538,4213.846153,4223.589743,4482.051282,4155.384615,4629.230769,3935.897436,4051.794871
86,4331.794871,4503.589743,4549.230769,4248.205128,4462.564102,4207.179487,4441.025641,4220.000000,4224.102564,4484.615384,4164.615384,4636.923076,3949.743590,4053.846153
87,4335.384615,4505.128205,4554.358974,4257.435897,4466.666666,4214.358974,4445.128205,4226.153846,4230.769230,4489.743589,4171.794871,4643.589743,3951.794872,4060.512820
88,4329.230769,4507.179487,4550.256410,4254.358974,4461.538461,4208.717948,4440.000000,4220.512820,4231.794871,4493.333333,4167.179487,4638.974358,3938.974359,4059.487179
89,4332.820512,4515.384615,4545.641025,4246.153846,4455.384615,4205.128205,4436.923076,4220.000000,4226.153846,4497.435897,4169.743589,4642.564102,3949.230770,4061.025641
90,4339.487179,4520.000000,4550.769230,4247.692307,4461.025641,4208.205128,4437.948717,4223.589743,4230.256410,4498.461538,4177.948717,4650.769230,3964.102565,4067.692307
91,4332.820512,4512.307692,4554.358974,4245.641025,4461.025641,4208.717948,4434.358974,4218.461538,4239.487179,4494.358974,4173.846153,4645.128205,3957.435898,4063.589743
92,4326.666666,4511.794871,4551.282051,4244.615384,4456.410256,4207.692307,4435.897435,4218.974358,4237.435897,4496.410256,4164.615384,4639.487179,3950.769231,4057.435897
93,4331.282051,4522.564102,4553.333333,4255.384615,4460.512820,4214.358974,4446.666666,4230.256410,4234.358974,4504.102564,4167.692307,4645.641025,3958.461539,4061.538461
94,4333.333333,4523.076923,4555.897435,4254.871794,4462.051282,4214.358974,4445.641025,4231.794871,4238.461538,4505.128205,4174.358974,4647.692307,3960.000000,4063.076923
95,4329.743589,4513.333333,4551.282051,4245.641025,4460.000000,4207.179487,4436.410256,4224.615384,4241.025641,4504.615384,4173.333333,4642.564102,3949.230770,4059.487179
96,4330.256410,4521.538461,4553.846153,4248.205128,4467.179487,4209.743589,4438.974358,4228.205128,4239.487179,4508.205128,4174.871794,4646.153846,3954.358975,4064.615384
97,4337.948717,4534.871794,4556.410256,4252.820512,4470.769230,4213.333333,4442.051282,4228.205128,4239.487179,4506.153846,4180.512820,4650.769230,3968.205129,4069.230769
98,4344.102564,4531.794871,4552.820512,4251.794871,4467.179487,4215.897435,4440.512820,4222.564102,4244.102564,4502.051282,4182.564102,4648.205128,3965.641026,4069.230769
99,4338.974358,4526.153846,4552.307692,4248.717948,4469.743589,4214.358974,4440.000000,4224.102564,4245.641025,4505.128205,4179.487179,4645.641025,3958.461539,4067.692307
100,4331.794871,4528.205128,4554.871794,4247.692307,4470.256410,4208.717948,4436.410256,4223.589743,4240.512820,4506.153846,4175.897435,4645.641025,3956.410257,4063.589743
101,4327.692307,4528.717948,4547.692307,4246.666666,4463.076923,4205.641025,4430.256410,4221.538461,4232.307692,4495.897435,4170.256410,4640.000000,3954.358975,4057.948717
102,4323.076923,4517.435897,4541.025641,4249.230769,4458.461538,4206.153846,4432.820512,4223.589743,4227.179487,4485.128205,4166.153846,4632.820512,3948.205129,4053.846153
103,4325.641025,4512.307692,4549.743589,4257.948717,4463.076923,4210.769230,4442.051282,4228.717948,4232.820512,4493.333333,4167.692307,4638.974358,3945.128206,4056.923076
104,4331.794871,4522.564102,4555.384615,4263.589743,4470.769230,4213.846153,4443.076923,4225.128205,4241.025641,4503.589743,4167.179487,4646.666666,3950.256411,4062.051282
105,4331.794871,4530.256410,4552.307692,4261.538461,4469.743589,4212.307692,4441.538461,4216.923076,4235.384615,4497.948717,4167.179487,4644.615384,3952.307693,4061.025641
106,4327.692307,4531.282051,4553.846153,4262.564102,4465.128205,4210.769230,4444.615384,4217.948717,4223.076923,4489.230769,4168.717948,4642.051282,3948.205129,4057.435897
107,4326.153846,4527.179487,4555.384615,4267.692307,4464.102564,4210.769230,4445.128205,4223.076923,4225.641025,4487.692307,4165.128205,4643.076923,3945.641026,4057.948717
108,4325.641025,4517.948717,4552.307692,4267.179487,4465.641025,4211.282051,4442.051282,4223.076923,4232.820512,4493.846153,4169.230769,4644.615384,3947.692308,4061.025641
109,4325.641025,4508.717948,4553.333333,4265.128205,4465.641025,4210.769230,4443.076923,4224.615384,4237.948717,4504.102564,4177.948717,4647.179487,3951.282052,4059.487179
110,4324.615384,4503.589743,4554.358974,4262.051282,4463.076923,4211.282051,4444.615384,4235.384615,4245.128205,4503.589743,4177.435897,4649.230769,3951.282052,4056.410256
111,4324.102564,4500.000000,4550.256410,4259.487179,4461.025641,4213.846153,4445.641025,4239.487179,4248.717948,4496.410256,4173.333333,4650.769230,3955.897436,4054.871794
112,4329.743589,4495.897435,4552.307692,4265.128205,4463.076923,4215.384615,4445.128205,4232.820512,4245.641025,4496.923076,4171.794871,4652.820512,3957.948718,4058.461538
113,4334.871794,4496.410256,4553.846153,4267.692307,4464.615384,4209.230769,4437.948717,4227.179487,4242.051282,4500.000000,4167.179487,4653.333333,3952.307693,4063.076923
114,4340.512820,4502.564102,4552.820512,4264.102564,4458.974358,4204.102564,4433.846153,4224.615384,4244.102564,4498.461538,4173.846153,4655.897435,3957.435898,4065.128205
115,4346.666666,4506.666666,4558.461538,4272.307692,4457.948717,4210.256410,4433.333333,4228.717948,4248.717948,4505.641025,4187.692307,4662.051282,3973.333334,4069.743589
116,4350.769230,4506.153846,4563.076923,4277.435897,4464.615384,4215.384615,4433.846153,4235.897435,4255.897435,4514.871794,4185.128205,4664.102564,3974.871795,4073.333333
117,4349.743589,4501.538461,4557.948717,4267.692307,4470.256410,4213.333333,4437.435897,4233.333333,4257.948717,4505.641025,4170.256410,4656.410256,3966.666667,4067.692307
118,4337.948717,4494.871794,4548.205128,4257.948717,4468.717948,4213.846153,4443.589743,4222.564102,4247.179487,4489.743589,4162.051282,4641.025641,3966.153847,4053.333333
119,4328.717948,4488.717948,4539.487179,4253.333333,4460.000000,4212.820512,4446.153846,4218.974358,4237.435897,4485.641025,4155.897435,4629.743589,3958.974359,4045.128205
120,4332.820512,4490.769230,4537.948717,4255.897435,4456.923076,4212.820512,4445.641025,4222.564102,4236.410256,4487.179487,4150.256410,4634.358974,3947.692308,4048.717948
121,4344.102564,4500.512820,4545.128205,4258.461538,4463.589743,4216.410256,4447.179487,4227.692307,4245.128205,4491.794871,4158.974358,4643.076923,3955.897436,4055.897435
122,4352.820512,4506.666666,4553.333333,4257.435897,4467.692307,4219.487179,4446.153846,4230.256410,4252.307692,4498.461538,4177.435897,4648.205128,3963.589744,4062.051282
123,4352.307692,4502.564102,4553.333333,4258.461538,4466.666666,4217.435897,4443.589743,4232.820512,4252.307692,4496.923076,4180.512820,4648.717948,3960.512821,4061.025641
124,4344.102564,4496.923076,4545.128205,4264.615384,4462.564102,4210.769230,4441.538461,4233.846153,4248.717948,4493.846153,4169.743589,4644.615384,3966.153847,4055.384615
125,4341.025641,4499.487179,4541.025641,4262.051282,4457.948717,4210.256410,4439.487179,4231.794871,4249.743589,4498.461538,4165.128205,4641.025641,3972.820513,4056.410256
126,4347.692307,4498.974358,4548.717948,4261.025641,4464.102564,4217.948717,4444.102564,4232.820512,4252.307692,4501.538461,4170.256410,4642.051282,3963.589744,4061.025641
127,4349.743589,4495.384615,4555.897435,4267.692307,4475.897435,4223.076923,4452.820512,4237.948717,4251.282051,4501.538461,4174.358974,4645.641025,3960.000000,4061.025641
128,4347.692307,4500.512820,4553.846153,4266.153846,4471.794871,4218.461538,4449.230769,4238.974358,4255.384615,4499.487179,4170.769230,4646.666666,3967.692308,4060.512820
129,4351.794871,4501.538461,4553.333333,4262.051282,4460.512820,4213.333333,4440.512820,4234.358974,4260.000000,4500.512820,4170.256410,4646.666666,3967.692308,4065.128205
130,4354.871794,4497.948717,4557.435897,4264.615384,4461.538461,4213.333333,4442.564102,4234.871794,4256.923076,4506.666666,4178.974358,4648.205128,3967.179488,4069.230769
131,4352.820512,4506.153846,4555.897435,4266.666666,4465.641025,4208.717948,4443.076923,4232.307692,4250.256410,4507.179487,4178.461538,4648.717948,3969.743590,4066.666666
132,4349.230769,4514.358974,4553.333333,4266.153846,4461.025641,4205.641025,4437.435897,4226.153846,4246.153846,4501.538461,4168.205128,4645.128205,3966.153847,4063.076923
133,4343.589743,4493.333333,4555.897435,4254.871794,4458.974358,4211.794871,4442.051282,4228.717948,4246.666666,4501.538461,4167.692307,4643.589743,3961.538462,4056.923076
134,4337.948717,4474.358974,4551.282051,4235.897435,4461.538461,4211.282051,4446.666666,4232.820512,4245.128205,4498.974358,4172.820512,4640.000000,3955.897436,4047.179487
135,4339.487179,4488.717948,4542.564102,4233.846153,4457.435897,4201.538461,4435.384615,4224.615384,4239.487179,4491.282051,4165.641025,4633.333333,3951.282052,4045.641025
136,4344.102564,4504.615384,4547.179487,4248.205128,4449.743589,4200.000000,4426.153846,4217.948717,4234.871794,4493.333333,4154.871794,4632.820512,3956.923077,4052.820512
137,4344.615384,4499.487179,4553.846153,4253.333333,4449.743589,4201.025641,4432.307692,4225.128205,4242.564102,4500.512820,4161.025641,4635.897435,3964.615385,4058.461538
138,4345.128205,4494.871794,4551.794871,4248.717948,4458.461538,4199.487179,4435.384615,4228.717948,4250.769230,4500.000000,4167.179487,4635.897435,3956.410257,4055.384615
139,4348.717948,4497.948717,4547.692307,4246.153846,4461.025641,4203.076923,4430.256410,4221.025641,4247.179487,4499.487179,4161.025641,4635.384615,3950.256411,4053.333333
140,4347.692307,4503.076923,4545.641025,4247.692307,4456.410256,4206.666666,4432.307692,4222.564102,4248.205128,4505.128205,4161.538461,4635.384615,3963.076924,4056.410256
141,4345.128205,4507.179487,4543.589743,4254.358974,4457.948717,4206.666666,4437.948717,4230.769230,4257.435897,4508.717948,4167.692307,4634.358974,3969.230770,4057.948717
142,4343.076923,4499.487179,4541.538461,4258.461538,4461.538461,4205.128205,4434.358974,4228.205128,4250.256410,4504.102564,4162.564102,4630.769230,3946.153847,4050.256410
143,4333.846153,4489.743589,4536.923076,4252.307692,4455.897435,4202.564102,4427.692307,4220.000000,4232.307692,4491.794871,4147.692307,4625.128205,3931.794872,4039.487179
144,4329.230769,4496.410256,4534.871794,4249.230769,4451.282051,4202.564102,4427.692307,4220.000000,4230.769230,4484.615384,4142.051282,4623.076923,3943.076924,4038.461538
145,4332.820512,4504.102564,4535.897435,4252.307692,4455.384615,4200.512820,4426.153846,4215.384615,4232.820512,4485.128205,4147.179487,4625.128205,3944.102565,4041.538461
146,4334.871794,4503.076923,4535.384615,4248.717948,4457.435897,4197.435897,4421.538461,4205.641025,4229.743589,4489.743589,4152.307692,4625.128205,3935.897436,4040.000000
147,4338.461538,4505.128205,4537.948717,4246.666666,4455.897435,4202.564102,4425.641025,4208.717948,4238.461538,4497.435897,4156.410256,4628.205128,3944.615385,4044.615384
148,4340.512820,4506.666666,4539.487179,4248.205128,4455.897435,4202.564102,4428.205128,4215.384615,4246.153846,4499.487179,4161.025641,4630.769230,3952.820513,4052.307692
149,4333.846153,4500.000000,4535.384615,4238.461538,4452.307692,4193.333333,4420.000000,4208.717948,4232.820512,4490.256410,4157.948717,4625.128205,3941.025642,4047.692307
150,4332.307692,4498.974358,4534.871794,4235.384615,4452.307692,4192.307692,4416.410256,4202.051282,4220.000000,4484.102564,4148.205128,4621.025641,3932.820513,4038.974358
151,4342.564102,4505.641025,4540.512820,4245.641025,4461.025641,4202.051282,4427.179487,4208.717948,4230.769230,4489.743589,4151.794871,4629.230769,3945.641026,4045.641025
152,4338.461538,4506.153846,4541.538461,4243.589743,4462.051282,4205.641025,4434.871794,4215.384615,4240.512820,4491.794871,4157.948717,4631.282051,3954.871795,4051.794871
153,4324.102564,4498.461538,4535.897435,4229.230769,4457.435897,4198.974358,4427.179487,4209.743589,4225.641025,4480.000000,4145.641025,4621.025641,3938.461539,4039.487179
154,4324.102564,4499.487179,4533.846153,4230.769230,4458.461538,4194.871794,4417.435897,4201.025641,4213.333333,4472.820512,4134.871794,4613.333333,3914.871795,4028.717948
155,4331.282051,4504.615384,4537.435897,4244.102564,4456.410256,4197.435897,4419.487179,4203.589743,4224.615384,4478.974358,4143.076923,4616.410256,3919.487180,4033.846153
156,4334.871794,4503.076923,4540.512820,4250.769230,4455.384615,4201.538461,4427.179487,4211.794871,4233.846153,4484.102564,4152.307692,4623.589743,3938.974359,4045.128205
157,4330.769230,4495.384615,4537.435897,4248.205128,4460.000000,4201.538461,4424.102564,4209.743589,4226.153846,4482.564102,4144.615384,4621.538461,3934.358975,4043.076923
158,4321.538461,4490.769230,4535.384615,4242.564102,4458.974358,4198.974358,4418.461538,4201.025641,4220.512820,4477.948717,4132.307692,4615.897435,3921.538462,4029.230769
159,4324.615384,4503.076923,4537.435897,4247.179487,4457.435897,4199.487179,4424.102564,4204.102564,4222.564102,4475.897435,4140.512820,4619.487179,3933.846154,4034.358974
160,4341.538461,4521.025641,4540.512820,4256.410256,4465.128205,4206.153846,4430.256410,4210.256410,4225.128205,4486.153846,4155.897435,4631.794871,3947.692308,4055.897435
161,4347.692307,4521.025641,4547.692307,4260.000000,4467.692307,4210.256410,4430.256410,4216.410256,4228.717948,4500.512820,4155.897435,4635.897435,3945.641026,4058.461538
162,4341.025641,4510.256410,4549.743589,4262.564102,4464.615384,4205.641025,4429.230769,4217.435897,4230.256410,4493.846153,4154.871794,4630.769230,3944.102565,4046.666666
163,4340.000000,4512.820512,4547.692307,4263.589743,4465.128205,4205.128205,4427.692307,4212.820512,4231.794871,4483.589743,4166.153846,4631.282051,3941.538462,4049.743589
164,4344.102564,4520.512820,4547.692307,4260.000000,4462.564102,4207.179487,4430.256410,4217.948717,4240.000000,4490.256410,4167.179487,4633.333333,3940.512821,4055.897435
165,4345.641025,4514.358974,4548.717948,4258.974358,4463.076923,4210.769230,4433.846153,4223.589743,4246.153846,4498.461538,4159.487179,4632.307692,3945.128206,4052.307692
166,4339.487179,4503.076923,4544.615384,4261.025641,4467.179487,4210.769230,4431.282051,4217.435897,4237.435897,4497.435897,4158.461538,4632.820512,3943.076924,4048.717948
167,4331.282051,4501.538461,4538.974358,4260.512820,4464.615384,4206.153846,4429.743589,4213.333333,4230.256410,4495.384615,4157.948717,4631.794871,3930.256411,4044.615384
168,4337.948717,4513.333333,4544.102564,4261.538461,4462.051282,4203.589743,4430.769230,4220.000000,4238.461538,4496.410256,4157.948717,4632.820512,3930.769231,4048.717948
169,4349.230769,4521.025641,4553.333333,4257.435897,4464.102564,4204.615384,4429.743589,4222.564102,4243.589743,4498.461538,4165.641025,4638.974358,3948.205129,4057.435897
170,4346.153846,4516.410256,4551.794871,4244.615384,4461.025641,4206.666666,4428.205128,4216.410256,4239.487179,4499.487179,4171.282051,4640.000000,3958.974359,4055.897435
171,4343.076923,4514.358974,4549.230769,4249.743589,4458.461538,4209.230769,4428.717948,4215.384615,4239.487179,4500.512820,4167.179487,4635.897435,3953.846154,4053.846153
172,4342.051282,4516.923076,4550.769230,4261.538461,4462.564102,4208.717948,4427.179487,4210.769230,4238.974358,4499.487179,4163.076923,4632.820512,3946.666667,4056.923076
173,4336.923076,4509.230769,4543.076923,4252.307692,4461.025641,4200.512820,4422.564102,4205.128205,4230.769230,4496.410256,4162.051282,4631.282051,3942.564103,4051.282051
174,4337.435897,4501.538461,4540.512820,4242.051282,4456.923076,4195.897435,4423.589743,4211.282051,4232.307692,4495.897435,4158.974358,4630.769230,3934.871795,4044.102564
175,4345.128205,4509.230769,4552.307692,4247.179487,4462.564102,4203.589743,4431.794871,4221.025641,4241.025641,4496.410256,4160.512820,4633.846153,3935.384616,4049.230769
176,4340.512820,4515.384615,4546.666666,4247.179487,4465.128205,4208.717948,4432.820512,4215.897435,4233.333333,4488.717948,4159.487179,4630.256410,3941.025642,4049.743589
177,4329.743589,4510.256410,4533.333333,4243.589743,4460.512820,4204.615384,4426.666666,4205.641025,4218.974358,4481.538461,4150.769230,4626.666666,3935.897436,4041.025641
178,4329.230769,4512.307692,4535.897435,4249.230769,4461.538461,4204.102564,4427.692307,4209.743589,4222.051282,4486.153846,4145.641025,4628.205128,3928.717949,4038.461538
179,4332.307692,4520.000000,4544.102564,4251.282051,4464.615384,4210.769230,4431.794871,4216.410256,4230.256410,4489.230769,4149.230769,4628.717948,3926.153847,4041.538461
180,4337.948717,4516.923076,4549.230769,4252.307692,4467.179487,4215.384615,4434.358974,4218.974358,4230.769230,4488.205128,4156.410256,4632.820512,3928.205129,4045.641025
181,4344.615384,4509.743589,4554.358974,4258.974358,4473.846153,4216.923076,4438.461538,4221.538461,4234.358974,4492.820512,4163.589743,4640.000000,3937.948718,4051.794871
182,4347.692307,4515.897435,4554.871794,4263.076923,4478.461538,4220.000000,4443.589743,4225.128205,4244.615384,4501.025641,4164.615384,4644.102564,3946.666667,4058.974358
183,4345.641025,4531.282051,4555.384615,4263.076923,4474.358974,4224.102564,4450.256410,4230.256410,4246.666666,4502.051282,4156.410256,4642.564102,3947.692308,4061.025641
184,4342.564102,4534.871794,4555.897435,4264.102564,4474.358974,4225.128205,4451.282051,4229.230769,4236.923076,4501.025641,4152.307692,4638.974358,3943.076924,4057.435897
185,4343.076923,4526.666666,4552.820512,4266.153846,4476.923076,4223.589743,4446.153846,4224.615384,4229.743589,4498.461538,4155.897435,4635.384615,3935.897436,4055.384615
186,4347.179487,4524.615384,4552.820512,4268.717948,4473.333333,4224.102564,4442.564102,4225.128205,4234.358974,4489.230769,4163.589743,4636.923076,3934.358975,4057.948717
187,4351.282051,4530.256410,4554.358974,4269.743589,4474.871794,4225.128205,4440.000000,4230.256410,4244.615384,4490.256410,4172.820512,4643.076923,3941.025642,4062.564102
188,4345.641025,4525.641025,4553.333333,4270.769230,4478.461538,4221.538461,4437.435897,4225.128205,4240.512820,4502.051282,4172.307692,4642.564102,3945.641026,4061.025641
189,4337.948717,4519.487179,4550.769230,4274.358974,4470.769230,4212.820512,4437.948717,4213.846153,4228.717948,4500.512820,4162.051282,4635.897435,3943.076924,4054.358974
190,4339.487179,4521.538461,4548.717948,4269.743589,4460.512820,4208.205128,4436.923076,4214.358974,4230.769230,4492.307692,4163.076923,4631.794871,3936.923077,4050.256410
191,4343.076923,4521.538461,4548.717948,4267.692307,4464.102564,4210.769230,4436.923076,4222.564102,4238.461538,4496.923076,4166.666666,4631.282051,3935.384616,4052.820512
192,4340.000000,4520.512820,4551.794871,4273.333333,4465.641025,4217.435897,4438.974358,4224.102564,4236.923076,4500.512820,4160.000000,4636.410256,3940.000000,4056.410256
193,4338.974358,4526.153846,4554.871794,4272.307692,4463.076923,4218.461538,4440.000000,4223.076923,4232.820512,4492.820512,4156.923076,4640.000000,3943.589744,4058.974358
194,4340.000000,4523.589743,4554.358974,4268.717948,4465.128205,4213.333333,4436.923076,4225.128205,4231.794871,4491.282051,4154.358974,4635.897435,3942.051283,4058.974358
195,4337.435897,4513.333333,4550.769230,4272.820512,4465.641025,4210.769230,4433.333333,4223.589743,4227.179487,4492.820512,4144.615384,4632.820512,3938.974359,4054.871794
196,4342.051282,4520.512820,4551.282051,4277.435897,4467.179487,4215.897435,4438.974358,4222.564102,4226.153846,4489.743589,4144.102564,4638.461538,3937.948718,4055.384615
197,4347.692307,4534.871794,4556.410256,4279.487179,4471.282051,4220.000000,4443.589743,4221.538461,4228.205128,4488.717948,4157.435897,4639.487179,3938.974359,4057.948717
198,4337.435897,4529.230769,4552.307692,4277.948717,4466.153846,4211.794871,4435.384615,4214.871794,4226.153846,4487.692307,4156.923076,4631.282051,3934.358975,4053.333333
199,4326.666666,4514.358974,4542.564102,4267.692307,4453.333333,4203.589743,4423.076923,4207.692307,4220.512820,4481.025641,4146.666666,4623.076923,3922.051283,4044.615384
200,4329.230769,4508.205128,4541.538461,4263.076923,4450.769230,4204.102564,4424.102564,4205.641025,4214.871794,4478.461538,4150.256410,4623.076923,3922.564103,4041.025641
201,4332.820512,4512.307692,4544.615384,4266.666666,4457.948717,4210.256410,4431.794871,4211.794871,4216.923076,4482.564102,4157.435897,4630.769230,3941.538462,4045.128205
202,4327.692307,4506.153846,4544.615384,4263.076923,4458.461538,4212.307692,4437.948717,4222.564102,4225.641025,4487.692307,4151.794871,4632.307692,3944.102565,4046.666666
203,4326.153846,4496.923076,4544.102564,4262.051282,4449.743589,4208.717948,4440.512820,4227.692307,4231.794871,4492.307692,4143.589743,4629.743589,3932.820513,4045.128205
204,4327.692307,4501.025641,4540.512820,4264.102564,4449.230769,4204.615384,4433.846153,4224.102564,4228.205128,4494.871794,4148.717948,4629.230769,3932.820513,4045.128205
205,4326.666666,4511.794871,4534.871794,4263.589743,4460.000000,4206.153846,4427.692307,4220.000000,4224.615384,4494.871794,4158.974358,4630.769230,3935.384616,4043.589743
206,4330.256410,4520.512820,4537.435897,4267.692307,4460.512820,4210.256410,4429.743589,4218.974358,4229.230769,4495.384615,4156.410256,4631.794871,3938.974359,4045.641025
207,4331.282051,4520.512820,4541.025641,4268.717948,4453.846153,4204.102564,4427.179487,4213.333333,4225.641025,4486.666666,4140.512820,4624.102564,3945.128206,4047.179487
208,4326.666666,4514.871794,4534.871794,4261.025641,4456.923076,4199.487179,4416.410256,4203.589743,4210.256410,4474.871794,4134.358974,4614.871794,3940.512821,4041.538461
209,4329.743589,4513.333333,4536.923076,4263.589743,4463.076923,4204.102564,4416.923076,4202.564102,4207.179487,4481.538461,4149.230769,4625.128205,3928.205129,4041.538461
210,4338.974358,4519.487179,4549.230769,4275.897435,4464.102564,4209.230769,4428.717948,4211.282051,4220.000000,4492.307692,4163.076923,4637.948717,3931.282052,4053.333333
211,4340.000000,4520.512820,4546.666666,4271.794871,4458.974358,4206.153846,4432.307692,4212.307692,4223.589743,4480.512820,4157.948717,4632.820512,3940.512821,4055.384615
212,4334.358974,4515.897435,4536.923076,4260.512820,4456.410256,4201.025641,4428.717948,4211.282051,4223.589743,4473.846153,4149.230769,4628.205128,3937.948718,4049.743589
213,4334.358974,4523.589743,4544.615384,4260.512820,4459.487179,4204.615384,4432.820512,4220.512820,4235.897435,4494.358974,4156.410256,4633.846153,3944.102565,4052.820512
214,4332.820512,4529.743589,4547.179487,4262.051282,4458.461538,4211.282051,4436.923076,4219.487179,4235.384615,4503.076923,4164.102564,4633.846153,3951.282052,4051.794871
215,4331.282051,4526.666666,4541.538461,4270.256410,4456.410256,4210.256410,4433.333333,4213.846153,4226.153846,4491.282051,4158.974358,4631.794871,3947.692308,4047.179487
216,4338.974358,4531.282051,4549.230769,4282.051282,4461.538461,4207.692307,4429.743589,4215.897435,4232.307692,4494.871794,4161.538461,4638.974358,3951.282052,4057.948717
217,4344.615384,4534.358974,4559.487179,4274.871794,4464.615384,4210.769230,4428.717948,4216.410256,4236.923076,4503.589743,4170.769230,4646.153846,3956.923077,4069.230769
218,4339.487179,4522.564102,4551.794871,4260.512820,4456.923076,4209.230769,4427.692307,4217.435897,4226.666666,4498.461538,4164.615384,4643.589743,3953.846154,4062.051282
219,4331.282051,4511.794871,4539.487179,4261.538461,4450.769230,4197.948717,4424.615384,4216.923076,4218.974358,4488.717948,4158.461538,4634.358974,3943.076924,4051.282051
220,4331.794871,4516.410256,4541.025641,4263.076923,4453.846153,4196.923076,4426.666666,4213.846153,4225.641025,4487.179487,4160.512820,4630.256410,3937.948718,4054.358974
221,4337.435897,4524.615384,4549.230769,4262.051282,4463.589743,4211.282051,4437.948717,4223.589743,4242.051282,4494.358974,4158.461538,4635.897435,3944.615385,4060.000000
222,4336.410256,4517.948717,4552.820512,4265.128205,4466.153846,4215.384615,4443.076923,4233.333333,4248.717948,4501.025641,4159.487179,4640.000000,3950.769231,4056.923076
223,4334.871794,4505.128205,4549.230769,4265.641025,4461.538461,4207.179487,4436.923076,4225.128205,4240.000000,4499.487179,4169.743589,4636.923076,3948.205129,4054.871794
224,4340.512820,4504.102564,4546.153846,4266.153846,4461.538461,4203.076923,4431.794871,4221.025641,4236.923076,4495.897435,4168.717948,4633.333333,3950.256411,4060.512820
225,4337.948717,4497.435897,4539.487179,4264.615384,4455.384615,4200.000000,4428.205128,4221.025641,4233.846153,4487.179487,4150.769230,4629.743589,3948.205129,4053.333333
226,4328.205128,4484.102564,4535.897435,4258.974358,4452.307692,4201.538461,4429.743589,4216.923076,4227.692307,4481.025641,4143.076923,4626.666666,3930.256411,4040.512820
227,4331.794871,4489.230769,4540.000000,4258.974358,4464.102564,4209.743589,4438.974358,4222.564102,4235.897435,4491.282051,4153.333333,4632.307692,3931.794872,4045.128205
228,4340.000000,4501.025641,4540.512820,4263.076923,4469.743589,4211.282051,4440.000000,4225.128205,4242.564102,4493.846153,4152.820512,4633.846153,3948.717949,4051.282051
229,4335.384615,4492.820512,4537.435897,4265.128205,4461.025641,4203.589743,4430.256410,4214.358974,4232.307692,4482.564102,4141.538461,4626.153846,3946.666667,4046.153846
230,4332.820512,4483.589743,4537.948717,4271.282051,4452.307692,4198.974358,4428.717948,4212.820512,4229.230769,4483.076923,4144.615384,4626.666666,3939.487180,4043.589743
231,4337.948717,4487.179487,4535.897435,4277.435897,4446.153846,4198.461538,4429.230769,4218.974358,4234.358974,4485.641025,4147.692307,4630.769230,3943.589744,4045.641025
232,4341.025641,4488.717948,4537.435897,4281.538461,4448.717948,4200.512820,4429.743589,4220.512820,4235.384615,4480.512820,4142.051282,4629.230769,3948.717949,4047.179487
233,4345.641025,4486.153846,4545.641025,4292.307692,4460.000000,4204.615384,4438.974358,4229.743589,4246.666666,4492.307692,4151.282051,4634.358974,3950.256411,4055.897435
234,4344.102564,4479.487179,4544.102564,4291.282051,4459.487179,4208.205128,4444.102564,4236.923076,4253.333333,4501.025641,4162.564102,4637.435897,3950.256411,4056.410256
235,4337.948717,4482.564102,4538.974358,4280.512820,4454.358974,4208.717948,4438.974358,4230.256410,4240.512820,4489.743589,4156.923076,4631.794871,3957.435898,4047.179487
236,4343.589743,4497.435897,4548.205128,4287.179487,4460.000000,4210.769230,4443.076923,4232.307692,4241.538461,4490.256410,4155.384615,4635.384615,3967.179488,4053.846153
237,4350.769230,4493.846153,4551.794871,4296.923076,4461.025641,4211.282051,4447.179487,4237.435897,4253.846153,4496.410256,4159.487179,4640.000000,3961.538462,4058.974358
238,4347.179487,4485.128205,4538.461538,4292.820512,4458.461538,4207.692307,4434.871794,4220.000000,4240.512820,4484.102564,4152.820512,4631.794871,3949.743590,4050.769230
239,4352.307692,4504.615384,4536.923076,4296.923076,4467.179487,4208.205128,4429.230769,4205.128205,4225.128205,4480.000000,4155.897435,4630.256410,3947.692308,4055.384615
240,4365.641025,4524.102564,4553.846153,4308.205128,4473.846153,4213.333333,4438.461538,4217.948717,4241.025641,4501.538461,4173.333333,4643.076923,3954.358975,4070.256410
241,4360.512820,4506.666666,4555.384615,4300.000000,4466.153846,4211.794871,4437.948717,4228.717948,4256.923076,4510.256410,4171.282051,4644.615384,3964.102565,4064.615384
242,4348.717948,4484.615384,4546.153846,4290.256410,4457.948717,4203.589743,4431.282051,4224.102564,4252.307692,4497.435897,4157.435897,4637.948717,3971.794872,4053.846153
243,4354.358974,4490.256410,4550.256410,4295.897435,4458.461538,4200.512820,4434.358974,4226.153846,4247.179487,4495.384615,4166.666666,4644.102564,3974.871795,4063.589743
244,4356.410256,4497.948717,4553.333333,4297.948717,4460.512820,4207.692307,4438.974358,4231.794871,4247.179487,4502.564102,4176.923076,4647.179487,3967.692308,4067.179487
245,4351.282051,4498.461538,4542.051282,4292.820512,4463.076923,4213.333333,4442.564102,4231.282051,4249.230769,4504.102564,4167.692307,4638.461538,3955.384616,4056.410256
246,4351.282051,4502.564102,4536.923076,4295.897435,4463.589743,4210.769230,4443.076923,4228.205128,4248.717948,4501.025641,4159.487179,4632.820512,3951.794872,4053.333333
247,4347.692307,4499.487179,4538.974358,4295.384615,4457.948717,4206.153846,4432.820512,4217.948717,4235.897435,4490.256410,4156.410256,4627.692307,3952.307693,4051.794871
248,4343.076923,4487.179487,4536.410256,4286.153846,4457.948717,4208.717948,4430.769230,4209.743589,4225.641025,4481.025641,4149.743589,4626.153846,3952.307693,4047.179487
249,4347.179487,4489.230769,4541.025641,4293.333333,4461.538461,4214.871794,4444.615384,4221.538461,4237.435897,4491.794871,4154.871794,4634.358974,3957.435898,4051.794871
250,4350.256410,4500.512820,4550.769230,4307.179487,4459.487179,4213.333333,4447.179487,4234.871794,4254.358974,4503.589743,4166.153846,4638.461538,3956.923077,4058.461538
251,4349.743589,4497.435897,4551.794871,4302.051282,4456.923076,4206.153846,4441.025641,4234.871794,4254.871794,4497.948717,4161.538461,4632.307692,3948.205129,4055.897435
252,4354.871794,4491.282051,4551.794871,4291.282051,4458.461538,4206.153846,4442.051282,4231.794871,4248.717948,4493.846153,4156.410256,4635.384615,3953.333334,4054.358974
253,4360.512820,4501.538461,4553.333333,4293.846153,4460.512820,4212.820512,4445.128205,4231.794871,4249.743589,4502.051282,4167.179487,4643.076923,3967.692308,4059.487179
254,4361.025641,4511.794871,4552.820512,4302.564102,4458.974358,4211.794871,4446.153846,4234.358974,4252.820512,4505.128205,4174.871794,4642.564102,3966.666667,4063.076923
255,4357.435897,4506.666666,4552.307692,4306.666666,4457.435897,4206.666666,4444.615384,4232.820512,4249.743589,4493.333333,4168.717948,4638.461538,3957.435898,4059.487179
256,4350.256410,4495.384615,4551.794871,4298.461538,4458.974358,4204.102564,4435.897435,4223.076923,4240.000000,4486.666666,4168.717948,4634.358974,3954.358975,4052.307692
257,4347.692307,4492.820512,4548.205128,4291.282051,4462.564102,4202.051282,4432.307692,4218.974358,4237.435897,4490.769230,4171.794871,4629.743589,3951.282052,4051.282051
258,4353.846153,4499.487179,4547.179487,4303.589743,4460.512820,4203.589743,4438.974358,4229.230769,4244.615384,4492.307692,4169.230769,4632.307692,3955.384616,4056.923076
259,4360.000000,4512.820512,4550.256410,4314.871794,4461.025641,4209.230769,4442.051282,4236.410256,4246.666666,4494.358974,4171.282051,4638.974358,3964.615385,4060.000000
