,AF3,F7,F3,FC5,T7,P7,O1,O2,P8,T8,FC6,F4,F8,AF4
0,4345.128205,4586.666666,4556.410256,4266.666666,4491.282051,4204.615384,4449.743589,4234.358974,4250.256410,4525.128205,4222.564102,4620.512820,4001.025641,4074.358974
1,4352.307692,4581.538461,4557.948717,4276.410256,4491.794871,4207.692307,4454.871794,4243.076923,4261.538461,4531.282051,4223.076923,4628.205128,4009.230769,4079.487179
2,4346.666666,4571.794871,4554.871794,4269.230769,4490.769230,4202.564102,4454.871794,4238.974358,4251.794871,4526.153846,4228.205128,4622.051282,3998.974359,4076.410256
3,4336.410256,4574.871794,4546.153846,4256.410256,4488.717948,4197.435897,4449.230769,4229.230769,4240.000000,4514.358974,4217.948717,4614.358974,3990.256411,4069.743589
4,4341.538461,4580.512820,4537.948717,4264.615384,4489.230769,4200.000000,4449.230769,4231.282051,4243.589743,4515.384615,4208.717948,4615.897435,3998.461539,4071.282051
5,4352.307692,4585.641025,4545.128205,4276.410256,4493.333333,4207.692307,4457.948717,4235.384615,4247.179487,4520.000000,4211.282051,4620.000000,4001.538461,4074.871794
6,4347.692307,4586.153846,4551.794871,4274.358974,4488.205128,4204.615384,4457.948717,4230.256410,4240.512820,4512.820512,4212.820512,4620.512820,3991.794872,4072.820512
7,4339.487179,4580.000000,4544.615384,4262.051282,4478.461538,4189.743589,4448.717948,4224.615384,4236.923076,4510.256410,4206.153846,4616.410256,3987.692308,4071.794871
8,4346.153846,4587.179487,4546.153846,4256.923076,4484.102564,4190.769230,4452.307692,4229.230769,4249.230769,4526.666666,4208.717948,4618.974358,3999.487180,4078.461538
9,4356.410256,4604.615384,4558.974358,4272.820512,4495.897435,4204.615384,4463.589743,4237.948717,4261.538461,4538.974358,4224.615384,4633.333333,4014.358974,4087.692307
10,4354.871794,4603.076923,4558.461538,4284.102564,4494.358974,4203.589743,4462.051282,4237.435897,4257.948717,4530.769230,4232.307692,4635.897435,4010.256410,4090.769230
11,4349.230769,4597.948717,4552.307692,4277.435897,4488.717948,4199.487179,4454.871794,4233.333333,4249.743589,4522.051282,4226.666666,4623.589743,3997.948718,4084.615384
12,4344.615384,4604.102564,4554.358974,4276.923076,4495.384615,4204.102564,4456.410256,4230.769230,4251.794871,4521.538461,4213.846153,4621.025641,3997.435898,4079.487179
13,4338.461538,4604.102564,4554.358974,4280.512820,4497.948717,4203.076923,4462.564102,4229.230769,4253.333333,4518.974358,4202.564102,4624.102564,4000.512820,4078.461538
14,4340.000000,4602.051282,4548.205128,4271.282051,4491.282051,4198.974358,4463.589743,4229.743589,4245.128205,4514.358974,4203.076923,4621.538461,3996.923077,4076.410256
15,4344.102564,4606.666666,4543.589743,4268.205128,4497.435897,4204.102564,4465.128205,4232.307692,4244.615384,4515.384615,4207.692307,4619.487179,3994.358975,4073.846153
16,4341.538461,4603.589743,4540.512820,4280.000000,4503.076923,4204.615384,4469.230769,4231.282051,4253.333333,4518.461538,4207.179487,4617.948717,3995.384616,4074.358974
17,4340.512820,4599.487179,4537.948717,4281.538461,4496.923076,4201.538461,4468.717948,4230.769230,4256.923076,4522.564102,4209.230769,4616.923076,3992.820513,4076.923076
18,4347.692307,4611.282051,4545.128205,4276.923076,4495.897435,4206.666666,4468.717948,4235.897435,4256.410256,4530.256410,4214.871794,4622.564102,3995.384616,4083.589743
19,4348.717948,4618.461538,4552.307692,4273.846153,4499.487179,4210.256410,4471.282051,4238.461538,4255.384615,4531.282051,4205.641025,4628.205128,4008.717948,4088.205128
20,4341.538461,4608.205128,4545.641025,4267.179487,4499.487179,4208.717948,4471.282051,4236.923076,4252.820512,4527.179487,4195.384615,4624.615384,4010.769230,4083.076923
21,4336.410256,4600.000000,4538.461538,4265.128205,4496.923076,4206.666666,4469.743589,4232.307692,4254.358974,4524.615384,4196.923076,4620.512820,3995.897436,4074.871794
22,4333.333333,4602.564102,4537.435897,4274.871794,4496.410256,4202.564102,4464.102564,4225.641025,4253.333333,4522.564102,4198.461538,4614.871794,3990.769231,4072.307692
23,4335.897435,4611.794871,4540.512820,4283.589743,4497.948717,4204.102564,4463.589743,4225.641025,4248.717948,4520.512820,4201.025641,4612.307692,4000.512820,4074.871794
24,4350.769230,4623.589743,4550.769230,4286.666666,4506.153846,4216.410256,4475.897435,4234.358974,4258.974358,4523.589743,4211.282051,4624.615384,4005.128205,4085.128205
25,4356.923076,4628.205128,4557.948717,4283.076923,4511.282051,4221.025641,4481.538461,4239.487179,4268.205128,4531.794871,4218.974358,4633.333333,4005.641025,4094.358974
26,4341.025641,4616.923076,4546.153846,4267.692307,4504.102564,4210.256410,4472.820512,4231.794871,4258.461538,4528.205128,4209.230769,4622.564102,4008.205128,4085.641025
27,4335.384615,4609.230769,4534.871794,4252.307692,4499.487179,4207.179487,4468.205128,4226.153846,4249.743589,4516.410256,4188.205128,4612.307692,4005.128205,4071.794871
28,4350.769230,4619.487179,4544.102564,4257.948717,4502.564102,4212.820512,4473.846153,4229.743589,4249.230769,4521.538461,4192.820512,4620.512820,4006.153846,4074.871794
29,4360.512820,4627.692307,4556.923076,4275.897435,4507.179487,4213.846153,4477.948717,4236.923076,4258.461538,4538.461538,4224.102564,4634.358974,4019.487179,4092.307692
30,4357.948717,4623.076923,4558.461538,4280.000000,4506.153846,4210.769230,4478.974358,4242.051282,4266.666666,4537.435897,4228.717948,4638.974358,4023.589743,4095.384615
31,4356.923076,4619.487179,4556.410256,4271.794871,4504.102564,4212.307692,4481.025641,4244.615384,4259.487179,4529.743589,4214.358974,4635.897435,4014.871794,4087.692307
32,4356.923076,4624.102564,4555.897435,4268.205128,4507.179487,4217.948717,4480.512820,4241.538461,4250.769230,4529.230769,4214.871794,4634.871794,4016.410256,4089.230769
33,4351.282051,4625.128205,4554.871794,4265.128205,4506.666666,4216.410256,4473.846153,4233.846153,4250.769230,4524.102564,4205.128205,4633.333333,4020.000000,4085.128205
34,4344.615384,4620.000000,4551.794871,4257.948717,4501.025641,4206.666666,4467.179487,4227.692307,4249.743589,4516.923076,4184.102564,4625.128205,4010.769230,4072.307692
35,4341.025641,4614.871794,4546.666666,4257.435897,4500.512820,4203.589743,4464.615384,4226.153846,4246.153846,4513.846153,4185.641025,4620.512820,4003.076923,4070.769230
36,4340.000000,4612.820512,4544.615384,4262.564102,4499.487179,4205.128205,4461.025641,4225.128205,4240.512820,4511.794871,4195.897435,4621.538461,4003.076923,4073.846153
37,4340.000000,4614.871794,4549.743589,4265.641025,4495.384615,4205.128205,4462.564102,4226.666666,4238.461538,4518.461538,4201.025641,4626.666666,4005.128205,4073.846153
38,4348.205128,4623.076923,4556.410256,4266.666666,4502.051282,4210.769230,4472.820512,4235.897435,4248.717948,4533.846153,4206.153846,4637.948717,4011.282051,4082.564102
39,4357.435897,4630.256410,4556.923076,4265.128205,4509.743589,4216.410256,4477.435897,4243.589743,4255.384615,4537.435897,4205.128205,4641.025641,4018.974358,4088.717948
40,4354.871794,4628.205128,4554.358974,4264.102564,4506.153846,4213.333333,4471.282051,4240.000000,4251.282051,4530.769230,4202.564102,4632.307692,4019.487179,4081.025641
41,4352.307692,4622.564102,4556.410256,4268.205128,4507.179487,4212.820512,4468.205128,4236.923076,4255.897435,4530.256410,4200.512820,4630.769230,4013.846153,4077.435897
42,4354.358974,4622.051282,4554.358974,4271.282051,4507.692307,4212.307692,4467.692307,4239.487179,4260.000000,4527.692307,4192.307692,4634.358974,4007.692307,4077.435897
43,4346.153846,4620.512820,4545.128205,4263.076923,4494.358974,4204.615384,4460.000000,4235.384615,4246.666666,4517.948717,4189.743589,4625.641025,4002.564102,4068.205128
44,4335.384615,4611.794871,4537.948717,4257.435897,4488.205128,4196.923076,4451.282051,4222.051282,4232.820512,4513.333333,4193.333333,4617.435897,3997.435898,4060.512820
45,4336.410256,4606.153846,4538.461538,4259.487179,4491.282051,4194.358974,4451.282051,4220.000000,4235.897435,4516.410256,4193.846153,4618.974358,3993.846154,4066.153846
46,4341.025641,4605.641025,4540.000000,4251.794871,4488.717948,4193.846153,4453.846153,4226.153846,4239.487179,4516.923076,4193.333333,4618.974358,3997.435898,4071.282051
47,4341.538461,4605.128205,4540.000000,4246.153846,4488.205128,4197.948717,4453.333333,4225.128205,4235.384615,4514.358974,4189.743589,4618.974358,4006.666666,4071.794871
48,4341.025641,4608.205128,4540.512820,4256.923076,4491.282051,4202.564102,4453.846153,4222.564102,4243.076923,4513.333333,4185.641025,4624.615384,4010.769230,4073.846153
49,4340.000000,4612.307692,4545.128205,4264.615384,4488.205128,4196.923076,4455.384615,4229.230769,4250.769230,4515.897435,4192.820512,4627.692307,4009.230769,4072.820512
50,4342.564102,4612.820512,4551.794871,4263.076923,4485.641025,4189.743589,4454.871794,4234.358974,4243.589743,4523.589743,4201.538461,4626.666666,4002.564102,4074.871794
51,4350.256410,4613.846153,4556.410256,4265.128205,4488.717948,4193.846153,4454.871794,4232.307692,4246.666666,4530.769230,4201.538461,4631.282051,3996.923077,4086.666666
52,4351.282051,4610.769230,4553.846153,4260.512820,4491.794871,4200.000000,4453.846153,4235.384615,4254.358974,4528.717948,4198.974358,4631.282051,4001.025641,4089.230769
53,4344.102564,4606.666666,4545.128205,4253.846153,4492.820512,4194.871794,4451.794871,4234.871794,4244.615384,4514.358974,4191.282051,4620.000000,4001.025641,4076.410256
54,4339.487179,4608.717948,4540.512820,4263.589743,4490.769230,4193.846153,4453.333333,4229.743589,4236.923076,4505.641025,4180.512820,4613.846153,3992.820513,4068.205128
55,4334.358974,4607.692307,4541.538461,4265.641025,4484.102564,4201.025641,4452.820512,4231.794871,4242.564102,4509.230769,4176.923076,4614.871794,3992.820513,4068.717948
56,4329.743589,4597.948717,4541.025641,4248.717948,4482.564102,4201.025641,4452.820512,4232.820512,4237.948717,4504.615384,4173.846153,4614.871794,3991.282052,4069.230769
57,4329.743589,4591.794871,4536.410256,4243.076923,4487.179487,4197.948717,4454.358974,4225.128205,4234.871794,4504.102564,4169.230769,4613.333333,3981.538462,4068.205128
58,4330.256410,4592.820512,4536.410256,4249.230769,4491.282051,4196.923076,4451.794871,4219.487179,4238.974358,4510.256410,4169.230769,4611.794871,3978.974359,4063.589743
59,4331.794871,4599.487179,4538.461538,4252.307692,4491.794871,4195.897435,4452.307692,4220.000000,4229.230769,4505.128205,4173.846153,4607.179487,3979.487180,4058.461538
60,4335.897435,4608.205128,4538.461538,4260.000000,4488.205128,4199.487179,4460.000000,4226.666666,4227.692307,4501.538461,4175.384615,4610.769230,3977.435898,4062.564102
61,4339.487179,4607.179487,4541.025641,4266.153846,4485.641025,4203.076923,4463.589743,4241.025641,4248.205128,4514.871794,4173.333333,4622.564102,3989.743590,4071.794871
62,4343.076923,4601.538461,4547.179487,4258.461538,4484.102564,4197.435897,4461.025641,4246.153846,4257.435897,4522.051282,4184.102564,4625.128205,4001.538461,4074.358974
63,4341.025641,4603.589743,4547.179487,4251.794871,4483.076923,4194.871794,4460.512820,4239.487179,4246.153846,4516.410256,4194.358974,4620.512820,3988.717949,4074.358974
64,4326.153846,4597.948717,4538.461538,4246.153846,4481.025641,4196.410256,4456.923076,4230.769230,4230.769230,4501.538461,4179.487179,4613.846153,3971.794872,4064.102564
65,4322.051282,4588.205128,4534.871794,4243.076923,4477.435897,4189.743589,4452.307692,4221.538461,4221.538461,4482.051282,4167.692307,4611.282051,3974.358975,4052.820512
66,4332.307692,4589.230769,4540.000000,4252.307692,4476.923076,4189.230769,4452.307692,4221.025641,4228.717948,4484.102564,4174.358974,4615.384615,3982.051283,4059.487179
67,4328.717948,4589.743589,4539.487179,4256.410256,4476.923076,4193.846153,4452.820512,4224.615384,4242.564102,4499.487179,4166.666666,4615.384615,3979.487180,4066.153846
68,4323.589743,4587.179487,4535.897435,4246.666666,4478.974358,4191.282051,4450.769230,4225.641025,4241.538461,4501.538461,4160.000000,4613.333333,3976.923077,4058.461538
69,4328.205128,4588.717948,4538.974358,4243.589743,4479.487179,4189.230769,4451.282051,4225.641025,4231.282051,4497.948717,4176.410256,4614.871794,3973.846154,4054.358974
70,4324.102564,4585.128205,4536.410256,4250.769230,4478.461538,4191.794871,4451.282051,4223.589743,4228.717948,4490.256410,4182.564102,4611.794871,3966.666667,4055.897435
71,4318.461538,4576.923076,4525.641025,4251.282051,4476.410256,4187.692307,4447.179487,4217.435897,4230.769230,4481.025641,4170.256410,4602.564102,3965.128206,4051.794871
72,4322.051282,4577.435897,4521.025641,4240.000000,4470.256410,4181.538461,4444.102564,4214.871794,4228.205128,4481.025641,4162.051282,4599.487179,3965.641026,4049.230769
73,4321.538461,4578.974358,4523.589743,4233.846153,4468.205128,4184.615384,4445.128205,4216.410256,4223.076923,4486.153846,4158.461538,4600.512820,3965.128206,4051.282051
74,4316.923076,4574.871794,4524.615384,4239.487179,4471.282051,4184.102564,4446.666666,4213.333333,4220.000000,4487.179487,4157.435897,4600.000000,3968.717949,4051.794871
75,4312.307692,4573.846153,4520.000000,4239.487179,4473.333333,4181.025641,4443.589743,4210.256410,4220.000000,4484.615384,4151.794871,4598.974358,3966.153847,4049.230769
76,4312.307692,4578.974358,4520.512820,4235.897435,4478.461538,4189.230769,4444.615384,4209.230769,4225.128205,4486.153846,4155.897435,4600.000000,3957.948718,4048.205128
77,4321.538461,4581.538461,4533.333333,4243.589743,4483.076923,4195.384615,4450.769230,4213.333333,4235.897435,4493.846153,4179.487179,4605.641025,3964.615385,4052.820512
78,4323.589743,4580.512820,4536.410256,4249.743589,4480.512820,4189.230769,4450.256410,4220.000000,4238.461538,4497.948717,4183.076923,4606.666666,3971.282052,4054.871794
79,4316.923076,4582.564102,4528.717948,4248.205128,4481.025641,4189.743589,4447.179487,4215.897435,4226.666666,4496.923076,4169.743589,4600.000000,3967.692308,4052.820512
80,4320.000000,4583.076923,4532.307692,4240.512820,4484.102564,4197.948717,4453.333333,4216.410256,4228.717948,4502.564102,4180.512820,4603.076923,3976.923077,4054.871794
81,4323.589743,4580.000000,4539.487179,4237.435897,4478.461538,4194.358974,4453.846153,4221.538461,4246.153846,4507.692307,4185.641025,4605.641025,3983.076924,4054.871794
82,4318.974358,4583.076923,4534.358974,4248.717948,4481.025641,4192.820512,4444.615384,4215.897435,4246.666666,4501.538461,4167.692307,4599.487179,3970.256411,4051.794871
83,4324.615384,4593.333333,4534.358974,4258.461538,4491.282051,4201.025641,4446.666666,4214.358974,4236.410256,4498.461538,4171.282051,4602.564102,3969.230770,4061.025641
84,4337.435897,4596.410256,4541.538461,4252.307692,4491.794871,4203.589743,4457.948717,4228.717948,4238.974358,4503.589743,4191.282051,4614.871794,3982.051283,4073.846153
85,4334.358974,4590.769230,4541.538461,4249.230769,4483.076923,4196.410256,4452.307692,4233.333333,4245.128205,4503.076923,4186.153846,4613.333333,3983.076924,4070.769230
86,4319.487179,4585.128205,4533.333333,4252.307692,4478.461538,4190.769230,4440.512820,4221.025641,4243.589743,4496.923076,4173.333333,4601.538461,3977.435898,4058.974358
87,4316.923076,4586.153846,4528.717948,4245.641025,4478.974358,4188.205128,4440.000000,4215.384615,4237.948717,4494.358974,4172.307692,4599.487179,3976.410257,4056.410256
88,4322.051282,4589.230769,4530.769230,4245.128205,4480.512820,4189.230769,4440.000000,4211.282051,4231.794871,4493.846153,4172.307692,4602.564102,3969.230770,4057.948717
89,4324.615384,4588.717948,4530.769230,4254.358974,4481.538461,4191.794871,4440.512820,4207.179487,4228.717948,4492.820512,4174.871794,4605.128205,3964.102565,4055.897435
90,4322.051282,4589.230769,4525.641025,4252.820512,4481.538461,4186.153846,4441.538461,4206.666666,4226.666666,4496.410256,4178.461538,4606.666666,3968.205129,4055.897435
91,4315.384615,4589.230769,4522.051282,4248.205128,4478.461538,4180.000000,4437.948717,4205.128205,4222.051282,4494.871794,4174.358974,4604.615384,3965.641026,4055.897435
92,4314.358974,4585.641025,4524.615384,4256.410256,4477.435897,4184.615384,4440.000000,4208.717948,4227.179487,4485.641025,4166.153846,4601.538461,3960.000000,4053.846153
93,4325.128205,4589.230769,4533.846153,4266.153846,4486.153846,4192.820512,4451.794871,4222.564102,4241.538461,4489.743589,4173.333333,4607.179487,3968.205129,4057.435897
94,4329.230769,4594.358974,4538.974358,4267.179487,4492.820512,4196.410256,4453.333333,4226.153846,4237.435897,4496.410256,4184.102564,4613.846153,3977.435898,4062.564102
95,4316.923076,4588.717948,4529.230769,4262.051282,4482.564102,4191.282051,4442.564102,4214.871794,4223.589743,4487.692307,4169.743589,4607.179487,3968.717949,4057.435897
96,4313.846153,4584.615384,4521.025641,4249.743589,4474.871794,4188.717948,4441.538461,4212.820512,4228.717948,4486.666666,4157.948717,4600.000000,3966.153847,4052.307692
97,4321.538461,4591.282051,4525.641025,4247.179487,4484.102564,4196.923076,4451.794871,4218.461538,4241.538461,4501.538461,4170.769230,4602.564102,3972.307693,4057.948717
98,4321.025641,4590.769230,4526.666666,4260.000000,4490.769230,4198.974358,4450.769230,4212.307692,4237.435897,4498.974358,4176.410256,4603.076923,3965.641026,4055.897435
99,4311.794871,4580.512820,4521.025641,4257.435897,4481.025641,4189.743589,4437.435897,4202.564102,4223.076923,4482.564102,4162.564102,4596.923076,3956.923077,4045.641025
100,4311.282051,4581.025641,4524.102564,4247.692307,4478.974358,4190.769230,4438.974358,4208.205128,4225.128205,4484.615384,4156.410256,4598.461538,3962.051283,4049.743589
101,4322.564102,4591.282051,4534.871794,4258.461538,4492.307692,4202.564102,4450.769230,4222.051282,4237.948717,4495.384615,4165.641025,4607.692307,3974.358975,4063.589743
102,4327.179487,4588.205128,4540.000000,4265.641025,4494.871794,4202.051282,4450.769230,4227.179487,4238.974358,4497.948717,4177.435897,4610.256410,3982.051283,4066.666666
103,4323.076923,4581.025641,4536.410256,4253.333333,4484.615384,4196.923076,4448.205128,4227.692307,4233.846153,4500.512820,4180.512820,4606.153846,3977.435898,4062.051282
104,4320.000000,4583.589743,4530.769230,4246.666666,4481.025641,4192.307692,4447.179487,4223.076923,4234.871794,4499.487179,4175.384615,4601.025641,3965.128206,4056.410256
105,4322.051282,4583.076923,4526.153846,4249.230769,4481.025641,4184.102564,4441.025641,4216.410256,4234.358974,4493.846153,4174.871794,4599.487179,3963.076924,4052.820512
106,4324.102564,4580.000000,4522.564102,4245.641025,4477.948717,4183.589743,4437.435897,4216.923076,4231.282051,4495.897435,4166.153846,4600.000000,3972.820513,4054.358974
107,4325.641025,4585.128205,4525.128205,4251.794871,4474.871794,4187.179487,4440.000000,4218.461538,4229.743589,4494.358974,4156.923076,4604.102564,3975.384616,4056.410256
108,4330.769230,4591.282051,4533.333333,4263.589743,4475.897435,4187.179487,4440.000000,4216.410256,4230.769230,4487.179487,4172.820512,4608.205128,3972.820513,4054.871794
109,4331.794871,4589.743589,4533.333333,4260.512820,4479.487179,4187.692307,4442.051282,4218.461538,4236.410256,4494.871794,4189.743589,4607.179487,3981.025642,4053.333333
110,4326.153846,4585.641025,4530.769230,4247.692307,4479.487179,4190.256410,4442.564102,4219.487179,4233.333333,4500.000000,4183.589743,4603.589743,3988.717949,4048.205128
111,4325.128205,4585.128205,4531.794871,4249.743589,4478.461538,4189.743589,4436.923076,4213.846153,4225.128205,4488.205128,4176.923076,4602.051282,3976.923077,4045.128205
112,4331.282051,4590.769230,4533.333333,4260.512820,4475.897435,4186.153846,4433.846153,4211.794871,4224.615384,4491.282051,4178.461538,4604.102564,3966.153847,4049.743589
113,4324.102564,4590.769230,4528.205128,4258.461538,4471.794871,4184.102564,4435.897435,4211.794871,4224.615384,4498.974358,4164.102564,4602.564102,3969.743590,4045.128205
114,4311.794871,4580.512820,4524.615384,4249.230769,4472.307692,4184.615384,4434.871794,4209.743589,4228.205128,4488.205128,4155.384615,4598.974358,3973.333334,4038.461538
115,4319.487179,4580.000000,4528.717948,4243.589743,4475.897435,4185.641025,4432.820512,4211.282051,4236.923076,4484.615384,4167.179487,4602.564102,3973.333334,4046.666666
116,4332.307692,4584.615384,4535.897435,4247.692307,4477.948717,4187.179487,4438.461538,4217.435897,4235.897435,4495.897435,4173.333333,4607.692307,3973.333334,4052.820512
117,4329.230769,4581.538461,4537.948717,4259.487179,4476.410256,4187.692307,4446.666666,4220.000000,4227.179487,4497.435897,4173.333333,4604.102564,3970.256411,4048.205128
118,4325.128205,4581.538461,4528.205128,4255.897435,4472.820512,4184.615384,4447.179487,4217.948717,4228.717948,4495.384615,4181.025641,4594.358974,3964.615385,4046.153846
119,4325.641025,4580.512820,4520.512820,4244.102564,4473.333333,4183.589743,4440.512820,4215.897435,4235.384615,4495.897435,4182.564102,4587.179487,3963.589744,4043.589743
120,4323.589743,4574.358974,4525.641025,4250.769230,4475.897435,4185.128205,4436.923076,4212.820512,4232.820512,4487.692307,4166.153846,4584.102564,3966.153847,4037.435897
121,4325.128205,4577.435897,4529.230769,4260.512820,4475.384615,4184.615384,4438.974358,4214.871794,4229.743589,4486.153846,4164.615384,4585.641025,3968.205129,4040.000000
122,4327.692307,4585.641025,4527.179487,4251.282051,4474.871794,4190.256410,4440.000000,4219.487179,4229.743589,4494.358974,4182.564102,4587.692307,3966.666667,4044.615384
123,4328.205128,4581.538461,4524.102564,4252.820512,4477.948717,4199.487179,4441.538461,4217.948717,4230.256410,4493.333333,4184.615384,4585.128205,3965.128206,4044.102564
124,4331.282051,4577.948717,4525.641025,4269.743589,4481.538461,4195.384615,4441.025641,4217.435897,4232.820512,4489.230769,4173.333333,4586.153846,3971.794872,4044.102564
125,4326.666666,4580.000000,4525.128205,4263.589743,4479.487179,4186.153846,4436.923076,4218.461538,4231.282051,4488.205128,4170.769230,4583.076923,3973.333334,4043.076923
126,4315.897435,4573.333333,4520.512820,4246.153846,4470.769230,4183.589743,4433.333333,4216.923076,4232.307692,4486.666666,4174.358974,4573.846153,3960.000000,4038.461538
127,4319.487179,4571.282051,4521.538461,4253.846153,4467.179487,4185.641025,4434.871794,4218.461538,4237.435897,4493.846153,4174.358974,4576.410256,3954.871795,4040.512820
128,4327.179487,4576.923076,4526.153846,4264.102564,4473.846153,4189.743589,4435.384615,4218.461538,4233.333333,4500.000000,4174.871794,4587.179487,3966.153847,4046.666666
129,4322.051282,4576.410256,4524.102564,4252.307692,4474.871794,4188.717948,4432.307692,4213.333333,4228.205128,4493.333333,4174.358974,4585.641025,3972.820513,4046.666666
130,4321.025641,4571.794871,4524.615384,4249.743589,4470.769230,4188.717948,4435.384615,4219.487179,4237.435897,4494.358974,4175.384615,4581.025641,3971.282052,4047.179487
131,4330.256410,4573.333333,4534.871794,4258.974358,4474.358974,4193.333333,4443.076923,4231.282051,4244.102564,4502.051282,4184.102564,4587.179487,3972.307693,4051.794871
132,4333.333333,4574.871794,4540.000000,4257.948717,4478.461538,4194.871794,4444.615384,4227.692307,4237.948717,4503.076923,4189.743589,4591.282051,3973.333334,4054.358974
133,4324.615384,4567.179487,4529.743589,4253.846153,4473.846153,4190.769230,4437.435897,4215.897435,4229.743589,4496.923076,4182.051282,4584.615384,3966.153847,4046.666666
134,4315.897435,4561.025641,4521.538461,4256.410256,4471.794871,4188.205128,4433.333333,4213.846153,4229.230769,4489.230769,4173.333333,4579.487179,3956.410257,4037.948717
135,4318.974358,4564.102564,4524.102564,4253.846153,4476.923076,4192.307692,4437.948717,4218.974358,4236.410256,4487.692307,4171.282051,4583.589743,3957.435898,4039.487179
136,4320.000000,4566.666666,4528.205128,4246.666666,4480.000000,4193.846153,4443.589743,4218.461538,4240.000000,4488.717948,4166.666666,4585.128205,3958.461539,4044.102564
137,4313.333333,4562.051282,4527.179487,4246.666666,4478.974358,4192.820512,4439.487179,4214.871794,4230.769230,4486.153846,4165.128205,4580.000000,3953.846154,4044.102564
138,4310.256410,4561.025641,4525.128205,4249.743589,4480.512820,4194.871794,4436.923076,4214.871794,4226.153846,4485.128205,4172.820512,4581.025641,3955.897436,4040.000000
139,4312.307692,4564.615384,4525.128205,4245.641025,4481.025641,4193.333333,4441.538461,4216.923076,4234.358974,4487.692307,4179.487179,4586.666666,3965.641026,4040.000000
140,4313.846153,4564.615384,4525.128205,4242.051282,4476.923076,4192.307692,4443.076923,4214.358974,4236.410256,4485.128205,4170.769230,4584.615384,3964.615385,4045.128205
141,4316.923076,4563.076923,4526.666666,4247.692307,4474.358974,4195.384615,4442.564102,4212.820512,4226.153846,4480.512820,4164.615384,4582.051282,3958.974359,4047.692307
142,4317.435897,4561.538461,4525.641025,4243.076923,4476.923076,4193.846153,4445.641025,4216.410256,4223.076923,4486.666666,4173.846153,4584.102564,3962.051283,4044.615384
143,4309.743589,4557.948717,4522.564102,4227.179487,4475.897435,4187.692307,4444.102564,4216.923076,4232.307692,4490.256410,4169.230769,4582.051282,3963.589744,4037.435897
144,4306.153846,4559.487179,4523.076923,4234.358974,4472.307692,4187.179487,4437.948717,4216.923076,4237.435897,4485.641025,4151.282051,4580.512820,3964.615385,4036.923076
145,4310.256410,4563.589743,4524.102564,4246.666666,4473.333333,4188.205128,4438.974358,4218.461538,4232.820512,4483.076923,4157.435897,4583.076923,3967.179488,4042.564102
146,4314.871794,4564.615384,4525.641025,4234.358974,4473.333333,4186.153846,4446.666666,4214.871794,4228.717948,4486.666666,4177.435897,4583.589743,3966.666667,4046.666666
147,4319.487179,4570.769230,4534.358974,4235.897435,4475.897435,4190.769230,4452.820512,4217.948717,4235.384615,4491.794871,4183.589743,4590.256410,3971.282052,4051.282051
148,4321.538461,4573.333333,4537.435897,4251.282051,4483.589743,4196.410256,4453.333333,4227.692307,4242.564102,4493.333333,4178.974358,4598.974358,3973.333334,4051.794871
149,4316.923076,4566.666666,4531.282051,4238.974358,4482.564102,4194.358974,4452.820512,4225.641025,4238.461538,4493.333333,4174.358974,4592.820512,3970.769231,4048.717948
150,4311.794871,4562.564102,4530.769230,4225.641025,4475.384615,4192.307692,4449.230769,4221.538461,4235.897435,4493.846153,4175.384615,4584.102564,3973.846154,4047.692307
151,4314.358974,4563.076923,4536.410256,4246.153846,4479.487179,4195.897435,4449.743589,4225.641025,4239.487179,4495.384615,4179.487179,4591.794871,3983.589744,4050.256410
152,4327.692307,4571.282051,4546.666666,4262.051282,4491.794871,4204.615384,4460.512820,4237.948717,4249.230769,4508.717948,4189.230769,4606.153846,3989.230770,4062.051282
153,4338.974358,4582.051282,4554.358974,4253.333333,4494.358974,4210.256410,4466.153846,4251.794871,4256.923076,4523.076923,4201.025641,4611.282051,3992.307693,4072.307692
154,4329.230769,4574.358974,4546.666666,4245.128205,4483.076923,4202.564102,4456.923076,4245.641025,4249.230769,4513.333333,4188.205128,4604.102564,3985.641026,4063.589743
155,4310.769230,4554.358974,4531.794871,4238.974358,4476.923076,4194.358974,4446.153846,4225.128205,4231.794871,4489.743589,4166.153846,4595.384615,3973.333334,4048.717948
156,4312.307692,4557.435897,4536.923076,4233.333333,4481.538461,4194.358974,4447.179487,4224.615384,4233.333333,4489.743589,4167.692307,4596.923076,3973.333334,4051.282051
157,4327.179487,4572.820512,4548.205128,4241.025641,4483.076923,4201.538461,4451.794871,4237.948717,4250.256410,4507.179487,4177.948717,4604.102564,3981.538462,4063.076923
158,4333.846153,4573.333333,4545.641025,4256.410256,4482.564102,4207.179487,4452.820512,4236.410256,4252.307692,4509.743589,4181.025641,4605.128205,3987.179488,4067.692307
159,4329.230769,4569.743589,4543.076923,4261.025641,4487.179487,4206.666666,4453.846153,4230.769230,4241.025641,4504.102564,4181.538461,4603.076923,3988.717949,4063.589743
160,4326.153846,4570.769230,4544.102564,4254.358974,4489.230769,4204.102564,4453.333333,4235.897435,4237.435897,4508.717948,4172.307692,4605.128205,3986.153847,4060.000000
161,4332.307692,4573.333333,4544.102564,4252.820512,4487.692307,4206.153846,4453.846153,4243.589743,4248.205128,4513.333333,4170.769230,4606.666666,3985.641026,4062.564102
162,4335.897435,4573.333333,4540.512820,4255.897435,4486.153846,4204.615384,4451.794871,4238.461538,4252.307692,4506.666666,4181.025641,4605.641025,3988.717949,4060.000000
163,4325.641025,4566.153846,4536.923076,4249.743589,4480.000000,4196.410256,4447.179487,4227.179487,4240.512820,4500.512820,4174.358974,4600.512820,3984.615385,4049.230769
164,4314.871794,4556.410256,4534.871794,4240.512820,4473.846153,4193.333333,4443.076923,4221.025641,4227.692307,4497.948717,4161.025641,4592.307692,3970.256411,4043.076923
165,4318.974358,4560.512820,4535.384615,4245.641025,4477.948717,4195.384615,4445.128205,4215.897435,4225.641025,4497.435897,4172.307692,4593.333333,3970.769231,4047.692307
166,4333.333333,4571.794871,4541.025641,4257.435897,4485.641025,4198.461538,4451.794871,4220.000000,4232.820512,4500.512820,4190.256410,4604.102564,3987.179488,4056.410256
167,4335.897435,4572.820512,4544.615384,4265.641025,4486.666666,4200.000000,4453.846153,4232.820512,4242.564102,4501.025641,4190.769230,4609.743589,3997.948718,4060.512820
168,4319.487179,4568.205128,4542.564102,4262.564102,4476.923076,4194.871794,4449.743589,4232.307692,4247.692307,4501.025641,4174.358974,4602.564102,3992.307693,4054.358974
169,4311.282051,4564.615384,4536.410256,4249.230769,4471.794871,4191.794871,4446.666666,4221.538461,4242.564102,4502.564102,4164.102564,4593.333333,3975.897436,4045.641025
170,4319.487179,4562.564102,4534.871794,4245.128205,4478.461538,4197.948717,4451.282051,4222.051282,4233.333333,4501.538461,4171.282051,4593.333333,3963.589744,4046.153846
171,4323.076923,4562.564102,4538.974358,4252.820512,4480.000000,4199.487179,4457.435897,4229.230769,4234.871794,4501.025641,4177.435897,4598.461538,3968.205129,4050.256410
172,4320.512820,4562.051282,4539.487179,4256.410256,4475.384615,4198.461538,4458.461538,4232.820512,4242.051282,4504.102564,4182.564102,4603.076923,3983.076924,4051.794871
173,4323.589743,4560.512820,4537.948717,4250.769230,4477.435897,4202.564102,4456.923076,4232.820512,4245.641025,4505.641025,4188.717948,4601.538461,3987.179488,4051.282051
174,4326.153846,4562.051282,4539.487179,4248.205128,4482.051282,4200.512820,4458.974358,4232.820512,4246.153846,4504.102564,4186.666666,4599.487179,3976.410257,4050.256410
175,4317.435897,4562.051282,4534.871794,4249.743589,4482.051282,4193.846153,4454.871794,4229.230769,4243.589743,4497.948717,4168.205128,4600.000000,3965.128206,4044.102564
176,4312.307692,4554.358974,4525.128205,4245.641025,4478.974358,4194.358974,4444.615384,4220.512820,4233.333333,4493.333333,4151.282051,4594.358974,3966.666667,4037.948717
177,4314.358974,4549.743589,4522.564102,4241.538461,4472.307692,4194.358974,4441.025641,4214.871794,4222.051282,4497.435897,4159.487179,4588.205128,3972.307693,4044.102564
178,4314.871794,4555.384615,4523.589743,4251.794871,4466.153846,4188.205128,4442.051282,4215.384615,4221.025641,4498.974358,4171.794871,4589.230769,3970.256411,4049.230769
179,4315.897435,4560.512820,4528.205128,4264.102564,4469.743589,4188.717948,4447.692307,4215.897435,4230.256410,4494.871794,4172.820512,4593.846153,3972.307693,4045.641025
180,4314.358974,4558.461538,4533.846153,4254.871794,4477.435897,4191.282051,4451.794871,4218.461538,4236.410256,4492.307692,4172.820512,4591.794871,3972.820513,4042.051282
181,4309.743589,4553.846153,4526.153846,4241.538461,4476.410256,4187.692307,4449.743589,4218.461538,4229.230769,4491.794871,4173.333333,4585.128205,3967.179488,4038.974358
182,4314.358974,4556.923076,4523.589743,4253.846153,4471.794871,4190.769230,4447.692307,4215.897435,4223.589743,4495.384615,4163.076923,4587.179487,3971.282052,4036.923076
183,4330.256410,4568.205128,4538.461538,4270.769230,4477.948717,4201.025641,4456.410256,4225.128205,4233.333333,4502.564102,4164.102564,4598.461538,3983.076924,4046.153846
184,4335.384615,4571.794871,4546.153846,4265.641025,4485.641025,4204.615384,4464.102564,4235.897435,4239.487179,4505.641025,4187.179487,4604.102564,3983.589744,4057.948717
185,4329.230769,4563.076923,4538.461538,4258.461538,4483.076923,4205.128205,4461.025641,4229.743589,4234.871794,4504.102564,4193.333333,4601.538461,3985.128206,4053.846153
186,4327.179487,4559.487179,4537.435897,4267.179487,4480.512820,4202.564102,4456.923076,4225.641025,4240.000000,4509.230769,4178.461538,4601.538461,3993.846154,4047.692307
187,4330.769230,4562.051282,4540.000000,4272.820512,4481.538461,4198.461538,4460.512820,4231.794871,4247.692307,4516.410256,4176.923076,4604.102564,3993.333334,4050.769230
188,4335.897435,4565.128205,4541.025641,4273.846153,4480.000000,4201.538461,4464.615384,4236.923076,4245.641025,4518.461538,4194.358974,4606.666666,3993.846154,4056.923076
189,4340.000000,4568.205128,4541.538461,4279.487179,4481.025641,4202.564102,4463.076923,4235.384615,4242.564102,4510.769230,4189.230769,4610.256410,3997.435898,4056.923076
190,4333.333333,4564.615384,4538.974358,4272.820512,4483.589743,4200.512820,4461.538461,4229.230769,4239.487179,4496.923076,4168.717948,4606.153846,3991.794872,4050.256410
191,4320.512820,4554.871794,4534.358974,4261.538461,4481.538461,4202.564102,4458.974358,4220.000000,4233.846153,4492.820512,4174.871794,4598.974358,3980.512821,4042.051282
192,4313.846153,4547.692307,4526.666666,4259.487179,4471.794871,4197.435897,4453.846153,4216.410256,4230.256410,4496.410256,4187.179487,4595.897435,3969.230770,4033.846153
193,4312.307692,4542.051282,4520.512820,4255.384615,4465.128205,4184.615384,4449.743589,4214.358974,4226.666666,4487.179487,4174.871794,4588.717948,3959.487180,4025.641025
194,4310.256410,4541.538461,4520.000000,4252.820512,4467.179487,4182.051282,4448.717948,4210.256410,4222.564102,4483.076923,4166.153846,4579.487179,3960.512821,4023.076923
195,4313.846153,4547.179487,4523.076923,4262.564102,4470.769230,4190.256410,4453.846153,4215.897435,4230.769230,4496.923076,4179.487179,4583.076923,3972.820513,4033.333333
196,4316.410256,4550.256410,4523.589743,4268.717948,4469.743589,4190.256410,4456.923076,4221.538461,4237.435897,4503.076923,4186.666666,4592.307692,3976.410257,4040.512820
197,4309.743589,4547.692307,4523.076923,4257.435897,4470.769230,4184.615384,4450.769230,4216.410256,4228.205128,4491.794871,4181.025641,4589.230769,3970.256411,4031.794871
198,4309.743589,4546.153846,4525.128205,4250.769230,4471.282051,4185.128205,4448.205128,4217.435897,4232.307692,4491.282051,4178.974358,4586.666666,3965.641026,4029.743589
199,4317.435897,4545.128205,4525.128205,4258.461538,4467.692307,4187.179487,4450.256410,4218.461538,4239.487179,4493.846153,4173.846153,4589.230769,3961.538462,4036.923076
200,4317.948717,4545.128205,4526.153846,4265.641025,4467.179487,4184.102564,4447.692307,4207.179487,4223.589743,4482.564102,4164.102564,4587.179487,3959.487180,4037.435897
201,4321.538461,4547.692307,4533.333333,4266.153846,4467.692307,4183.589743,4446.666666,4206.666666,4222.564102,4484.102564,4170.769230,4589.230769,3965.641026,4039.487179
202,4326.153846,4550.769230,4537.948717,4267.179487,4468.717948,4189.743589,4451.282051,4217.948717,4243.076923,4498.461538,4187.179487,4599.487179,3972.820513,4047.179487
203,4322.564102,4553.333333,4537.435897,4269.743589,4474.871794,4192.307692,4452.307692,4217.948717,4243.589743,4498.974358,4193.333333,4604.102564,3975.897436,4048.205128
204,4321.025641,4550.769230,4537.435897,4263.076923,4473.333333,4188.205128,4449.230769,4213.333333,4230.769230,4488.205128,4185.641025,4597.948717,3974.871795,4045.128205
205,4325.128205,4550.769230,4536.410256,4258.974358,4466.153846,4184.102564,4447.692307,4210.769230,4227.692307,4484.102564,4174.358974,4591.794871,3963.589744,4047.692307
206,4325.641025,4556.410256,4535.897435,4271.282051,4469.743589,4187.692307,4447.179487,4206.153846,4228.717948,4490.769230,4174.358974,4594.358974,3961.025642,4053.846153
207,4323.589743,4555.897435,4537.948717,4286.666666,4475.384615,4193.846153,4446.153846,4204.615384,4227.692307,4496.923076,4182.051282,4601.025641,3971.282052,4057.435897
208,4325.641025,4552.307692,4537.948717,4285.641025,4473.333333,4188.717948,4446.153846,4206.153846,4231.794871,4499.487179,4182.564102,4602.564102,3981.025642,4056.923076
209,4326.153846,4556.923076,4537.948717,4279.487179,4474.871794,4187.692307,4449.743589,4212.307692,4234.871794,4503.076923,4185.641025,4602.051282,3984.615385,4058.974358
210,4324.615384,4557.948717,4538.974358,4277.435897,4476.410256,4194.358974,4449.230769,4217.948717,4233.333333,4502.564102,4196.923076,4604.102564,3982.564103,4060.512820
211,4323.076923,4548.717948,4534.871794,4270.256410,4471.282051,4191.794871,4441.538461,4208.205128,4228.717948,4494.358974,4195.897435,4602.051282,3975.897436,4051.282051
212,4323.589743,4547.692307,4532.307692,4268.205128,4468.205128,4186.666666,4440.000000,4202.564102,4227.179487,4494.871794,4187.179487,4595.897435,3970.769231,4046.666666
213,4326.153846,4551.794871,4535.384615,4277.435897,4474.871794,4189.743589,4448.717948,4212.307692,4233.333333,4500.512820,4192.307692,4593.333333,3974.358975,4055.384615
214,4324.102564,4546.153846,4536.923076,4282.051282,4478.461538,4191.794871,4449.230769,4213.846153,4236.923076,4497.435897,4200.512820,4592.820512,3975.384616,4055.897435
215,4323.589743,4546.153846,4534.358974,4277.948717,4474.871794,4190.256410,4443.076923,4205.641025,4231.282051,4493.846153,4191.794871,4588.717948,3969.230770,4046.153846
216,4327.692307,4555.384615,4533.333333,4274.358974,4475.897435,4189.743589,4444.615384,4209.743589,4225.641025,4497.435897,4182.564102,4587.179487,3971.282052,4045.641025
217,4328.717948,4555.897435,4534.871794,4271.794871,4474.871794,4189.743589,4451.794871,4215.897435,4230.256410,4499.487179,4197.435897,4593.846153,3980.512821,4053.846153
218,4325.128205,4546.153846,4534.871794,4266.666666,4470.769230,4187.179487,4451.794871,4211.794871,4235.897435,4496.923076,4207.179487,4593.333333,3978.974359,4054.358974
219,4325.641025,4543.589743,4533.846153,4270.256410,4474.871794,4187.692307,4446.666666,4208.717948,4236.410256,4503.076923,4195.897435,4589.230769,3973.333334,4051.282051
220,4331.282051,4546.666666,4534.358974,4282.564102,4477.435897,4191.282051,4449.230769,4212.307692,4236.923076,4510.769230,4196.410256,4596.410256,3985.128206,4055.897435
221,4333.846153,4546.153846,4539.487179,4289.743589,4472.820512,4192.820512,4454.358974,4219.487179,4235.897435,4507.692307,4211.282051,4604.102564,3989.230770,4055.897435
222,4328.717948,4541.025641,4537.435897,4284.615384,4472.820512,4188.717948,4450.769230,4216.923076,4235.897435,4500.512820,4210.256410,4597.435897,3974.871795,4048.717948
223,4318.974358,4533.846153,4527.179487,4272.307692,4471.282051,4182.051282,4444.102564,4204.102564,4234.358974,4492.820512,4196.410256,4589.743589,3964.102565,4046.153846
224,4310.256410,4527.179487,4522.564102,4268.717948,4463.076923,4179.487179,4439.487179,4195.384615,4225.641025,4480.000000,4186.153846,4586.153846,3964.102565,4042.564102
225,4308.717948,4524.102564,4520.512820,4269.743589,4463.589743,4178.974358,4436.923076,4194.871794,4217.435897,4478.974358,4179.487179,4583.589743,3963.076924,4036.410256
226,4315.897435,4530.256410,4524.615384,4269.230769,4466.666666,4184.102564,4438.461538,4199.487179,4219.487179,4492.307692,4183.076923,4587.692307,3960.512821,4041.538461
227,4325.128205,4537.948717,4532.307692,4274.871794,4465.128205,4188.717948,4446.666666,4202.564102,4227.179487,4497.435897,4197.948717,4592.307692,3965.128206,4050.769230
228,4322.051282,4535.897435,4529.230769,4282.051282,4465.128205,4183.589743,4448.717948,4200.000000,4226.666666,4496.923076,4203.076923,4589.743589,3970.256411,4047.692307
229,4313.846153,4530.769230,4521.025641,4283.076923,4463.589743,4174.358974,4440.512820,4196.923076,4228.717948,4496.923076,4193.846153,4585.641025,3967.179488,4042.051282
230,4314.871794,4529.743589,4522.564102,4275.897435,4457.435897,4174.358974,4436.410256,4195.897435,4230.769230,4489.230769,4181.025641,4585.641025,3965.128206,4041.538461
231,4317.435897,4524.615384,4522.051282,4271.282051,4456.410256,4174.871794,4434.871794,4190.769230,4216.410256,4483.589743,4173.333333,4583.589743,3967.692308,4040.512820
232,4315.384615,4523.589743,4517.435897,4273.333333,4462.051282,4174.871794,4435.384615,4190.256410,4211.794871,4491.794871,4176.923076,4581.538461,3963.076924,4042.564102
233,4313.846153,4530.256410,4518.974358,4273.846153,4464.102564,4177.435897,4438.974358,4201.025641,4224.102564,4499.487179,4184.102564,4581.025641,3955.384616,4043.589743
234,4312.820512,4527.179487,4517.948717,4268.205128,4460.000000,4178.461538,4440.000000,4203.589743,4228.205128,4492.307692,4181.538461,4577.435897,3955.384616,4038.974358
235,4311.794871,4523.589743,4517.948717,4272.820512,4462.564102,4181.538461,4442.564102,4198.461538,4229.230769,4490.769230,4184.615384,4578.974358,3963.076924,4036.410256
236,4316.410256,4532.307692,4526.666666,4284.102564,4469.230769,4183.076923,4445.128205,4203.589743,4236.923076,4503.589743,4203.589743,4585.128205,3968.205129,4041.538461
237,4315.897435,4529.230769,4523.076923,4274.871794,4466.153846,4177.435897,4440.000000,4205.641025,4224.615384,4497.435897,4199.487179,4577.435897,3958.974359,4040.000000
238,4310.769230,4515.897435,4513.846153,4268.205128,4458.974358,4172.307692,4433.846153,4199.487179,4208.717948,4483.076923,4179.487179,4568.717948,3951.282052,4035.897435
239,4312.820512,4520.512820,4517.435897,4274.358974,4457.435897,4173.333333,4436.923076,4199.487179,4218.461538,4490.769230,4183.076923,4572.307692,3959.487180,4040.000000
240,4312.820512,4527.179487,4522.051282,4269.743589,4455.897435,4175.897435,4440.000000,4201.025641,4223.589743,4496.410256,4188.205128,4573.846153,3962.564103,4037.948717
241,4309.230769,4517.948717,4521.538461,4263.589743,4455.897435,4177.435897,4439.487179,4198.461538,4218.974358,4484.102564,4181.538461,4570.256410,3953.333334,4032.820512
242,4308.717948,4513.333333,4516.410256,4271.282051,4459.487179,4176.923076,4440.000000,4192.820512,4221.538461,4482.564102,4186.153846,4569.230769,3950.256411,4035.384615
243,4308.717948,4517.435897,4509.230769,4278.461538,4459.487179,4173.846153,4435.897435,4189.743589,4215.897435,4485.128205,4186.666666,4568.205128,3949.230770,4034.871794
244,4307.179487,4516.410256,4511.282051,4271.794871,4455.897435,4171.282051,4431.794871,4185.128205,4205.641025,4477.435897,4171.282051,4568.205128,3943.589744,4029.743589
245,4307.692307,4516.923076,4521.025641,4270.256410,4454.358974,4171.282051,4431.794871,4187.179487,4209.230769,4478.461538,4174.871794,4570.769230,3948.717949,4035.897435
246,4307.179487,4518.974358,4523.076923,4273.846153,4455.384615,4171.794871,4432.820512,4197.948717,4217.948717,4488.205128,4185.641025,4571.794871,3959.487180,4044.615384
247,4307.692307,4514.358974,4518.974358,4268.205128,4458.974358,4174.358974,4435.384615,4205.128205,4224.615384,4490.769230,4181.538461,4571.794871,3963.076924,4043.076923
248,4311.794871,4513.333333,4520.512820,4264.615384,4464.102564,4179.487179,4435.897435,4201.025641,4228.205128,4488.205128,4180.000000,4571.794871,3962.564103,4039.487179
249,4312.307692,4523.076923,4523.076923,4276.410256,4467.692307,4181.538461,4435.897435,4199.487179,4221.025641,4482.564102,4181.025641,4572.307692,3958.461539,4038.461538
250,4313.846153,4526.153846,4524.102564,4285.128205,4462.564102,4178.461538,4436.410256,4203.076923,4215.897435,4478.974358,4180.512820,4577.948717,3955.897436,4041.025641
251,4316.923076,4516.923076,4523.076923,4275.384615,4457.948717,4175.897435,4436.923076,4200.512820,4224.615384,4481.538461,4188.717948,4585.128205,3960.000000,4046.666666
252,4315.384615,4515.897435,4524.102564,4269.230769,4462.051282,4180.000000,4436.410256,4200.512820,4228.205128,4487.692307,4202.564102,4589.230769,3970.256411,4052.820512
253,4315.897435,4518.461538,4523.589743,4264.615384,4462.564102,4180.512820,4438.461538,4201.538461,4218.461538,4487.179487,4198.461538,4584.615384,3971.282052,4051.282051
254,4311.794871,4512.307692,4511.282051,4249.743589,4454.358974,4176.410256,4440.000000,4189.230769,4205.641025,4476.923076,4176.410256,4572.307692,3953.846154,4038.461538
255,4300.512820,4507.179487,4502.564102,4248.205128,4453.846153,4171.794871,4436.410256,4182.051282,4201.538461,4472.820512,4166.153846,4564.102564,3943.076924,4026.153846
