,AF3,F7,F3,FC5,T7,P7,O1,O2,P8,T8,FC6,F4,F8,AF4
0,4367.179487,4514.358974,4516.410256,4263.589743,4491.794871,4185.128205,4425.128205,4215.897435,4228.717948,4506.153846,4205.641025,4631.282051,3773.846154,4061.538461
1,4359.487179,4511.282051,4512.307692,4264.102564,4496.410256,4182.564102,4426.666666,4217.948717,4231.282051,4505.128205,4202.564102,4631.794871,3780.512821,4055.384615
2,4354.871794,4504.102564,4508.205128,4264.102564,4497.948717,4183.076923,4425.128205,4215.384615,4226.666666,4505.641025,4197.948717,4628.205128,3780.512821,4044.615384
3,4354.871794,4502.051282,4509.230769,4262.564102,4490.256410,4181.025641,4415.897435,4207.179487,4220.000000,4503.076923,4192.307692,4622.564102,3770.256411,4042.051282
4,4360.512820,4507.179487,4514.871794,4262.564102,4484.615384,4181.538461,4416.923076,4207.692307,4224.615384,4500.512820,4191.794871,4626.666666,3773.846154,4052.307692
5,4368.717948,4512.307692,4517.435897,4265.641025,4488.717948,4186.153846,4426.666666,4217.435897,4235.897435,4507.179487,4208.205128,4637.435897,3789.743590,4062.564102
6,4368.717948,4509.743589,4517.948717,4261.538461,4492.307692,4184.102564,4424.102564,4215.897435,4236.410256,4509.743589,4216.923076,4639.487179,3788.205129,4059.487179
7,4360.000000,4505.128205,4516.410256,4255.897435,4490.256410,4182.051282,4415.384615,4207.179487,4227.179487,4497.435897,4208.205128,4632.307692,3782.051283,4052.307692
8,4354.871794,4504.615384,4509.743589,4257.948717,4487.692307,4183.589743,4413.846153,4201.538461,4221.538461,4491.794871,4202.051282,4624.615384,3785.641026,4050.256410
9,4358.461538,4503.076923,4507.692307,4260.512820,4486.666666,4183.076923,4413.846153,4199.487179,4220.512820,4502.564102,4201.025641,4621.538461,3786.153847,4052.307692
10,4367.692307,4506.666666,4513.846153,4269.743589,4489.743589,4188.717948,4421.025641,4208.205128,4227.692307,4509.743589,4200.512820,4628.205128,3787.692308,4058.974358
11,4370.256410,4522.564102,4517.435897,4277.948717,4494.358974,4196.923076,4426.666666,4215.897435,4231.794871,4504.102564,4205.641025,4634.871794,3791.282052,4062.564102
12,4361.025641,4526.153846,4512.820512,4270.256410,4493.846153,4191.282051,4416.923076,4208.717948,4224.102564,4494.358974,4203.589743,4627.179487,3782.051283,4056.410256
13,4356.923076,4511.794871,4511.282051,4264.102564,4493.333333,4182.564102,4407.692307,4198.461538,4216.923076,4494.871794,4192.820512,4617.435897,3777.948718,4049.230769
14,4357.948717,4503.589743,4507.179487,4263.076923,4488.717948,4181.538461,4410.256410,4191.794871,4215.384615,4497.948717,4188.717948,4615.897435,3782.051283,4046.666666
15,4354.358974,4504.615384,4500.000000,4262.051282,4480.512820,4182.051282,4412.307692,4184.615384,4208.717948,4489.743589,4187.179487,4614.871794,3774.871795,4043.076923
16,4356.923076,4512.307692,4507.179487,4270.769230,4483.076923,4188.205128,4412.307692,4188.205128,4206.153846,4482.564102,4188.717948,4616.923076,3772.307693,4044.102564
17,4368.205128,4522.564102,4518.461538,4280.000000,4493.846153,4196.410256,4416.923076,4200.000000,4216.410256,4486.153846,4196.410256,4623.589743,3784.102565,4051.282051
18,4372.820512,4525.128205,4516.923076,4276.410256,4499.487179,4195.897435,4419.487179,4204.615384,4220.512820,4491.794871,4202.564102,4628.205128,3789.743590,4055.897435
19,4368.717948,4523.076923,4509.743589,4271.794871,4500.000000,4194.358974,4418.974358,4205.641025,4218.974358,4495.897435,4203.076923,4630.769230,3784.102565,4057.435897
20,4364.615384,4523.589743,4512.307692,4275.897435,4498.461538,4190.256410,4419.487179,4208.205128,4218.974358,4497.435897,4200.512820,4629.743589,3782.564103,4058.461538
21,4368.205128,4522.051282,4523.076923,4281.538461,4493.333333,4184.102564,4422.051282,4211.794871,4220.512820,4497.948717,4204.102564,4630.769230,3789.230770,4057.948717
22,4376.410256,4520.512820,4527.179487,4285.641025,4493.846153,4185.641025,4423.076923,4216.410256,4230.769230,4507.179487,4215.897435,4638.974358,3796.410257,4063.076923
23,4379.487179,4524.615384,4526.666666,4280.000000,4496.410256,4184.615384,4417.948717,4215.384615,4238.461538,4510.256410,4220.512820,4643.589743,3795.384616,4070.769230
24,4381.025641,4527.179487,4526.153846,4274.358974,4493.846153,4172.820512,4414.871794,4214.871794,4233.333333,4506.153846,4215.897435,4643.076923,3781.538462,4071.282051
25,4381.538461,4523.076923,4523.076923,4278.974358,4494.871794,4167.692307,4415.897435,4214.871794,4230.769230,4505.641025,4209.743589,4640.000000,3765.641026,4064.615384
26,4373.333333,4520.000000,4519.487179,4276.923076,4491.794871,4169.230769,4412.820512,4205.641025,4231.794871,4496.923076,4198.974358,4633.846153,3764.102565,4056.923076
27,4371.282051,4521.538461,4522.564102,4276.923076,4486.153846,4167.179487,4411.794871,4200.000000,4228.205128,4489.230769,4204.102564,4634.358974,3780.000000,4058.461538
28,4376.923076,4517.435897,4521.538461,4281.025641,4486.153846,4160.512820,4407.692307,4204.102564,4223.589743,4494.358974,4217.435897,4638.461538,3790.256411,4066.153846
29,4370.256410,4506.153846,4512.307692,4267.179487,4487.692307,4151.282051,4396.923076,4202.051282,4217.435897,4492.307692,4208.717948,4631.282051,3781.538462,4062.051282
30,4362.564102,4501.538461,4511.282051,4255.384615,4486.666666,4152.307692,4400.000000,4197.435897,4214.871794,4484.102564,4197.435897,4625.641025,3777.948718,4047.692307
31,4366.153846,4509.743589,4514.358974,4266.153846,4490.256410,4165.641025,4413.846153,4201.538461,4224.102564,4488.717948,4199.487179,4630.769230,3791.794872,4044.615384
32,4367.179487,4517.948717,4512.820512,4273.333333,4492.820512,4171.282051,4417.435897,4205.641025,4228.205128,4489.230769,4197.435897,4631.282051,3800.512821,4054.871794
33,4367.692307,4521.025641,4512.820512,4272.820512,4491.794871,4167.179487,4418.461538,4206.666666,4224.615384,4480.512820,4200.000000,4629.743589,3801.538462,4060.512820
34,4373.846153,4520.512820,4515.384615,4284.615384,4498.461538,4174.358974,4424.615384,4211.282051,4227.179487,4483.076923,4211.282051,4631.282051,3813.333334,4056.410256
35,4382.051282,4524.102564,4523.076923,4289.230769,4506.153846,4184.615384,4426.666666,4216.410256,4233.846153,4492.307692,4214.358974,4637.948717,3833.333334,4061.025641
36,4393.846153,4536.410256,4532.307692,4286.153846,4508.205128,4180.000000,4424.615384,4220.000000,4243.076923,4500.512820,4221.538461,4651.282051,3846.666667,4075.384615
37,4396.923076,4538.461538,4535.897435,4290.256410,4506.666666,4170.769230,4419.487179,4219.487179,4245.641025,4507.179487,4236.410256,4657.435897,3846.153847,4081.025641
38,4388.205128,4527.692307,4532.307692,4290.769230,4498.974358,4168.205128,4410.256410,4216.410256,4237.948717,4508.205128,4235.897435,4648.717948,3846.153847,4074.871794
39,4387.179487,4524.615384,4529.743589,4285.641025,4490.769230,4168.717948,4412.820512,4214.871794,4234.871794,4505.641025,4221.025641,4644.615384,3856.410257,4069.230769
40,4390.256410,4527.179487,4523.589743,4282.564102,4491.794871,4169.230769,4423.589743,4216.410256,4237.948717,4503.589743,4213.846153,4646.666666,3864.102565,4066.153846
41,4382.051282,4523.589743,4516.923076,4280.512820,4499.487179,4171.282051,4425.641025,4217.435897,4241.025641,4496.410256,4222.564102,4638.974358,3861.025642,4068.717948
42,4377.948717,4521.025641,4516.923076,4275.897435,4500.000000,4173.333333,4424.102564,4215.897435,4242.564102,4486.153846,4229.230769,4633.846153,3853.846154,4069.743589
43,4380.000000,4524.102564,4519.487179,4277.435897,4498.974358,4173.333333,4427.179487,4215.897435,4245.128205,4491.282051,4224.102564,4638.461538,3842.051283,4063.076923
44,4379.487179,4523.076923,4524.102564,4285.128205,4503.076923,4177.948717,4430.256410,4218.974358,4244.102564,4503.589743,4213.846153,4640.000000,3831.794872,4055.897435
45,4380.000000,4523.076923,4523.589743,4289.743589,4503.589743,4183.076923,4425.128205,4219.487179,4246.153846,4501.538461,4212.820512,4636.923076,3833.846154,4060.512820
46,4381.025641,4523.076923,4520.512820,4285.641025,4502.051282,4178.461538,4414.871794,4216.923076,4246.666666,4492.307692,4214.871794,4634.871794,3828.717949,4068.717948
47,4381.025641,4521.538461,4522.564102,4281.538461,4501.538461,4169.743589,4408.205128,4213.333333,4236.923076,4491.794871,4214.871794,4635.897435,3812.307693,4066.666666
48,4384.615384,4526.666666,4527.179487,4283.589743,4497.948717,4174.358974,4410.256410,4213.333333,4231.794871,4492.307692,4216.410256,4639.487179,3813.846154,4064.102564
49,4383.076923,4530.256410,4526.153846,4279.487179,4493.846153,4184.102564,4414.358974,4215.897435,4236.410256,4489.743589,4217.435897,4641.025641,3825.128206,4065.128205
50,4375.384615,4520.512820,4523.076923,4278.461538,4493.846153,4181.025641,4413.846153,4212.820512,4235.897435,4489.743589,4213.333333,4634.871794,3816.410257,4061.538461
51,4373.333333,4515.897435,4518.974358,4284.102564,4493.333333,4173.333333,4413.846153,4204.102564,4229.743589,4484.615384,4207.692307,4630.769230,3802.564103,4059.487179
52,4374.358974,4514.871794,4513.846153,4281.025641,4491.282051,4168.205128,4412.307692,4198.974358,4227.179487,4471.282051,4202.051282,4631.282051,3794.871795,4057.435897
53,4372.307692,4509.743589,4514.358974,4277.435897,4492.307692,4172.307692,4414.871794,4201.025641,4224.615384,4472.307692,4198.974358,4631.282051,3780.512821,4052.307692
54,4369.230769,4513.846153,4515.897435,4282.051282,4493.333333,4183.076923,4421.025641,4204.102564,4223.076923,4487.179487,4202.564102,4630.769230,3777.948718,4055.384615
55,4364.615384,4515.897435,4508.205128,4275.384615,4491.794871,4181.538461,4421.025641,4203.589743,4230.256410,4485.128205,4200.512820,4627.179487,3795.384616,4058.461538
56,4362.564102,4507.179487,4503.589743,4262.051282,4494.871794,4172.307692,4420.000000,4205.128205,4236.410256,4480.512820,4190.769230,4622.051282,3804.615385,4052.820512
57,4368.205128,4505.128205,4508.205128,4265.128205,4500.000000,4174.358974,4427.179487,4209.743589,4231.282051,4492.307692,4191.794871,4621.025641,3806.153847,4048.205128
58,4366.153846,4508.717948,4506.666666,4269.743589,4498.974358,4176.923076,4430.256410,4213.846153,4229.230769,4500.000000,4189.743589,4621.025641,3811.794872,4047.692307
59,4357.948717,4506.153846,4503.076923,4270.256410,4499.487179,4173.846153,4426.153846,4216.923076,4236.410256,4503.076923,4180.000000,4621.025641,3820.000000,4051.794871
60,4361.538461,4507.179487,4509.230769,4274.871794,4508.205128,4182.051282,4434.871794,4220.512820,4238.974358,4514.358974,4191.282051,4626.153846,3825.641026,4061.025641
61,4364.615384,4510.256410,4510.256410,4269.230769,4513.846153,4186.666666,4443.589743,4220.512820,4232.307692,4516.410256,4204.102564,4625.641025,3824.102565,4056.923076
62,4356.923076,4504.615384,4499.487179,4256.923076,4506.153846,4173.333333,4433.846153,4214.871794,4226.153846,4503.076923,4180.000000,4617.435897,3820.000000,4043.076923
63,4356.923076,4507.692307,4501.025641,4260.512820,4502.564102,4168.205128,4425.128205,4213.846153,4225.128205,4501.538461,4165.128205,4616.923076,3826.666667,4042.051282
64,4358.974358,4507.179487,4507.692307,4260.000000,4508.205128,4172.820512,4428.205128,4214.871794,4222.051282,4508.717948,4184.615384,4618.461538,3834.871795,4046.666666
65,4346.666666,4491.794871,4498.461538,4246.153846,4504.615384,4168.717948,4429.230769,4212.820512,4214.871794,4507.179487,4189.743589,4614.871794,3828.205129,4043.589743
66,4346.153846,4491.794871,4494.871794,4248.205128,4498.461538,4164.615384,4425.128205,4211.794871,4217.948717,4508.717948,4178.461538,4612.820512,3820.000000,4040.512820
67,4362.564102,4507.692307,4506.666666,4262.051282,4503.076923,4169.230769,4427.179487,4219.487179,4234.871794,4525.128205,4183.589743,4619.487179,3823.076924,4043.589743
68,4365.128205,4508.717948,4510.769230,4264.615384,4509.743589,4170.256410,4431.282051,4226.153846,4241.538461,4535.384615,4192.820512,4626.153846,3831.794872,4048.205128
69,4355.897435,4502.051282,4502.051282,4260.000000,4507.692307,4160.512820,4426.153846,4220.000000,4232.307692,4527.179487,4186.666666,4626.153846,3833.333334,4047.179487
70,4351.794871,4507.179487,4497.948717,4260.512820,4507.692307,4152.820512,4418.461538,4211.282051,4226.153846,4516.923076,4178.974358,4619.487179,3827.692308,4043.076923
71,4355.897435,4508.205128,4501.025641,4263.076923,4511.282051,4155.384615,4420.512820,4211.794871,4225.128205,4511.794871,4182.564102,4614.358974,3827.692308,4043.076923
72,4363.589743,4508.205128,4503.076923,4262.564102,4510.256410,4156.923076,4428.717948,4219.487179,4227.179487,4512.820512,4185.128205,4617.435897,3829.743590,4047.692307
73,4367.179487,4514.358974,4507.179487,4257.435897,4507.179487,4152.820512,4430.769230,4224.615384,4237.948717,4520.512820,4182.564102,4620.000000,3823.589744,4050.256410
74,4365.641025,4515.897435,4511.794871,4258.974358,4508.717948,4158.974358,4431.794871,4227.692307,4247.692307,4530.769230,4188.717948,4624.102564,3816.923077,4051.282051
75,4367.692307,4520.000000,4515.897435,4270.769230,4517.435897,4169.743589,4433.846153,4232.307692,4248.717948,4537.435897,4200.512820,4631.794871,3815.897436,4052.307692
76,4369.230769,4522.564102,4520.512820,4273.333333,4518.974358,4163.589743,4432.307692,4227.179487,4245.128205,4536.410256,4196.923076,4634.358974,3812.307693,4051.794871
77,4365.128205,4508.205128,4518.461538,4265.128205,4509.230769,4153.846153,4428.717948,4216.923076,4235.897435,4528.205128,4184.102564,4629.230769,3800.512821,4049.230769
78,4365.128205,4502.564102,4512.307692,4262.051282,4505.641025,4154.871794,4427.692307,4215.384615,4230.256410,4522.564102,4185.641025,4627.692307,3792.307693,4051.794871
79,4366.153846,4518.974358,4515.897435,4263.589743,4508.717948,4156.410256,4425.641025,4217.435897,4232.307692,4525.128205,4194.871794,4631.794871,3796.410257,4053.846153
80,4366.153846,4527.692307,4525.641025,4268.717948,4507.692307,4153.846153,4421.025641,4215.897435,4233.333333,4530.256410,4196.410256,4633.333333,3799.487180,4051.794871
81,4369.230769,4517.948717,4525.128205,4275.384615,4507.692307,4151.282051,4420.000000,4214.871794,4229.743589,4528.205128,4200.000000,4634.871794,3797.435898,4055.897435
82,4368.717948,4511.282051,4514.358974,4269.743589,4508.205128,4143.076923,4417.435897,4208.717948,4223.076923,4517.435897,4200.512820,4632.820512,3795.897436,4055.897435
83,4357.435897,4508.717948,4508.205128,4258.461538,4505.641025,4134.358974,4412.820512,4200.000000,4215.897435,4505.128205,4188.205128,4624.102564,3791.794872,4046.153846
84,4351.282051,4506.666666,4507.692307,4261.538461,4504.615384,4134.871794,4416.923076,4200.512820,4213.333333,4504.102564,4180.512820,4619.487179,3789.230770,4041.025641
85,4358.461538,4513.846153,4510.769230,4268.717948,4505.641025,4141.538461,4424.102564,4203.076923,4216.923076,4514.871794,4184.102564,4621.538461,3800.000000,4045.128205
86,4361.025641,4521.025641,4513.333333,4269.743589,4508.717948,4143.076923,4422.564102,4201.025641,4218.974358,4516.923076,4185.641025,4623.589743,3804.615385,4047.179487
87,4354.358974,4520.512820,4508.717948,4267.179487,4509.743589,4139.487179,4416.923076,4200.512820,4221.538461,4509.743589,4187.692307,4620.000000,3800.512821,4043.589743
88,4356.923076,4522.051282,4508.717948,4263.589743,4508.717948,4143.076923,4418.974358,4202.051282,4225.128205,4518.974358,4192.820512,4619.487179,3806.666667,4046.666666
89,4366.153846,4524.102564,4512.307692,4265.128205,4510.256410,4146.153846,4424.102564,4203.589743,4224.615384,4527.179487,4186.153846,4622.051282,3809.743590,4046.666666
90,4364.102564,4521.025641,4510.769230,4265.641025,4509.230769,4136.923076,4420.512820,4209.230769,4224.615384,4514.358974,4184.102564,4619.487179,3805.128206,4043.589743
91,4357.948717,4520.512820,4511.794871,4261.025641,4505.128205,4136.410256,4421.025641,4215.384615,4229.230769,4507.692307,4196.923076,4622.564102,3807.179488,4048.205128
92,4364.102564,4527.179487,4517.948717,4269.230769,4513.333333,4152.820512,4431.282051,4221.025641,4235.384615,4517.948717,4205.641025,4632.820512,3809.230770,4060.512820
93,4368.717948,4527.692307,4517.948717,4280.512820,4520.512820,4153.333333,4434.358974,4217.948717,4232.820512,4516.410256,4200.000000,4631.794871,3797.435898,4056.923076
94,4358.461538,4518.461538,4509.230769,4272.307692,4511.282051,4137.435897,4424.615384,4205.641025,4222.051282,4504.102564,4187.692307,4616.923076,3791.282052,4040.000000
95,4350.769230,4515.384615,4506.153846,4260.000000,4504.102564,4134.358974,4424.102564,4204.615384,4219.487179,4503.589743,4181.025641,4614.871794,3797.948718,4037.435897
96,4357.948717,4519.487179,4512.820512,4259.487179,4507.179487,4138.461538,4430.256410,4215.897435,4228.205128,4516.923076,4188.205128,4625.128205,3801.025642,4046.666666
97,4364.102564,4526.153846,4517.948717,4268.717948,4508.717948,4138.974358,4430.256410,4217.948717,4234.871794,4527.179487,4202.051282,4631.794871,3805.641026,4054.871794
98,4365.128205,4526.666666,4516.923076,4276.410256,4509.743589,4138.461538,4429.230769,4212.307692,4230.769230,4518.974358,4204.102564,4631.794871,3816.923077,4057.948717
99,4364.615384,4517.948717,4515.384615,4272.307692,4508.205128,4136.410256,4428.717948,4210.769230,4224.615384,4508.205128,4200.512820,4630.256410,3826.666667,4053.846153
100,4360.000000,4513.846153,4514.871794,4264.102564,4496.923076,4132.820512,4422.564102,4209.743589,4224.615384,4508.717948,4201.538461,4629.230769,3818.974359,4048.717948
101,4355.897435,4517.948717,4511.282051,4266.153846,4488.717948,4133.846153,4417.948717,4205.128205,4226.153846,4508.717948,4197.435897,4629.230769,3804.615385,4052.820512
102,4364.615384,4524.102564,4515.384615,4271.282051,4493.846153,4137.948717,4423.589743,4210.256410,4230.256410,4504.615384,4197.435897,4633.846153,3798.461539,4060.000000
103,4377.435897,4527.692307,4527.179487,4275.897435,4507.179487,4141.025641,4430.769230,4216.410256,4233.846153,4505.128205,4210.769230,4643.076923,3800.512821,4060.512820
104,4373.846153,4527.692307,4525.641025,4278.461538,4506.666666,4137.435897,4429.230769,4209.230769,4227.179487,4507.692307,4209.743589,4643.589743,3801.025642,4059.487179
105,4363.589743,4521.538461,4515.897435,4277.435897,4495.384615,4131.282051,4425.641025,4203.076923,4217.435897,4502.564102,4200.512820,4634.871794,3803.076924,4058.461538
106,4364.615384,4520.512820,4518.461538,4273.846153,4495.897435,4136.410256,4429.743589,4210.769230,4227.179487,4504.102564,4211.282051,4637.948717,3815.384616,4060.512820
107,4365.641025,4526.153846,4523.589743,4269.743589,4500.512820,4144.102564,4434.871794,4222.051282,4243.076923,4513.333333,4216.410256,4646.666666,3819.487180,4062.564102
108,4357.948717,4522.051282,4515.384615,4262.564102,4494.871794,4142.564102,4432.307692,4214.358974,4234.358974,4510.769230,4201.025641,4637.435897,3803.076924,4053.846153
109,4356.923076,4517.435897,4509.230769,4259.487179,4491.282051,4139.487179,4427.179487,4200.512820,4221.025641,4502.564102,4195.384615,4624.615384,3796.410257,4046.153846
110,4361.025641,4520.000000,4519.487179,4269.743589,4495.384615,4141.025641,4429.230769,4205.641025,4230.256410,4505.128205,4204.615384,4629.743589,3805.641026,4054.358974
111,4360.512820,4522.051282,4526.666666,4278.461538,4494.358974,4141.025641,4436.410256,4217.948717,4244.615384,4509.230769,4207.179487,4636.923076,3803.589744,4064.102564
112,4362.051282,4524.102564,4522.051282,4273.846153,4491.282051,4138.974358,4438.461538,4222.051282,4243.076923,4511.282051,4205.128205,4633.333333,3794.871795,4062.051282
113,4362.051282,4518.974358,4513.846153,4266.153846,4490.769230,4139.487179,4433.846153,4216.410256,4232.820512,4508.205128,4203.589743,4627.179487,3794.358975,4053.333333
114,4355.897435,4506.666666,4509.230769,4258.974358,4489.230769,4132.820512,4429.230769,4208.717948,4228.717948,4493.333333,4197.435897,4624.102564,3795.384616,4045.641025
115,4355.384615,4509.230769,4511.282051,4257.948717,4490.256410,4128.717948,4429.230769,4205.128205,4230.769230,4493.333333,4193.333333,4625.128205,3795.897436,4047.692307
116,4356.923076,4517.435897,4515.384615,4264.102564,4491.282051,4133.846153,4430.769230,4210.769230,4230.769230,4503.589743,4200.000000,4628.717948,3798.461539,4056.923076
117,4357.948717,4517.948717,4517.435897,4268.717948,4490.769230,4136.923076,4434.358974,4218.461538,4230.769230,4498.974358,4205.641025,4631.282051,3802.564103,4061.025641
118,4360.000000,4515.384615,4517.948717,4265.128205,4493.333333,4129.743589,4435.384615,4216.410256,4234.358974,4495.384615,4192.820512,4627.179487,3804.102565,4054.871794
119,4350.769230,4509.743589,4509.743589,4256.410256,4487.692307,4121.538461,4429.743589,4207.179487,4230.256410,4498.461538,4180.000000,4618.974358,3798.461539,4041.025641
120,4340.512820,4503.589743,4504.615384,4252.820512,4476.923076,4118.461538,4424.102564,4200.512820,4225.641025,4495.384615,4187.692307,4615.897435,3787.692308,4036.923076
121,4346.666666,4505.641025,4508.717948,4253.333333,4482.051282,4115.897435,4423.589743,4202.051282,4229.230769,4486.666666,4190.256410,4618.461538,3785.641026,4042.051282
122,4351.282051,4507.179487,4507.179487,4252.820512,4489.743589,4111.794871,4423.589743,4202.564102,4224.615384,4480.000000,4174.358974,4619.487179,3787.692308,4039.487179
123,4348.205128,4503.076923,4503.589743,4257.948717,4481.025641,4107.179487,4422.051282,4198.461538,4218.461538,4481.538461,4172.307692,4621.538461,3782.564103,4037.435897
124,4350.256410,4506.153846,4513.846153,4264.102564,4473.846153,4106.666666,4423.076923,4200.512820,4225.128205,4487.179487,4190.769230,4627.692307,3783.076924,4045.641025
125,4351.282051,4509.230769,4517.435897,4260.512820,4478.461538,4107.692307,4422.564102,4201.538461,4226.666666,4483.076923,4196.410256,4630.769230,3787.179488,4047.692307
126,4346.666666,4505.128205,4510.769230,4256.410256,4483.589743,4103.076923,4422.051282,4197.948717,4218.974358,4477.435897,4184.615384,4627.179487,3784.102565,4040.512820
127,4351.282051,4505.641025,4515.897435,4264.102564,4485.128205,4103.076923,4426.666666,4203.076923,4225.641025,4487.179487,4181.025641,4627.179487,3790.256411,4043.589743
128,4357.435897,4513.846153,4522.051282,4266.666666,4486.666666,4109.743589,4429.230769,4209.743589,4235.384615,4501.025641,4192.307692,4632.820512,3811.794872,4054.871794
129,4354.358974,4515.897435,4515.384615,4263.589743,4481.538461,4106.153846,4423.076923,4203.589743,4230.769230,4500.000000,4200.000000,4632.820512,3818.461539,4056.410256
130,4355.897435,4511.794871,4513.333333,4263.589743,4476.923076,4098.461538,4418.974358,4198.461538,4229.230769,4490.256410,4202.564102,4628.717948,3811.282052,4052.307692
131,4362.564102,4518.461538,4518.461538,4266.153846,4482.564102,4107.179487,4423.589743,4206.153846,4233.333333,4493.846153,4206.666666,4633.333333,3815.897436,4051.282051
132,4360.512820,4527.179487,4517.435897,4270.256410,4493.846153,4120.000000,4425.641025,4208.205128,4232.307692,4502.051282,4204.615384,4636.923076,3816.923077,4052.307692
133,4357.435897,4524.102564,4517.948717,4271.794871,4494.871794,4119.487179,4423.589743,4206.666666,4235.897435,4499.487179,4202.564102,4632.307692,3809.743590,4053.846153
134,4365.641025,4520.512820,4524.102564,4275.897435,4489.230769,4118.974358,4425.641025,4214.358974,4245.641025,4498.461538,4211.282051,4633.846153,3810.769231,4061.538461
135,4370.256410,4526.666666,4524.615384,4280.000000,4494.871794,4123.076923,4428.205128,4218.974358,4244.102564,4501.025641,4214.358974,4640.000000,3811.282052,4063.589743
136,4363.076923,4528.205128,4519.487179,4271.794871,4497.435897,4121.025641,4425.641025,4216.410256,4233.333333,4494.871794,4204.102564,4634.871794,3801.538462,4051.282051
137,4352.307692,4513.846153,4514.871794,4257.948717,4486.666666,4116.923076,4423.076923,4212.307692,4232.307692,4490.769230,4197.435897,4628.717948,3789.743590,4042.564102
138,4344.615384,4500.000000,4510.769230,4255.384615,4483.589743,4115.897435,4420.000000,4206.153846,4236.410256,4487.179487,4197.435897,4626.666666,3781.538462,4043.076923
139,4348.205128,4504.102564,4509.230769,4266.153846,4483.076923,4111.282051,4416.410256,4198.974358,4227.179487,4475.384615,4191.282051,4622.051282,3773.846154,4044.615384
140,4356.410256,4516.923076,4511.794871,4273.333333,4477.948717,4108.205128,4412.820512,4198.974358,4213.846153,4470.256410,4185.128205,4618.461538,3758.974359,4044.615384
141,4352.307692,4522.051282,4512.820512,4266.666666,4481.538461,4109.743589,4411.794871,4198.461538,4213.333333,4473.846153,4183.076923,4617.948717,3742.051283,4041.538461
142,4350.769230,4522.564102,4514.358974,4261.025641,4486.666666,4108.717948,4418.461538,4197.435897,4216.410256,4474.871794,4183.076923,4620.000000,3748.717949,4039.487179
143,4361.025641,4522.564102,4515.384615,4271.794871,4482.051282,4108.717948,4423.589743,4199.487179,4217.435897,4472.307692,4188.717948,4626.153846,3765.128206,4049.743589
144,4365.128205,4521.538461,4516.410256,4279.487179,4478.461538,4113.333333,4421.538461,4202.051282,4219.487179,4478.974358,4198.974358,4632.307692,3764.102565,4060.512820
145,4364.102564,4525.128205,4520.000000,4275.897435,4484.615384,4116.410256,4421.538461,4203.589743,4223.589743,4493.333333,4206.153846,4632.820512,3775.897436,4061.025641
146,4364.102564,4527.692307,4518.974358,4277.435897,4490.256410,4116.410256,4426.666666,4206.153846,4226.153846,4493.333333,4202.051282,4631.282051,3800.000000,4058.461538
147,4358.974358,4522.051282,4513.846153,4272.820512,4486.153846,4119.487179,4429.743589,4211.794871,4231.282051,4486.666666,4198.974358,4629.743589,3803.589744,4055.897435
148,4355.897435,4521.025641,4514.358974,4263.589743,4480.000000,4122.564102,4427.179487,4216.923076,4237.435897,4490.256410,4204.102564,4629.743589,3804.102565,4055.384615
149,4364.102564,4529.230769,4516.923076,4269.230769,4477.435897,4121.538461,4422.051282,4215.897435,4236.410256,4494.358974,4204.615384,4631.794871,3814.871795,4057.948717
150,4368.205128,4528.205128,4516.923076,4276.923076,4480.000000,4121.538461,4421.025641,4210.769230,4233.846153,4492.820512,4201.538461,4632.307692,3823.589744,4057.948717
151,4362.564102,4523.076923,4518.974358,4273.846153,4481.538461,4128.205128,4425.128205,4206.666666,4231.282051,4493.333333,4202.564102,4632.820512,3826.153847,4058.461538
152,4361.025641,4524.615384,4516.923076,4273.333333,4486.666666,4133.333333,4424.102564,4203.589743,4228.717948,4489.230769,4202.564102,4632.820512,3827.692308,4060.512820
153,4366.153846,4532.307692,4515.384615,4277.948717,4491.794871,4130.256410,4421.025641,4203.076923,4230.769230,4481.025641,4199.487179,4630.769230,3833.846154,4057.435897
154,4370.256410,4536.923076,4524.102564,4277.435897,4490.256410,4131.794871,4426.153846,4209.743589,4233.333333,4483.589743,4202.051282,4629.743589,3839.487180,4052.820512
155,4367.692307,4530.256410,4524.615384,4275.897435,4492.820512,4137.435897,4430.256410,4216.923076,4235.384615,4494.358974,4200.512820,4629.743589,3836.923077,4051.794871
156,4364.102564,4524.102564,4516.923076,4280.512820,4492.307692,4133.333333,4426.153846,4215.897435,4233.846153,4498.974358,4197.435897,4630.769230,3839.487180,4055.384615
157,4367.179487,4533.846153,4517.948717,4278.974358,4487.692307,4130.256410,4424.615384,4208.205128,4229.230769,4487.692307,4207.692307,4632.820512,3845.128206,4059.487179
158,4371.282051,4543.589743,4523.076923,4272.307692,4487.692307,4136.410256,4427.179487,4208.717948,4231.282051,4477.948717,4214.358974,4632.820512,3835.384616,4055.384615
159,4369.230769,4534.871794,4520.000000,4275.897435,4491.282051,4141.025641,4425.128205,4215.384615,4236.410256,4486.666666,4205.641025,4627.692307,3826.153847,4052.307692
160,4360.000000,4518.974358,4512.820512,4276.410256,4485.128205,4136.410256,4417.948717,4207.692307,4226.153846,4487.692307,4194.871794,4618.461538,3826.666667,4050.769230
161,4354.358974,4513.846153,4509.743589,4266.666666,4477.948717,4134.871794,4415.384615,4198.461538,4216.410256,4476.923076,4191.794871,4614.358974,3836.923077,4048.205128
162,4358.461538,4521.025641,4514.358974,4268.717948,4483.076923,4143.589743,4423.589743,4206.666666,4226.666666,4479.487179,4194.871794,4623.076923,3858.974359,4048.205128
163,4360.512820,4526.666666,4519.487179,4273.846153,4483.589743,4147.179487,4427.692307,4211.282051,4234.871794,4486.666666,4202.564102,4629.230769,3869.743590,4047.179487
164,4357.435897,4520.000000,4515.897435,4264.102564,4478.461538,4140.000000,4420.000000,4202.564102,4231.794871,4484.102564,4205.641025,4621.538461,3857.948718,4043.076923
165,4356.410256,4516.923076,4512.820512,4261.025641,4478.461538,4134.358974,4412.820512,4201.538461,4229.743589,4483.076923,4194.358974,4618.974358,3851.794872,4044.102564
166,4357.948717,4522.564102,4511.794871,4268.717948,4484.102564,4137.435897,4411.282051,4205.128205,4226.153846,4480.512820,4186.153846,4624.102564,3852.307693,4047.692307
167,4359.487179,4522.051282,4511.794871,4267.692307,4486.153846,4136.410256,4410.769230,4200.512820,4217.948717,4474.358974,4192.307692,4624.615384,3847.179488,4045.128205
168,4357.435897,4511.794871,4514.871794,4267.179487,4479.487179,4129.230769,4410.256410,4198.461538,4211.794871,4474.358974,4196.410256,4622.051282,3844.615385,4040.000000
169,4351.282051,4507.179487,4512.307692,4266.153846,4474.871794,4125.128205,4409.743589,4199.487179,4210.769230,4476.923076,4188.205128,4619.487179,3847.692308,4036.923076
170,4353.333333,4515.384615,4510.769230,4260.512820,4484.102564,4123.589743,4407.179487,4199.487179,4212.820512,4481.538461,4182.564102,4620.000000,3848.205129,4040.000000
171,4365.128205,4524.615384,4513.846153,4262.564102,4492.820512,4127.179487,4408.717948,4202.051282,4216.410256,4492.307692,4185.128205,4623.589743,3848.717949,4047.692307
172,4367.692307,4524.615384,4513.846153,4266.666666,4491.282051,4131.282051,4412.820512,4202.564102,4222.051282,4494.358974,4184.102564,4622.564102,3853.846154,4048.717948
173,4356.923076,4516.923076,4509.230769,4263.076923,4491.282051,4129.230769,4412.820512,4200.000000,4223.076923,4491.282051,4185.128205,4615.384615,3857.948718,4041.025641
174,4352.307692,4514.358974,4508.717948,4260.000000,4492.820512,4122.564102,4411.282051,4200.000000,4220.512820,4496.410256,4188.205128,4615.897435,3860.000000,4035.384615
175,4360.512820,4522.051282,4512.307692,4260.512820,4490.256410,4122.564102,4413.333333,4201.025641,4221.025641,4501.025641,4183.589743,4618.974358,3862.564103,4042.051282
176,4368.205128,4525.128205,4512.820512,4262.051282,4499.487179,4126.153846,4415.897435,4203.589743,4226.153846,4501.025641,4184.102564,4615.897435,3869.230770,4053.846153
177,4364.615384,4520.000000,4510.769230,4265.641025,4506.666666,4122.051282,4412.820512,4209.743589,4230.256410,4503.589743,4191.282051,4615.897435,3881.538462,4048.717948
178,4359.487179,4518.974358,4511.794871,4269.230769,4498.461538,4118.974358,4413.333333,4209.743589,4231.282051,4508.717948,4191.794871,4621.538461,3897.948718,4041.538461
179,4363.589743,4523.589743,4516.410256,4266.666666,4494.358974,4120.512820,4422.051282,4206.666666,4234.358974,4517.435897,4187.179487,4626.153846,3909.230770,4049.743589
180,4373.333333,4523.076923,4520.000000,4261.538461,4504.615384,4120.000000,4425.641025,4210.256410,4230.256410,4520.512820,4193.846153,4628.205128,3909.743590,4057.435897
181,4380.512820,4529.743589,4524.615384,4267.692307,4511.794871,4120.000000,4423.076923,4214.358974,4221.025641,4514.358974,4206.153846,4631.794871,3908.717949,4055.897435
182,4378.974358,4536.410256,4527.692307,4278.974358,4507.692307,4122.051282,4425.128205,4213.846153,4221.025641,4511.794871,4203.076923,4632.820512,3908.205129,4056.923076
183,4376.410256,4527.692307,4527.692307,4280.512820,4506.153846,4122.564102,4429.743589,4214.358974,4226.666666,4510.769230,4188.717948,4632.820512,3911.282052,4059.487179
184,4377.948717,4525.128205,4528.717948,4279.487179,4509.743589,4125.641025,4428.717948,4219.487179,4227.692307,4507.692307,4187.692307,4635.384615,3933.333334,4057.435897
185,4377.948717,4534.358974,4531.282051,4279.487179,4508.205128,4133.846153,4428.717948,4221.025641,4227.692307,4510.256410,4197.948717,4637.435897,3965.641026,4051.794871
186,4373.846153,4531.282051,4528.205128,4267.692307,4507.692307,4137.435897,4435.384615,4220.512820,4233.846153,4516.410256,4201.538461,4636.410256,3987.692308,4045.128205
187,4367.179487,4521.025641,4523.589743,4266.153846,4507.179487,4135.897435,4440.000000,4222.051282,4232.820512,4509.743589,4201.538461,4633.333333,4000.000000,4048.205128
188,4368.717948,4521.538461,4526.153846,4278.974358,4507.692307,4137.435897,4440.000000,4221.025641,4228.205128,4504.102564,4200.000000,4635.897435,4022.051282,4060.000000
189,4375.897435,4525.641025,4529.230769,4273.333333,4506.666666,4137.948717,4436.410256,4223.076923,4235.897435,4513.333333,4200.512820,4638.974358,4043.589743,4058.974358
190,4377.435897,4529.230769,4527.179487,4264.102564,4505.128205,4137.435897,4433.846153,4228.717948,4243.076923,4523.076923,4208.205128,4636.923076,4047.692307,4048.205128
191,4375.384615,4530.256410,4525.128205,4276.410256,4505.641025,4140.512820,4433.846153,4227.692307,4241.025641,4524.615384,4210.769230,4638.461538,4042.051282,4050.769230
192,4377.435897,4526.153846,4528.205128,4284.615384,4507.692307,4140.512820,4432.820512,4222.564102,4237.948717,4525.641025,4206.666666,4640.512820,4038.974358,4063.589743
193,4378.974358,4529.743589,4528.205128,4275.897435,4507.179487,4136.410256,4429.230769,4221.025641,4237.435897,4524.102564,4209.230769,4636.923076,4034.871794,4068.205128
194,4381.538461,4540.000000,4527.179487,4274.871794,4505.128205,4137.435897,4427.692307,4222.051282,4234.871794,4519.487179,4211.794871,4635.384615,4034.871794,4061.538461
195,4382.564102,4537.435897,4528.717948,4277.948717,4507.179487,4137.948717,4430.256410,4216.923076,4231.794871,4516.410256,4202.051282,4636.410256,4035.897435,4050.769230
196,4370.256410,4525.128205,4521.538461,4272.820512,4508.205128,4129.743589,4429.743589,4206.153846,4224.102564,4513.333333,4189.230769,4631.282051,4023.076923,4046.666666
197,4362.564102,4518.974358,4517.948717,4269.743589,4506.666666,4128.717948,4427.692307,4204.102564,4216.410256,4505.641025,4191.282051,4626.666666,4006.153846,4049.743589
198,4375.897435,4524.615384,4526.153846,4274.358974,4506.666666,4135.897435,4428.717948,4212.307692,4222.564102,4503.589743,4201.025641,4632.820512,4002.564102,4050.769230
199,4389.230769,4536.923076,4534.358974,4278.461538,4508.205128,4135.384615,4434.871794,4220.000000,4234.358974,4510.769230,4204.102564,4642.051282,4006.153846,4052.307692
200,4385.128205,4540.000000,4532.307692,4276.923076,4507.692307,4133.333333,4438.974358,4223.589743,4235.897435,4513.846153,4203.589743,4643.076923,4010.256410,4059.487179
201,4377.435897,4528.717948,4528.205128,4274.358974,4504.615384,4135.384615,4438.461538,4225.128205,4233.333333,4509.230769,4207.179487,4638.461538,4006.153846,4062.051282
202,4380.000000,4527.179487,4531.794871,4277.948717,4504.102564,4136.410256,4438.974358,4219.487179,4232.820512,4512.820512,4204.615384,4639.487179,3981.025642,4060.512820
203,4382.564102,4531.794871,4532.307692,4283.076923,4507.179487,4134.871794,4444.615384,4216.923076,4233.846153,4516.923076,4200.000000,4640.512820,3951.794872,4060.000000
204,4379.487179,4528.717948,4524.102564,4281.025641,4508.205128,4131.794871,4445.641025,4218.974358,4232.820512,4513.333333,4200.512820,4633.333333,3936.410257,4054.358974
205,4376.923076,4526.153846,4521.025641,4275.384615,4508.205128,4131.794871,4436.923076,4216.923076,4229.230769,4511.282051,4203.076923,4632.820512,3936.410257,4048.717948
206,4378.461538,4527.692307,4526.153846,4275.897435,4508.717948,4135.384615,4432.307692,4213.846153,4230.769230,4511.794871,4199.487179,4637.435897,3945.641026,4050.769230
207,4378.974358,4526.666666,4531.282051,4280.512820,4509.230769,4135.384615,4437.435897,4216.410256,4229.230769,4509.743589,4193.846153,4635.384615,3961.538462,4055.897435
208,4375.384615,4527.179487,4529.230769,4280.000000,4508.717948,4133.846153,4441.538461,4215.897435,4218.974358,4504.615384,4194.871794,4632.820512,3981.538462,4051.794871
209,4370.769230,4529.230769,4522.564102,4276.923076,4506.153846,4133.846153,4436.410256,4206.666666,4213.333333,4500.000000,4195.897435,4633.333333,3992.820513,4044.102564
210,4372.307692,4523.589743,4518.974358,4277.948717,4506.666666,4130.769230,4430.769230,4204.102564,4215.897435,4499.487179,4192.307692,4632.820512,3988.717949,4044.102564
211,4374.871794,4520.512820,4518.974358,4272.307692,4502.051282,4123.589743,4426.666666,4208.205128,4217.435897,4505.128205,4193.333333,4629.743589,3988.717949,4047.692307
212,4373.333333,4525.641025,4518.974358,4264.615384,4496.410256,4122.564102,4425.641025,4209.230769,4218.974358,4509.743589,4200.512820,4631.794871,4006.666666,4047.692307
213,4373.333333,4527.179487,4525.128205,4272.307692,4501.538461,4129.230769,4429.743589,4209.230769,4223.076923,4506.666666,4202.564102,4641.538461,4015.384615,4049.230769
214,4375.384615,4523.589743,4529.743589,4280.000000,4509.230769,4130.769230,4431.282051,4208.205128,4221.025641,4495.897435,4199.487179,4643.589743,4004.615384,4053.333333
215,4374.358974,4525.128205,4525.128205,4276.923076,4506.666666,4123.589743,4427.179487,4200.512820,4215.384615,4490.256410,4195.897435,4634.358974,4001.025641,4051.794871
216,4373.333333,4533.846153,4527.179487,4276.923076,4503.589743,4122.564102,4426.666666,4197.435897,4213.333333,4503.589743,4191.282051,4636.410256,4015.897435,4047.692307
217,4378.974358,4531.794871,4534.358974,4282.564102,4507.179487,4126.153846,4428.205128,4202.051282,4217.435897,4512.307692,4193.846153,4648.717948,4028.717948,4047.692307
218,4381.025641,4522.564102,4532.307692,4282.564102,4509.743589,4122.051282,4427.692307,4202.051282,4217.435897,4504.102564,4200.000000,4647.692307,4033.846153,4051.794871
219,4377.948717,4524.102564,4526.666666,4274.358974,4506.153846,4119.487179,4430.769230,4202.564102,4212.820512,4499.487179,4203.589743,4639.487179,4035.897435,4057.948717
220,4371.282051,4523.589743,4523.076923,4269.230769,4495.897435,4121.025641,4435.384615,4203.076923,4222.051282,4504.102564,4200.000000,4637.435897,4031.794871,4053.846153
221,4365.641025,4512.820512,4521.025641,4271.282051,4489.743589,4118.461538,4433.846153,4201.538461,4230.256410,4499.487179,4195.897435,4635.384615,4033.846153,4041.538461
222,4362.564102,4503.589743,4517.435897,4271.794871,4491.794871,4114.871794,4432.820512,4204.102564,4222.051282,4492.307692,4199.487179,4632.820512,4046.153846,4038.974358
223,4358.974358,4509.743589,4514.871794,4264.102564,4491.282051,4115.897435,4430.769230,4202.564102,4211.794871,4495.384615,4201.538461,4630.769230,4048.205128,4041.025641
224,4364.615384,4518.974358,4517.435897,4261.538461,4491.794871,4117.948717,4429.230769,4203.076923,4215.384615,4506.153846,4202.564102,4629.743589,4044.102564,4040.512820
225,4369.743589,4513.846153,4520.000000,4264.615384,4492.307692,4116.923076,4430.256410,4208.717948,4225.128205,4510.256410,4202.051282,4629.230769,4047.179487,4042.051282
226,4363.589743,4503.076923,4514.871794,4263.076923,4487.179487,4112.820512,4431.282051,4208.205128,4226.666666,4500.000000,4198.974358,4627.179487,4045.128205,4041.538461
227,4355.384615,4504.102564,4507.692307,4264.615384,4487.179487,4108.717948,4426.153846,4200.512820,4216.923076,4489.743589,4201.025641,4625.641025,4036.923076,4035.897435
228,4357.435897,4513.333333,4506.153846,4261.025641,4490.256410,4106.153846,4421.025641,4197.435897,4210.769230,4488.717948,4198.974358,4623.589743,4036.923076,4034.358974
229,4363.076923,4515.384615,4508.205128,4258.974358,4488.205128,4108.717948,4424.102564,4199.487179,4216.410256,4493.846153,4194.871794,4621.538461,4035.897435,4040.000000
230,4362.051282,4514.358974,4509.743589,4269.230769,4488.205128,4113.846153,4429.230769,4203.076923,4221.025641,4492.820512,4198.461538,4624.102564,4024.615384,4042.051282
231,4363.076923,4516.410256,4510.769230,4268.205128,4490.769230,4110.769230,4428.717948,4206.153846,4222.051282,4489.230769,4201.538461,4626.666666,4017.948717,4041.538461
232,4367.179487,4521.025641,4513.333333,4262.051282,4487.692307,4103.076923,4428.205128,4205.128205,4223.589743,4491.794871,4200.000000,4627.692307,4023.589743,4044.615384
233,4369.743589,4523.076923,4516.923076,4268.717948,4489.230769,4109.230769,4430.769230,4202.564102,4219.487179,4492.307692,4197.435897,4629.230769,4027.179487,4046.666666
234,4367.179487,4521.538461,4513.846153,4270.769230,4492.820512,4116.923076,4430.769230,4201.538461,4214.871794,4490.256410,4196.923076,4628.717948,4019.487179,4043.589743
235,4361.538461,4521.538461,4514.358974,4267.179487,4493.846153,4114.871794,4433.846153,4201.538461,4223.076923,4490.256410,4204.615384,4625.641025,4016.923076,4043.076923
236,4363.076923,4520.512820,4524.102564,4275.897435,4497.948717,4114.358974,4440.000000,4209.230769,4229.743589,4491.282051,4208.205128,4625.641025,4024.102564,4051.282051
237,4368.717948,4519.487179,4523.076923,4281.538461,4497.435897,4115.897435,4442.051282,4215.384615,4220.512820,4488.205128,4195.897435,4626.666666,4022.564102,4049.230769
238,4372.307692,4521.025641,4516.923076,4275.384615,4490.769230,4115.384615,4437.948717,4213.846153,4217.948717,4484.615384,4195.384615,4628.717948,4016.410256,4036.923076
239,4373.846153,4524.102564,4522.051282,4276.410256,4490.256410,4118.974358,4437.948717,4213.333333,4230.769230,4488.717948,4214.358974,4632.307692,4032.307692,4042.051282
240,4373.846153,4524.102564,4528.205128,4280.000000,4494.358974,4123.076923,4441.025641,4217.435897,4236.923076,4495.384615,4223.589743,4632.820512,4064.102564,4058.461538
241,4373.333333,4519.487179,4527.179487,4280.512820,4493.846153,4122.564102,4442.564102,4218.974358,4231.794871,4494.358974,4217.948717,4633.846153,4079.487179,4063.076923
242,4372.820512,4518.461538,4522.564102,4277.435897,4486.666666,4122.051282,4436.923076,4210.256410,4228.205128,4485.641025,4206.666666,4631.794871,4074.871794,4053.333333
243,4374.358974,4519.487179,4516.923076,4270.769230,4484.102564,4122.051282,4432.820512,4204.615384,4229.743589,4482.564102,4204.102564,4623.076923,4068.205128,4043.589743
244,4375.384615,4520.512820,4517.948717,4273.333333,4491.282051,4124.102564,4440.512820,4210.769230,4232.820512,4490.769230,4212.820512,4621.538461,4071.794871,4047.179487
245,4372.307692,4521.538461,4520.000000,4281.538461,4495.384615,4125.641025,4440.512820,4210.769230,4230.769230,4493.846153,4212.307692,4621.025641,4082.051282,4053.333333
246,4370.256410,4521.538461,4513.333333,4280.512820,4490.769230,4123.076923,4428.717948,4200.512820,4217.948717,4483.076923,4197.948717,4609.230769,4085.128205,4048.205128
247,4375.384615,4521.538461,4511.282051,4276.923076,4489.743589,4120.512820,4428.205128,4195.897435,4211.282051,4470.769230,4195.897435,4607.179487,4084.615384,4043.589743
248,4379.487179,4524.615384,4515.384615,4278.974358,4492.307692,4127.179487,4436.923076,4203.076923,4223.076923,4473.333333,4204.615384,4615.897435,4094.871794,4050.769230
249,4375.384615,4527.692307,4515.384615,4278.461538,4493.846153,4132.820512,4436.410256,4207.692307,4232.820512,4486.153846,4204.615384,4611.794871,4104.102564,4052.820512
250,4370.769230,4525.641025,4511.794871,4276.923076,4494.358974,4126.153846,4432.307692,4204.615384,4224.102564,4485.128205,4196.410256,4601.025641,4098.461538,4046.153846
251,4371.282051,4523.589743,4511.282051,4280.000000,4493.333333,4124.615384,4437.435897,4203.589743,4220.512820,4474.871794,4197.435897,4603.076923,4093.333333,4047.179487
252,4378.461538,4523.076923,4516.923076,4281.025641,4490.256410,4133.846153,4441.538461,4212.307692,4231.282051,4478.461538,4212.820512,4612.307692,4093.333333,4050.256410
253,4383.589743,4526.153846,4520.000000,4275.897435,4493.846153,4138.461538,4443.076923,4226.666666,4236.410256,4494.871794,4221.025641,4617.435897,4088.205128,4052.307692
254,4377.948717,4529.743589,4517.435897,4275.897435,4497.435897,4135.384615,4442.051282,4230.256410,4229.743589,4494.358974,4208.717948,4618.461538,4085.641025,4058.461538
255,4373.846153,4528.205128,4517.435897,4280.512820,4494.358974,4137.948717,4440.512820,4222.564102,4230.769230,4476.923076,4199.487179,4616.410256,4087.692307,4058.974358
256,4377.435897,4522.564102,4520.000000,4279.487179,4495.384615,4138.974358,4442.051282,4217.435897,4235.897435,4475.384615,4207.179487,4613.846153,4080.000000,4050.256410
257,4378.974358,4520.512820,4518.461538,4279.487179,4500.512820,4136.923076,4443.076923,4217.435897,4234.871794,4490.769230,4214.871794,4613.333333,4065.641025,4049.743589
258,4377.948717,4523.589743,4519.487179,4281.538461,4496.923076,4139.487179,4442.051282,4220.512820,4240.512820,4497.948717,4216.410256,4615.384615,4063.076923,4060.512820
259,4376.923076,4521.538461,4525.641025,4278.461538,4490.769230,4138.461538,4444.102564,4223.589743,4247.692307,4491.794871,4217.435897,4617.435897,4065.641025,4060.512820
