,AF3,F7,F3,FC5,T7,P7,O1,O2,P8,T8,FC6,F4,F8,AF4
0,4389.230769,4543.589743,4542.564102,4280.512820,4505.641025,4218.974358,4444.102564,4221.538461,4238.461538,4512.820512,4212.820512,4656.923076,3995.384616,4048.717948
1,4378.461538,4534.871794,4529.230769,4274.358974,4504.102564,4215.897435,4442.051282,4210.769230,4226.153846,4501.025641,4195.384615,4646.153846,3985.641026,4037.435897
2,4371.282051,4524.615384,4519.487179,4268.205128,4497.948717,4213.846153,4440.000000,4201.538461,4217.435897,4490.769230,4184.102564,4635.384615,3977.435898,4027.179487
3,4378.974358,4530.256410,4522.564102,4266.666666,4491.282051,4215.897435,4441.538461,4208.205128,4224.102564,4496.923076,4193.333333,4638.461538,3987.179488,4032.307692
4,4385.128205,4538.974358,4526.666666,4266.666666,4489.230769,4216.410256,4443.076923,4211.282051,4228.717948,4507.179487,4206.666666,4645.641025,3995.897436,4038.461538
5,4378.974358,4537.435897,4527.692307,4271.282051,4494.871794,4214.871794,4442.564102,4206.153846,4228.205128,4506.666666,4206.153846,4643.589743,3991.282052,4035.897435
6,4379.487179,4532.307692,4528.205128,4278.974358,4497.435897,4213.846153,4442.051282,4207.692307,4230.769230,4503.589743,4204.102564,4642.051282,3994.358975,4037.948717
7,4384.102564,4527.692307,4531.282051,4274.358974,4492.820512,4211.794871,4442.564102,4213.846153,4231.794871,4505.128205,4208.717948,4646.666666,3999.487180,4043.076923
8,4382.564102,4528.717948,4536.410256,4270.769230,4493.846153,4211.282051,4442.564102,4214.358974,4236.410256,4505.641025,4208.717948,4649.743589,3993.846154,4045.641025
9,4384.615384,4535.897435,4540.000000,4276.923076,4500.000000,4214.358974,4443.076923,4215.897435,4245.128205,4506.153846,4212.307692,4650.256410,3990.769231,4045.128205
10,4388.205128,4536.923076,4537.948717,4273.846153,4495.897435,4217.435897,4444.102564,4217.948717,4240.512820,4507.179487,4221.538461,4651.794871,3995.897436,4039.487179
11,4383.589743,4531.794871,4536.410256,4269.743589,4486.153846,4215.384615,4444.102564,4212.820512,4229.230769,4505.641025,4218.461538,4652.820512,3999.487180,4036.923076
12,4383.589743,4534.358974,4542.051282,4276.410256,4487.692307,4213.846153,4442.051282,4212.307692,4230.256410,4503.589743,4211.794871,4653.846153,3994.358975,4043.076923
13,4394.871794,4542.051282,4548.205128,4283.076923,4492.307692,4217.435897,4443.589743,4218.461538,4240.512820,4509.230769,4214.871794,4658.461538,3993.846154,4049.230769
14,4395.897435,4540.512820,4546.153846,4280.000000,4493.846153,4217.948717,4446.153846,4218.974358,4243.589743,4519.487179,4214.358974,4661.025641,3996.410257,4042.564102
15,4383.076923,4525.641025,4535.897435,4267.692307,4495.897435,4213.333333,4444.102564,4213.846153,4236.923076,4515.384615,4210.256410,4653.333333,3985.641026,4034.871794
16,4380.512820,4524.102564,4534.358974,4264.102564,4490.769230,4212.307692,4441.538461,4211.794871,4230.256410,4501.538461,4211.794871,4645.641025,3979.487180,4040.000000
17,4385.641025,4534.871794,4540.512820,4274.871794,4487.179487,4215.384615,4443.076923,4214.871794,4232.307692,4500.512820,4212.820512,4649.230769,3992.820513,4045.128205
18,4382.051282,4530.256410,4542.051282,4280.512820,4492.820512,4214.871794,4442.564102,4214.358974,4240.000000,4508.205128,4203.589743,4652.820512,3993.846154,4037.948717
19,4381.538461,4520.000000,4540.512820,4272.820512,4495.384615,4213.846153,4445.641025,4213.846153,4244.615384,4507.179487,4197.435897,4650.769230,3980.000000,4030.769230
20,4392.307692,4527.179487,4542.564102,4271.794871,4492.307692,4217.435897,4455.897435,4217.948717,4243.076923,4505.641025,4205.641025,4652.307692,3989.743590,4038.461538
21,4389.743589,4535.897435,4536.410256,4272.820512,4492.820512,4217.948717,4451.794871,4217.948717,4233.333333,4510.256410,4208.717948,4648.717948,3993.846154,4038.974358
22,4374.358974,4535.384615,4526.666666,4265.641025,4490.769230,4211.794871,4440.512820,4209.743589,4225.641025,4506.153846,4198.461538,4638.461538,3974.358975,4027.179487
23,4381.025641,4539.487179,4530.769230,4271.282051,4488.717948,4212.820512,4448.205128,4211.794871,4230.769230,4506.666666,4201.025641,4643.076923,3972.820513,4031.282051
24,4397.435897,4540.512820,4539.487179,4287.692307,4497.435897,4224.102564,4461.025641,4225.128205,4241.025641,4515.384615,4215.897435,4655.897435,3988.717949,4042.051282
25,4397.948717,4536.923076,4540.512820,4287.692307,4507.179487,4225.128205,4459.487179,4226.153846,4247.692307,4514.358974,4218.461538,4654.871794,3996.923077,4043.076923
26,4392.820512,4539.487179,4535.897435,4278.461538,4508.205128,4218.974358,4455.897435,4218.461538,4248.717948,4514.871794,4210.769230,4649.230769,4001.538461,4041.538461
27,4387.692307,4536.923076,4529.230769,4277.948717,4501.025641,4216.923076,4448.717948,4216.923076,4241.538461,4512.820512,4205.128205,4646.153846,3994.871795,4040.512820
28,4380.000000,4529.230769,4525.641025,4274.358974,4497.435897,4213.846153,4440.512820,4214.358974,4232.820512,4498.461538,4202.564102,4641.025641,3977.948718,4034.358974
29,4386.666666,4532.307692,4532.820512,4269.230769,4500.000000,4216.410256,4450.256410,4217.948717,4238.974358,4504.615384,4207.692307,4648.717948,3985.641026,4038.461538
30,4400.512820,4541.538461,4543.589743,4277.435897,4498.974358,4225.128205,4464.615384,4230.769230,4252.820512,4524.615384,4218.461538,4664.615384,4004.102564,4053.333333
31,4396.410256,4538.974358,4543.076923,4281.538461,4492.820512,4222.564102,4456.923076,4228.205128,4252.820512,4520.000000,4219.487179,4660.512820,3998.461539,4053.846153
32,4386.153846,4532.820512,4537.948717,4274.871794,4490.769230,4213.846153,4446.153846,4215.897435,4243.076923,4507.692307,4214.358974,4649.743589,3986.666667,4041.025641
33,4387.179487,4533.846153,4537.948717,4277.948717,4493.333333,4216.410256,4452.820512,4215.897435,4237.948717,4516.923076,4219.487179,4652.820512,3986.666667,4039.487179
34,4390.256410,4537.948717,4539.487179,4281.025641,4492.820512,4217.948717,4455.384615,4218.974358,4236.410256,4511.794871,4216.923076,4656.410256,3988.717949,4045.641025
35,4389.230769,4537.948717,4545.128205,4272.307692,4494.358974,4213.846153,4447.692307,4216.923076,4233.846153,4492.307692,4202.564102,4652.307692,3990.256411,4043.589743
36,4393.333333,4535.384615,4548.205128,4272.307692,4494.358974,4214.871794,4451.282051,4221.025641,4239.487179,4500.512820,4204.615384,4655.384615,3991.282052,4041.025641
37,4400.000000,4536.923076,4547.692307,4282.564102,4490.256410,4217.948717,4460.000000,4225.128205,4247.692307,4522.051282,4220.000000,4663.076923,3993.846154,4052.307692
38,4398.461538,4543.076923,4548.717948,4283.076923,4491.794871,4217.948717,4456.410256,4220.512820,4244.615384,4517.435897,4225.641025,4661.538461,3993.333334,4054.358974
39,4396.410256,4547.692307,4552.307692,4283.076923,4495.897435,4216.410256,4457.435897,4220.000000,4240.512820,4507.179487,4222.051282,4662.051282,3990.256411,4045.641025
40,4402.051282,4541.538461,4551.282051,4285.641025,4495.384615,4216.923076,4462.051282,4223.589743,4241.538461,4515.384615,4214.358974,4668.205128,3993.333334,4052.820512
41,4398.974358,4527.692307,4542.564102,4275.384615,4492.820512,4215.384615,4453.846153,4216.410256,4235.897435,4512.820512,4208.717948,4661.025641,3994.358975,4057.948717
42,4391.794871,4526.153846,4538.461538,4267.692307,4491.794871,4214.871794,4451.282051,4214.871794,4234.358974,4503.589743,4218.461538,4654.358974,3989.743590,4047.179487
43,4390.256410,4533.846153,4544.615384,4277.435897,4494.358974,4221.025641,4460.512820,4229.743589,4249.230769,4514.871794,4226.666666,4661.538461,3989.743590,4043.076923
44,4396.410256,4542.051282,4552.820512,4290.256410,4499.487179,4229.743589,4464.102564,4236.410256,4257.435897,4526.153846,4223.589743,4668.717948,3995.384616,4052.307692
45,4408.717948,4550.769230,4557.948717,4294.871794,4505.641025,4230.256410,4464.102564,4232.820512,4253.846153,4525.128205,4224.615384,4671.282051,3998.974359,4059.487179
46,4408.717948,4549.743589,4550.769230,4286.153846,4509.230769,4221.538461,4464.615384,4233.333333,4250.256410,4515.384615,4220.000000,4668.717948,3996.923077,4057.948717
47,4393.333333,4538.974358,4541.025641,4274.358974,4503.589743,4214.358974,4460.000000,4230.256410,4244.615384,4501.538461,4208.717948,4659.487179,3990.769231,4050.256410
48,4391.794871,4536.410256,4542.564102,4280.000000,4494.358974,4218.974358,4458.974358,4229.743589,4244.615384,4504.615384,4214.871794,4660.000000,3984.615385,4043.589743
49,4401.538461,4543.076923,4548.717948,4287.692307,4497.948717,4228.205128,4464.102564,4237.948717,4252.820512,4520.512820,4224.102564,4668.717948,3986.666667,4046.153846
50,4395.384615,4536.923076,4542.051282,4276.410256,4502.564102,4223.589743,4460.512820,4235.384615,4251.794871,4521.025641,4208.205128,4662.051282,3984.102565,4045.128205
51,4389.230769,4526.666666,4534.871794,4269.743589,4495.384615,4213.333333,4454.871794,4225.641025,4236.923076,4508.205128,4200.000000,4651.794871,3975.384616,4042.564102
52,4397.435897,4530.256410,4541.538461,4275.897435,4490.256410,4214.358974,4458.461538,4226.153846,4233.846153,4506.153846,4222.564102,4660.000000,3983.589744,4051.794871
53,4398.461538,4538.974358,4544.615384,4280.000000,4492.820512,4219.487179,4461.538461,4230.256410,4246.153846,4508.717948,4232.307692,4668.205128,3997.948718,4055.897435
54,4393.333333,4538.461538,4540.512820,4280.000000,4497.435897,4218.461538,4459.487179,4231.794871,4252.307692,4512.820512,4220.512820,4668.205128,3993.846154,4047.692307
55,4391.282051,4534.871794,4539.487179,4278.974358,4501.538461,4216.923076,4460.000000,4231.282051,4246.666666,4517.948717,4216.410256,4666.666666,3984.102565,4043.076923
56,4388.205128,4537.948717,4538.974358,4276.923076,4501.538461,4217.948717,4460.000000,4223.076923,4238.461538,4512.820512,4208.717948,4660.000000,3984.102565,4043.076923
57,4386.666666,4535.384615,4537.948717,4277.435897,4493.846153,4216.410256,4454.358974,4213.333333,4233.333333,4502.051282,4200.000000,4654.358974,3978.974359,4041.025641
58,4393.333333,4533.846153,4538.461538,4277.948717,4490.769230,4213.333333,4453.333333,4213.846153,4234.358974,4502.564102,4212.307692,4658.974358,3975.897436,4044.102564
59,4393.333333,4540.512820,4537.435897,4273.846153,4496.923076,4210.769230,4452.820512,4216.410256,4240.512820,4508.717948,4218.974358,4658.974358,3985.641026,4046.153846
60,4387.179487,4537.948717,4537.435897,4274.358974,4498.974358,4212.307692,4450.256410,4212.820512,4241.538461,4503.589743,4207.692307,4654.871794,3987.179488,4041.538461
61,4391.282051,4529.743589,4545.641025,4279.487179,4491.282051,4215.897435,4455.384615,4218.461538,4243.589743,4507.179487,4212.307692,4664.102564,3982.564103,4047.692307
62,4402.564102,4535.897435,4549.743589,4280.000000,4488.205128,4217.948717,4462.564102,4230.769230,4251.794871,4520.512820,4222.051282,4673.846153,3990.769231,4055.384615
63,4403.076923,4537.435897,4545.641025,4277.948717,4490.769230,4217.435897,4461.025641,4231.282051,4251.282051,4518.461538,4217.435897,4672.307692,3992.820513,4053.846153
64,4397.948717,4525.128205,4545.641025,4276.923076,4492.820512,4216.923076,4457.948717,4222.564102,4242.051282,4505.128205,4214.358974,4668.717948,3980.000000,4050.256410
65,4397.435897,4527.692307,4545.641025,4274.871794,4496.923076,4217.435897,4461.538461,4218.461538,4236.410256,4504.102564,4213.333333,4661.025641,3975.384616,4046.153846
66,4394.871794,4539.487179,4538.974358,4273.846153,4499.487179,4217.948717,4461.025641,4216.923076,4234.871794,4508.205128,4205.128205,4651.794871,3976.923077,4042.564102
67,4391.794871,4539.487179,4536.923076,4279.487179,4498.461538,4223.589743,4458.974358,4217.948717,4233.846153,4505.641025,4203.589743,4653.846153,3973.333334,4042.051282
68,4393.333333,4537.435897,4545.641025,4283.076923,4504.102564,4231.794871,4467.179487,4226.666666,4243.076923,4503.589743,4210.769230,4662.051282,3975.384616,4041.025641
69,4398.974358,4540.512820,4553.333333,4282.564102,4509.230769,4235.897435,4477.948717,4236.410256,4255.897435,4508.717948,4214.358974,4666.666666,3983.589744,4044.615384
70,4403.589743,4542.051282,4556.923076,4285.641025,4509.230769,4233.846153,4476.923076,4236.410256,4256.410256,4516.410256,4217.948717,4669.230769,3989.743590,4051.794871
71,4397.948717,4536.410256,4552.307692,4285.128205,4506.666666,4225.641025,4465.128205,4230.256410,4248.717948,4517.435897,4215.897435,4663.076923,3983.589744,4045.641025
72,4388.717948,4527.692307,4543.589743,4274.358974,4498.974358,4216.923076,4458.974358,4227.179487,4248.205128,4509.743589,4210.256410,4655.384615,3974.358975,4034.358974
73,4388.205128,4520.000000,4542.564102,4268.205128,4490.769230,4213.333333,4457.435897,4222.051282,4248.717948,4505.128205,4212.820512,4655.897435,3976.923077,4035.384615
74,4394.871794,4521.025641,4549.230769,4277.948717,4490.769230,4214.358974,4454.358974,4221.025641,4247.179487,4509.230769,4218.974358,4659.487179,3984.615385,4041.538461
75,4398.461538,4529.743589,4554.358974,4286.153846,4496.410256,4214.871794,4454.358974,4229.743589,4252.820512,4517.948717,4220.000000,4661.538461,3986.666667,4043.076923
76,4394.871794,4533.333333,4553.846153,4276.923076,4497.948717,4213.846153,4452.307692,4227.692307,4252.820512,4522.051282,4221.538461,4660.512820,3980.512821,4040.000000
77,4391.794871,4532.307692,4550.769230,4267.692307,4492.820512,4215.384615,4446.153846,4219.487179,4243.589743,4522.564102,4224.102564,4660.000000,3973.846154,4035.384615
78,4391.794871,4529.230769,4547.692307,4274.358974,4488.717948,4213.333333,4444.102564,4220.512820,4240.512820,4517.435897,4211.282051,4659.487179,3975.897436,4037.948717
79,4395.897435,4527.692307,4550.256410,4282.051282,4490.256410,4206.666666,4452.307692,4222.051282,4241.538461,4503.589743,4202.051282,4660.512820,3978.974359,4043.589743
80,4398.974358,4530.769230,4556.410256,4281.538461,4490.769230,4208.205128,4460.512820,4222.051282,4243.589743,4497.948717,4213.846153,4664.615384,3974.358975,4044.102564
81,4398.461538,4529.230769,4555.897435,4277.948717,4490.769230,4216.923076,4461.025641,4228.205128,4249.743589,4506.666666,4222.051282,4665.128205,3975.384616,4044.615384
82,4396.923076,4527.179487,4546.666666,4274.871794,4498.461538,4216.923076,4457.948717,4223.076923,4251.794871,4511.282051,4216.410256,4661.025641,3976.923077,4040.000000
83,4397.435897,4528.717948,4544.615384,4274.358974,4500.512820,4212.820512,4457.948717,4213.333333,4245.641025,4511.282051,4211.282051,4657.948717,3969.230770,4036.923076
84,4398.461538,4525.641025,4548.717948,4272.820512,4492.820512,4215.897435,4456.923076,4216.410256,4241.538461,4511.282051,4205.641025,4656.923076,3971.794872,4040.000000
85,4396.923076,4522.564102,4543.589743,4270.256410,4495.897435,4216.410256,4450.256410,4216.410256,4236.923076,4504.102564,4201.538461,4653.846153,3975.897436,4037.948717
86,4394.871794,4531.282051,4535.897435,4275.897435,4503.076923,4215.384615,4447.692307,4212.307692,4234.871794,4498.974358,4207.179487,4653.333333,3968.717949,4032.820512
87,4395.897435,4534.871794,4538.461538,4285.128205,4496.410256,4216.923076,4448.205128,4214.358974,4242.564102,4506.666666,4208.205128,4653.846153,3966.666667,4036.410256
88,4396.410256,4522.564102,4539.487179,4281.538461,4494.358974,4215.384615,4445.128205,4214.871794,4243.589743,4509.230769,4207.692307,4651.282051,3975.897436,4038.461538
89,4395.897435,4521.538461,4534.871794,4271.282051,4505.128205,4213.333333,4446.666666,4215.384615,4235.897435,4502.051282,4207.179487,4649.230769,3983.076924,4033.846153
90,4398.974358,4529.743589,4537.435897,4272.307692,4508.205128,4216.410256,4452.820512,4217.948717,4240.000000,4509.743589,4205.128205,4654.358974,3985.641026,4038.974358
91,4402.051282,4528.717948,4543.589743,4278.974358,4501.025641,4215.897435,4449.743589,4218.461538,4249.230769,4521.538461,4209.230769,4658.974358,3983.076924,4045.641025
92,4394.871794,4525.641025,4536.923076,4269.743589,4498.974358,4209.743589,4443.589743,4216.923076,4243.076923,4511.794871,4209.743589,4652.307692,3980.000000,4039.487179
93,4383.589743,4521.538461,4528.205128,4258.974358,4503.589743,4210.769230,4443.589743,4214.871794,4232.820512,4507.179487,4207.179487,4644.102564,3978.974359,4031.282051
94,4385.641025,4516.410256,4532.307692,4270.256410,4503.589743,4216.410256,4443.076923,4213.846153,4235.384615,4517.435897,4211.794871,4646.666666,3978.461539,4034.871794
95,4398.461538,4524.615384,4543.589743,4283.589743,4506.153846,4219.487179,4449.230769,4220.512820,4243.589743,4516.923076,4214.358974,4656.410256,3990.769231,4044.615384
96,4403.076923,4537.435897,4544.615384,4280.512820,4514.871794,4219.487179,4456.410256,4225.641025,4245.128205,4508.205128,4208.205128,4661.538461,3998.461539,4045.641025
97,4390.769230,4532.820512,4539.487179,4272.820512,4514.871794,4214.358974,4450.769230,4211.282051,4237.435897,4510.256410,4207.179487,4655.897435,3985.641026,4039.487179
98,4380.512820,4519.487179,4536.410256,4266.153846,4502.564102,4208.205128,4437.948717,4197.435897,4227.692307,4513.846153,4198.461538,4646.666666,3975.897436,4032.307692
99,4388.717948,4522.564102,4537.948717,4265.128205,4498.461538,4212.307692,4441.025641,4204.615384,4228.717948,4512.820512,4191.794871,4649.230769,3985.641026,4032.307692
100,4398.461538,4527.692307,4544.102564,4274.871794,4503.589743,4221.538461,4457.435897,4218.974358,4240.512820,4519.487179,4206.153846,4661.025641,3998.974359,4043.076923
101,4394.358974,4522.564102,4544.615384,4279.487179,4506.666666,4222.051282,4459.487179,4219.487179,4245.128205,4517.948717,4210.256410,4663.076923,3994.358975,4042.564102
102,4385.128205,4518.974358,4536.923076,4271.282051,4506.666666,4215.384615,4445.128205,4208.205128,4236.923076,4510.256410,4198.974358,4652.307692,3981.538462,4031.282051
103,4382.051282,4524.102564,4534.871794,4270.256410,4505.128205,4211.794871,4437.948717,4203.589743,4229.230769,4514.358974,4196.410256,4648.205128,3981.538462,4033.846153
104,4387.692307,4535.384615,4537.948717,4279.487179,4505.128205,4214.871794,4444.102564,4212.307692,4230.769230,4518.461538,4204.615384,4654.871794,3993.333334,4042.564102
105,4397.948717,4541.538461,4537.435897,4283.589743,4505.128205,4217.435897,4445.641025,4217.435897,4238.974358,4516.923076,4206.666666,4661.538461,3998.974359,4041.538461
106,4401.025641,4537.948717,4538.461538,4277.435897,4502.564102,4215.384615,4444.615384,4215.384615,4244.102564,4518.974358,4201.538461,4661.538461,3998.461539,4042.051282
107,4395.897435,4537.948717,4546.153846,4279.487179,4507.179487,4217.948717,4451.282051,4217.435897,4241.538461,4516.410256,4200.512820,4665.641025,3997.435898,4046.666666
108,4396.410256,4541.538461,4552.820512,4286.153846,4509.230769,4220.000000,4456.923076,4220.512820,4238.461538,4510.256410,4209.743589,4670.769230,3993.333334,4047.692307
109,4402.051282,4536.410256,4553.846153,4282.051282,4503.589743,4214.871794,4456.923076,4216.923076,4239.487179,4520.000000,4220.512820,4671.794871,3993.846154,4046.666666
110,4402.564102,4528.205128,4552.820512,4273.846153,4505.128205,4214.871794,4457.435897,4218.461538,4242.564102,4528.205128,4213.846153,4670.769230,3992.820513,4039.487179
111,4398.461538,4523.076923,4552.307692,4275.384615,4506.153846,4223.589743,4458.974358,4224.102564,4243.589743,4521.538461,4201.025641,4667.692307,3984.615385,4034.871794
112,4395.897435,4521.538461,4554.871794,4281.538461,4498.974358,4223.589743,4459.487179,4223.589743,4242.051282,4519.487179,4201.025641,4668.205128,3989.743590,4045.641025
113,4396.410256,4528.717948,4550.769230,4278.974358,4501.538461,4216.410256,4458.974358,4216.923076,4235.384615,4514.871794,4203.076923,4669.743589,4002.564102,4047.692307
114,4397.948717,4534.871794,4545.641025,4279.487179,4506.153846,4216.410256,4455.897435,4212.820512,4227.692307,4502.564102,4198.974358,4666.153846,3991.794872,4035.897435
115,4399.487179,4531.282051,4546.153846,4281.538461,4502.564102,4221.538461,4456.923076,4214.358974,4234.358974,4506.153846,4203.589743,4662.564102,3976.410257,4033.846153
116,4394.871794,4523.589743,4542.564102,4271.794871,4499.487179,4220.512820,4460.000000,4217.948717,4244.102564,4518.461538,4208.205128,4663.589743,3984.102565,4035.384615
117,4386.153846,4518.974358,4535.384615,4264.102564,4496.410256,4212.820512,4450.769230,4216.410256,4240.512820,4516.923076,4192.820512,4658.974358,3988.717949,4028.717948
118,4385.128205,4516.410256,4533.333333,4262.051282,4495.384615,4208.717948,4440.000000,4210.769230,4228.205128,4507.179487,4182.564102,4650.769230,3975.384616,4026.153846
119,4391.794871,4521.025641,4534.358974,4261.025641,4499.487179,4213.333333,4449.230769,4212.307692,4227.179487,4502.051282,4195.897435,4654.358974,3975.384616,4031.282051
120,4395.897435,4527.692307,4534.871794,4270.769230,4502.564102,4225.641025,4461.025641,4221.025641,4240.512820,4513.846153,4205.128205,4663.076923,3993.846154,4033.846153
121,4397.948717,4524.102564,4539.487179,4281.538461,4502.051282,4231.282051,4460.000000,4223.589743,4249.743589,4531.282051,4205.128205,4666.153846,4000.512820,4035.384615
122,4403.076923,4521.538461,4542.051282,4275.897435,4506.666666,4225.128205,4457.948717,4223.589743,4253.846153,4531.794871,4214.358974,4667.179487,3995.897436,4040.000000
123,4398.461538,4524.615384,4537.948717,4265.128205,4511.282051,4217.948717,4452.820512,4217.948717,4251.282051,4515.384615,4215.384615,4662.564102,3993.333334,4037.435897
124,4389.743589,4523.076923,4534.871794,4265.128205,4505.641025,4214.871794,4441.538461,4203.589743,4238.974358,4503.076923,4196.923076,4655.897435,3986.153847,4029.743589
125,4393.846153,4525.128205,4536.410256,4265.128205,4493.333333,4212.307692,4438.974358,4200.000000,4233.846153,4509.743589,4191.794871,4656.923076,3978.974359,4028.205128
126,4401.025641,4529.230769,4539.487179,4266.666666,4487.179487,4211.794871,4443.076923,4210.769230,4236.410256,4515.897435,4201.025641,4662.051282,3982.051283,4029.743589
127,4396.410256,4525.128205,4538.974358,4276.923076,4497.948717,4215.897435,4443.076923,4212.820512,4234.871794,4510.256410,4202.564102,4661.025641,3987.179488,4028.717948
128,4392.307692,4523.076923,4540.512820,4285.641025,4510.769230,4217.435897,4445.128205,4209.230769,4235.384615,4511.282051,4204.102564,4661.025641,3987.179488,4031.794871
129,4395.897435,4523.589743,4540.512820,4278.974358,4504.615384,4213.846153,4446.153846,4210.256410,4242.564102,4516.923076,4201.538461,4662.051282,3984.102565,4034.871794
130,4399.487179,4521.538461,4535.897435,4267.179487,4492.820512,4211.282051,4440.000000,4205.641025,4237.948717,4507.692307,4200.512820,4661.538461,3986.666667,4033.846153
131,4405.641025,4531.282051,4540.000000,4273.333333,4495.384615,4216.410256,4445.641025,4205.128205,4234.871794,4504.102564,4216.410256,4668.205128,3999.487180,4041.538461
132,4408.717948,4542.564102,4547.179487,4282.564102,4506.666666,4223.076923,4457.948717,4214.871794,4245.128205,4517.948717,4225.641025,4671.282051,4008.717948,4046.153846
133,4396.923076,4529.230769,4536.923076,4272.307692,4509.743589,4218.461538,4450.256410,4210.256410,4238.974358,4512.820512,4205.128205,4658.974358,3994.871795,4029.230769
134,4389.743589,4515.897435,4526.666666,4262.564102,4501.538461,4213.846153,4440.512820,4197.435897,4225.641025,4498.461538,4192.820512,4651.282051,3982.564103,4017.948717
135,4397.948717,4525.641025,4535.384615,4266.153846,4495.384615,4218.974358,4448.717948,4201.538461,4232.820512,4507.179487,4202.051282,4656.410256,3990.769231,4029.230769
136,4397.435897,4528.205128,4535.897435,4273.333333,4498.974358,4218.974358,4450.769230,4205.641025,4235.897435,4513.333333,4206.666666,4654.871794,3991.282052,4030.769230
137,4390.256410,4521.538461,4527.179487,4272.307692,4496.923076,4214.358974,4444.102564,4200.512820,4229.743589,4504.102564,4208.205128,4647.692307,3984.615385,4021.025641
138,4395.384615,4525.128205,4527.692307,4270.769230,4494.358974,4215.897435,4446.153846,4205.128205,4233.333333,4510.256410,4207.179487,4651.794871,3989.230770,4021.025641
139,4399.487179,4525.128205,4527.179487,4271.794871,4497.435897,4216.410256,4447.692307,4206.153846,4233.846153,4519.487179,4198.461538,4651.794871,3991.282052,4021.025641
140,4401.538461,4524.102564,4527.179487,4268.205128,4496.923076,4212.820512,4444.102564,4200.512820,4229.743589,4514.358974,4194.358974,4649.743589,3989.230770,4023.589743
141,4412.820512,4537.435897,4533.846153,4270.769230,4495.897435,4217.435897,4446.666666,4209.230769,4238.974358,4512.307692,4204.615384,4662.564102,3997.948718,4035.897435
142,4414.871794,4539.487179,4538.461538,4278.461538,4500.000000,4218.974358,4447.179487,4220.000000,4246.666666,4514.358974,4216.410256,4672.307692,4004.102564,4046.153846
143,4398.461538,4519.487179,4532.820512,4271.282051,4496.410256,4204.615384,4440.512820,4209.230769,4235.897435,4507.692307,4209.743589,4661.538461,3992.820513,4036.410256
144,4391.282051,4511.794871,4527.179487,4260.000000,4486.666666,4199.487179,4437.948717,4197.948717,4225.641025,4498.974358,4197.435897,4654.871794,3982.564103,4022.051282
145,4403.076923,4521.538461,4531.282051,4265.641025,4487.179487,4209.230769,4443.589743,4206.666666,4229.230769,4504.615384,4200.000000,4662.051282,3990.256411,4025.641025
146,4409.230769,4523.589743,4533.846153,4271.794871,4492.820512,4213.846153,4446.153846,4215.897435,4236.923076,4515.384615,4204.102564,4665.128205,3997.435898,4035.897435
147,4404.615384,4520.512820,4532.307692,4264.615384,4495.384615,4211.794871,4443.076923,4214.871794,4237.435897,4512.307692,4201.538461,4665.128205,3993.846154,4040.000000
148,4406.153846,4523.076923,4536.923076,4268.205128,4496.923076,4215.897435,4443.076923,4217.435897,4236.923076,4506.153846,4211.794871,4671.794871,3998.461539,4043.076923
149,4409.230769,4523.076923,4540.000000,4275.897435,4496.923076,4215.384615,4444.102564,4216.923076,4236.923076,4509.230769,4221.025641,4672.307692,4001.025641,4041.538461
150,4405.128205,4521.025641,4530.769230,4269.230769,4494.358974,4203.589743,4441.025641,4207.179487,4231.794871,4504.615384,4208.717948,4663.076923,3982.564103,4030.769230
151,4406.153846,4522.564102,4529.743589,4263.076923,4488.717948,4203.076923,4441.538461,4206.153846,4231.282051,4492.820512,4200.000000,4659.487179,3974.871795,4024.615384
152,4413.333333,4523.589743,4538.974358,4269.743589,4488.717948,4213.333333,4445.128205,4214.358974,4238.974358,4503.589743,4211.282051,4666.666666,3995.897436,4034.871794
153,4416.923076,4527.179487,4540.512820,4281.025641,4495.897435,4218.974358,4446.153846,4219.487179,4240.000000,4517.948717,4218.461538,4669.230769,4007.179487,4048.205128
154,4412.820512,4529.230769,4536.923076,4281.025641,4495.897435,4211.794871,4444.102564,4214.871794,4231.282051,4508.205128,4209.743589,4658.461538,3992.820513,4044.615384
155,4406.666666,4521.025641,4527.179487,4268.205128,4490.769230,4201.538461,4442.051282,4206.153846,4230.256410,4501.538461,4193.846153,4649.230769,3982.564103,4031.282051
156,4406.666666,4520.512820,4521.538461,4265.641025,4489.743589,4202.564102,4442.051282,4202.051282,4233.846153,4506.153846,4191.282051,4648.717948,3989.743590,4026.666666
157,4409.743589,4532.307692,4525.128205,4274.871794,4490.769230,4208.717948,4442.564102,4202.564102,4229.230769,4503.589743,4202.564102,4645.128205,3987.179488,4024.615384
158,4408.717948,4531.282051,4522.564102,4275.897435,4491.282051,4209.743589,4444.102564,4201.538461,4227.692307,4502.564102,4208.717948,4639.487179,3977.435898,4022.564102
159,4405.641025,4524.102564,4518.461538,4266.666666,4496.410256,4210.256410,4443.076923,4201.538461,4233.846153,4508.717948,4206.153846,4638.461538,3982.051283,4026.666666
160,4398.974358,4517.435897,4521.025641,4263.076923,4499.487179,4207.179487,4438.974358,4200.512820,4228.717948,4500.512820,4196.923076,4637.948717,3985.641026,4025.641025
161,4395.897435,4510.256410,4520.512820,4266.666666,4491.282051,4202.564102,4438.974358,4197.435897,4220.512820,4491.282051,4183.589743,4635.384615,3981.538462,4017.435897
162,4406.666666,4522.564102,4520.000000,4272.820512,4487.692307,4210.256410,4443.589743,4203.589743,4229.230769,4500.000000,4187.692307,4640.000000,3982.564103,4019.487179
163,4413.333333,4538.461538,4528.205128,4279.487179,4493.333333,4215.384615,4445.641025,4209.230769,4238.461538,4507.179487,4207.692307,4644.615384,3982.564103,4027.692307
164,4407.179487,4530.256410,4528.717948,4279.487179,4495.897435,4209.230769,4443.076923,4202.564102,4232.820512,4500.512820,4210.256410,4643.589743,3980.512821,4031.794871
165,4407.692307,4518.461538,4524.615384,4273.846153,4494.358974,4208.717948,4442.564102,4198.461538,4226.666666,4491.282051,4200.512820,4644.615384,3986.666667,4034.358974
166,4413.333333,4523.589743,4530.256410,4270.256410,4491.282051,4212.307692,4442.564102,4202.051282,4232.307692,4491.794871,4200.000000,4648.717948,3991.282052,4034.358974
167,4413.846153,4531.794871,4538.974358,4274.358974,4490.769230,4213.846153,4443.076923,4207.179487,4243.076923,4503.589743,4203.076923,4653.333333,3991.794872,4035.897435
168,4414.871794,4533.333333,4540.000000,4281.025641,4496.923076,4213.333333,4445.128205,4209.743589,4243.589743,4514.871794,4213.846153,4653.846153,3995.384616,4038.974358
169,4416.410256,4534.871794,4534.871794,4280.512820,4501.538461,4211.282051,4445.128205,4205.641025,4232.820512,4507.692307,4222.051282,4650.256410,3997.948718,4041.538461
170,4415.897435,4533.846153,4534.358974,4278.461538,4496.410256,4211.794871,4443.589743,4198.974358,4226.153846,4499.487179,4207.179487,4651.282051,4000.000000,4043.589743
171,4411.282051,4527.692307,4533.846153,4273.333333,4489.230769,4207.692307,4442.051282,4200.512820,4230.256410,4508.205128,4194.871794,4649.743589,3993.846154,4038.974358
172,4411.794871,4523.076923,4528.717948,4268.717948,4488.205128,4201.025641,4441.538461,4206.666666,4234.871794,4505.641025,4203.589743,4647.179487,3986.153847,4032.307692
173,4414.358974,4522.564102,4530.769230,4273.333333,4488.205128,4205.641025,4442.051282,4208.205128,4234.871794,4489.230769,4208.205128,4650.769230,3990.256411,4033.333333
174,4411.794871,4524.102564,4533.333333,4277.435897,4493.846153,4212.820512,4443.076923,4208.205128,4233.333333,4491.794871,4206.153846,4651.794871,3994.871795,4034.358974
175,4414.871794,4528.717948,4529.743589,4275.897435,4498.974358,4212.820512,4443.076923,4211.794871,4237.435897,4508.717948,4212.307692,4648.205128,3996.923077,4034.358974
176,4424.615384,4535.897435,4533.333333,4280.000000,4494.871794,4216.410256,4444.615384,4217.435897,4247.692307,4513.333333,4217.435897,4651.794871,4009.230769,4046.153846
177,4427.692307,4535.384615,4538.461538,4285.128205,4499.487179,4219.487179,4445.128205,4221.025641,4254.358974,4520.000000,4215.897435,4659.487179,4017.948717,4058.974358
178,4421.025641,4526.153846,4533.333333,4275.897435,4502.564102,4208.205128,4443.076923,4216.923076,4243.076923,4522.051282,4216.923076,4657.948717,4005.641025,4049.743589
179,4415.897435,4527.692307,4529.743589,4268.717948,4495.384615,4202.564102,4442.564102,4212.307692,4232.820512,4511.794871,4222.051282,4652.307692,3997.435898,4040.000000
180,4414.358974,4535.897435,4530.769230,4275.897435,4494.871794,4208.205128,4438.974358,4212.820512,4237.435897,4514.358974,4216.923076,4648.717948,4007.692307,4044.615384
181,4417.948717,4532.820512,4525.128205,4280.000000,4494.358974,4206.666666,4433.846153,4207.692307,4238.974358,4510.769230,4206.666666,4649.230769,4009.230769,4043.076923
182,4422.051282,4529.743589,4526.666666,4279.487179,4492.820512,4207.179487,4440.512820,4203.076923,4234.358974,4499.487179,4209.743589,4652.307692,4002.564102,4039.487179
183,4416.923076,4531.282051,4529.743589,4279.487179,4502.564102,4215.897435,4443.589743,4202.051282,4230.256410,4500.512820,4205.641025,4644.615384,3995.384616,4035.897435
184,4406.153846,4524.615384,4516.923076,4272.820512,4504.615384,4209.743589,4430.256410,4195.384615,4217.435897,4491.794871,4186.666666,4628.205128,3982.564103,4020.512820
185,4404.102564,4522.564102,4511.794871,4270.256410,4489.230769,4203.076923,4427.692307,4192.307692,4213.333333,4480.512820,4190.256410,4628.717948,3976.410257,4018.974358
186,4415.897435,4532.307692,4525.128205,4278.974358,4490.256410,4213.333333,4442.051282,4203.076923,4229.743589,4496.923076,4208.205128,4644.615384,3987.179488,4034.871794
187,4425.128205,4528.205128,4530.256410,4283.589743,4498.461538,4218.974358,4447.179487,4208.717948,4238.461538,4513.846153,4205.128205,4651.282051,3997.948718,4037.435897
188,4421.538461,4518.974358,4524.102564,4274.358974,4492.307692,4210.256410,4440.512820,4202.564102,4228.717948,4502.564102,4201.538461,4648.205128,4005.128205,4036.923076
189,4413.333333,4524.615384,4522.051282,4265.128205,4490.769230,4205.128205,4435.897435,4199.487179,4223.589743,4500.000000,4212.820512,4645.641025,4010.769230,4043.589743
190,4412.820512,4524.615384,4523.589743,4268.205128,4491.794871,4207.179487,4436.410256,4199.487179,4226.153846,4506.153846,4216.923076,4646.666666,4006.153846,4039.487179
191,4422.051282,4520.512820,4527.692307,4277.435897,4490.769230,4209.230769,4441.538461,4201.538461,4225.128205,4498.974358,4214.358974,4652.307692,3997.948718,4034.871794
192,4430.769230,4530.769230,4532.307692,4280.512820,4497.948717,4210.769230,4443.076923,4204.102564,4228.205128,4498.461538,4212.820512,4657.435897,4004.615384,4046.666666
193,4429.230769,4535.897435,4532.307692,4277.435897,4501.025641,4209.743589,4437.435897,4202.564102,4230.256410,4506.666666,4207.179487,4653.333333,4014.871794,4053.846153
194,4425.128205,4526.153846,4529.230769,4279.487179,4492.820512,4206.153846,4432.820512,4200.000000,4222.564102,4502.564102,4210.769230,4649.743589,4011.794871,4051.282051
195,4428.717948,4528.717948,4529.743589,4282.564102,4488.717948,4201.025641,4430.256410,4198.461538,4219.487179,4495.897435,4223.589743,4652.820512,4003.076923,4050.256410
196,4429.230769,4539.487179,4531.794871,4276.923076,4492.307692,4199.487179,4428.205128,4193.333333,4223.589743,4496.923076,4222.564102,4652.820512,4004.615384,4050.769230
197,4425.128205,4530.256410,4526.153846,4267.692307,4492.820512,4200.000000,4424.615384,4188.717948,4221.025641,4493.333333,4209.743589,4645.128205,4012.307692,4050.769230
198,4425.128205,4517.435897,4523.076923,4262.051282,4487.692307,4199.487179,4425.128205,4192.820512,4218.461538,4490.769230,4206.666666,4642.051282,4014.358974,4048.205128
199,4428.717948,4523.589743,4533.846153,4267.179487,4484.615384,4203.589743,4435.897435,4204.615384,4231.282051,4505.641025,4223.076923,4654.871794,4017.948717,4054.358974
200,4431.794871,4526.153846,4539.487179,4275.384615,4486.666666,4203.076923,4440.512820,4211.282051,4242.564102,4519.487179,4232.307692,4662.564102,4017.948717,4060.000000
201,4429.230769,4520.512820,4533.333333,4270.256410,4490.256410,4200.000000,4431.282051,4205.641025,4235.384615,4511.794871,4224.615384,4653.333333,4008.205128,4052.820512
202,4422.564102,4527.692307,4529.230769,4266.666666,4490.256410,4202.051282,4427.179487,4198.974358,4224.102564,4496.410256,4214.871794,4646.666666,4006.153846,4044.102564
203,4418.974358,4534.871794,4530.256410,4276.923076,4491.282051,4204.102564,4430.256410,4198.974358,4221.538461,4498.461538,4202.564102,4648.717948,4007.692307,4043.589743
204,4418.461538,4525.641025,4528.205128,4277.435897,4493.846153,4200.000000,4426.666666,4197.435897,4221.025641,4501.538461,4193.846153,4645.128205,3994.871795,4041.538461
205,4419.487179,4517.435897,4528.205128,4267.179487,4491.794871,4199.487179,4423.589743,4199.487179,4223.589743,4494.358974,4203.589743,4643.589743,3991.282052,4038.974358
206,4425.641025,4523.076923,4534.358974,4272.820512,4491.794871,4208.205128,4429.743589,4209.230769,4232.820512,4500.512820,4220.512820,4651.794871,4009.230769,4048.205128
207,4424.615384,4526.153846,4534.871794,4283.076923,4493.846153,4209.230769,4431.794871,4209.230769,4237.435897,4515.384615,4215.384615,4649.230769,4012.820512,4047.692307
208,4417.435897,4523.076923,4529.230769,4273.846153,4491.794871,4203.076923,4428.205128,4201.025641,4229.230769,4510.769230,4205.641025,4637.435897,4008.717948,4035.897435
209,4414.358974,4518.974358,4525.641025,4263.589743,4490.769230,4199.487179,4425.641025,4202.051282,4221.025641,4497.435897,4207.179487,4634.358974,4015.384615,4036.410256
210,4413.333333,4516.410256,4528.205128,4263.589743,4488.717948,4202.051282,4427.692307,4204.102564,4224.102564,4497.435897,4203.589743,4640.000000,4014.358974,4045.641025
211,4418.461538,4518.974358,4528.717948,4263.589743,4488.205128,4207.692307,4431.282051,4202.564102,4227.179487,4500.512820,4200.512820,4643.589743,4009.743589,4043.076923
212,4422.564102,4523.589743,4522.564102,4263.076923,4494.358974,4208.205128,4430.256410,4201.538461,4223.589743,4498.461538,4202.564102,4637.948717,4013.333333,4035.897435
213,4412.820512,4520.000000,4521.025641,4267.692307,4494.871794,4200.512820,4426.666666,4197.948717,4214.871794,4490.769230,4198.974358,4629.230769,4006.153846,4034.358974
214,4410.256410,4515.897435,4520.512820,4274.871794,4489.743589,4197.948717,4424.615384,4192.820512,4214.871794,4493.333333,4193.333333,4629.743589,3996.410257,4032.307692
215,4423.589743,4527.692307,4522.564102,4278.461538,4495.897435,4207.692307,4424.615384,4198.461538,4224.102564,4507.692307,4200.512820,4637.435897,4008.205128,4035.897435
216,4423.589743,4535.897435,4528.205128,4276.923076,4504.102564,4214.871794,4430.256410,4208.717948,4231.282051,4518.461538,4210.769230,4643.589743,4025.641025,4044.615384
217,4419.487179,4530.769230,4537.435897,4280.512820,4506.666666,4215.897435,4441.025641,4210.769230,4237.435897,4524.102564,4211.794871,4650.769230,4026.153846,4050.769230
218,4427.179487,4530.256410,4540.000000,4285.128205,4507.692307,4215.897435,4440.000000,4205.641025,4240.000000,4522.564102,4203.589743,4654.871794,4017.948717,4048.205128
219,4425.641025,4528.717948,4532.307692,4282.564102,4501.025641,4211.282051,4431.282051,4199.487179,4233.846153,4509.743589,4200.000000,4649.230769,4014.871794,4038.974358
220,4418.974358,4529.230769,4533.333333,4277.435897,4498.461538,4209.743589,4434.358974,4204.615384,4229.743589,4510.769230,4210.769230,4649.743589,4017.435897,4035.384615
221,4422.564102,4535.384615,4541.025641,4278.461538,4507.179487,4214.871794,4444.615384,4215.384615,4237.948717,4522.564102,4221.025641,4659.487179,4023.076923,4046.153846
222,4427.692307,4531.794871,4541.538461,4282.564102,4509.743589,4217.948717,4442.051282,4212.307692,4243.076923,4518.974358,4216.410256,4660.512820,4023.589743,4055.384615
223,4419.487179,4525.641025,4534.358974,4280.000000,4506.666666,4215.897435,4435.384615,4200.000000,4234.358974,4508.717948,4203.589743,4652.307692,4011.794871,4044.615384
224,4413.333333,4534.871794,4531.794871,4275.897435,4504.102564,4212.820512,4436.410256,4200.512820,4228.717948,4504.102564,4195.897435,4648.717948,4004.615384,4034.871794
225,4413.846153,4536.410256,4532.307692,4278.974358,4497.435897,4214.358974,4439.487179,4205.641025,4233.846153,4500.512820,4201.025641,4648.717948,4011.794871,4037.948717
226,4406.153846,4520.512820,4527.179487,4276.410256,4493.846153,4210.256410,4429.230769,4198.974358,4232.307692,4502.051282,4205.128205,4642.564102,4006.153846,4032.307692
227,4401.025641,4518.461538,4521.025641,4266.666666,4495.897435,4199.487179,4416.410256,4194.871794,4225.641025,4510.769230,4194.871794,4640.000000,3990.769231,4026.666666
228,4409.743589,4524.615384,4522.051282,4267.692307,4492.820512,4201.538461,4421.025641,4201.025641,4227.179487,4509.743589,4191.282051,4645.128205,3993.846154,4033.846153
229,4415.897435,4523.589743,4530.256410,4277.948717,4491.282051,4211.794871,4431.282051,4203.589743,4229.743589,4505.641025,4195.384615,4648.205128,4004.615384,4036.923076
230,4412.820512,4524.615384,4534.358974,4281.538461,4492.820512,4209.230769,4430.256410,4202.051282,4233.333333,4507.179487,4195.384615,4647.179487,4003.589743,4036.923076
231,4407.179487,4519.487179,4528.717948,4276.410256,4491.794871,4200.000000,4425.641025,4202.564102,4233.846153,4505.641025,4195.384615,4642.051282,3995.384616,4035.897435
232,4396.923076,4509.230769,4522.564102,4265.641025,4489.743589,4200.512820,4427.692307,4203.076923,4224.615384,4504.102564,4191.282051,4635.384615,3985.641026,4023.076923
233,4395.384615,4511.282051,4521.538461,4264.102564,4491.794871,4204.615384,4429.230769,4200.000000,4221.025641,4508.205128,4188.717948,4633.333333,3984.615385,4017.948717
234,4408.717948,4521.025641,4523.589743,4270.769230,4491.282051,4209.743589,4427.692307,4196.410256,4227.179487,4505.641025,4193.333333,4635.384615,3994.358975,4032.307692
235,4413.846153,4524.615384,4528.717948,4275.897435,4493.846153,4215.897435,4434.358974,4202.564102,4234.358974,4504.615384,4201.025641,4641.025641,4006.666666,4042.051282
236,4406.153846,4521.025641,4529.230769,4272.307692,4500.000000,4214.871794,4439.487179,4210.769230,4238.974358,4518.461538,4202.564102,4646.666666,4003.589743,4036.410256
237,4405.128205,4517.435897,4527.692307,4266.153846,4495.897435,4213.846153,4438.974358,4205.641025,4235.897435,4518.974358,4197.948717,4646.153846,3991.282052,4031.282051
238,4412.820512,4523.589743,4531.794871,4273.846153,4492.307692,4217.435897,4443.076923,4205.641025,4235.384615,4513.333333,4200.512820,4645.641025,3997.435898,4038.461538
239,4413.846153,4531.282051,4532.820512,4281.025641,4499.487179,4218.461538,4446.153846,4214.358974,4242.564102,4520.512820,4208.205128,4649.743589,4009.743589,4042.564102
240,4408.717948,4526.153846,4528.717948,4274.871794,4498.974358,4215.384615,4442.051282,4213.333333,4241.025641,4518.461538,4205.128205,4651.282051,3999.487180,4036.410256
241,4411.282051,4519.487179,4532.820512,4272.307692,4488.717948,4214.871794,4439.487179,4209.743589,4235.897435,4510.769230,4203.589743,4653.333333,3991.282052,4040.512820
242,4417.948717,4521.538461,4538.974358,4278.974358,4488.205128,4214.871794,4442.564102,4214.871794,4240.512820,4509.230769,4214.358974,4655.897435,4002.051282,4049.743589
243,4416.923076,4527.179487,4535.897435,4280.512820,4500.000000,4215.897435,4441.538461,4216.923076,4243.589743,4514.871794,4220.000000,4655.384615,4008.717948,4046.153846
244,4413.333333,4532.307692,4536.923076,4282.051282,4503.076923,4223.589743,4443.589743,4213.846153,4246.153846,4529.743589,4220.512820,4657.435897,4010.769230,4047.692307
245,4413.846153,4532.820512,4540.512820,4287.692307,4499.487179,4226.666666,4448.205128,4218.461538,4248.717948,4535.897435,4215.384615,4658.974358,4015.897435,4050.769230
246,4412.307692,4523.589743,4532.820512,4279.487179,4498.461538,4216.923076,4442.051282,4215.897435,4236.410256,4512.307692,4208.205128,4652.307692,4004.615384,4036.410256
247,4411.794871,4521.538461,4530.769230,4275.384615,4500.000000,4209.743589,4437.948717,4205.128205,4227.179487,4502.051282,4209.230769,4647.692307,3993.846154,4032.307692
248,4414.871794,4527.179487,4535.897435,4281.025641,4498.461538,4215.384615,4441.025641,4205.641025,4234.358974,4512.307692,4209.743589,4647.692307,4002.564102,4042.564102
249,4411.282051,4525.128205,4531.794871,4280.512820,4493.333333,4215.897435,4434.871794,4210.256410,4237.948717,4506.666666,4204.102564,4642.564102,4002.051282,4037.435897
250,4404.102564,4522.051282,4526.666666,4274.871794,4490.256410,4205.128205,4429.743589,4211.282051,4237.948717,4510.769230,4203.589743,4639.487179,3989.743590,4030.769230
251,4406.666666,4522.051282,4532.307692,4272.820512,4490.256410,4204.102564,4438.974358,4214.358974,4243.589743,4525.641025,4202.051282,4645.641025,3991.794872,4035.384615
252,4415.897435,4521.025641,4540.000000,4272.820512,4490.769230,4212.307692,4445.128205,4214.871794,4243.076923,4516.923076,4202.051282,4654.358974,4002.051282,4044.102564
253,4426.153846,4527.179487,4546.666666,4281.538461,4491.794871,4214.871794,4442.051282,4211.282051,4239.487179,4508.205128,4216.410256,4663.589743,4008.717948,4057.948717
254,4430.256410,4538.461538,4549.743589,4291.794871,4498.461538,4213.846153,4444.615384,4214.358974,4245.128205,4521.025641,4224.615384,4666.153846,4015.384615,4063.076923
255,4421.538461,4536.923076,4542.051282,4289.230769,4507.692307,4215.384615,4443.589743,4213.333333,4247.692307,4525.128205,4216.410256,4658.461538,4011.794871,4045.128205
256,4412.820512,4532.820512,4532.820512,4283.589743,4509.230769,4213.846153,4438.974358,4205.128205,4239.487179,4514.358974,4209.743589,4650.256410,4001.025641,4033.846153
257,4417.435897,4534.358974,4529.230769,4283.589743,4502.051282,4213.846153,4441.538461,4206.153846,4230.769230,4510.769230,4203.589743,4648.717948,3997.948718,4042.051282
258,4420.000000,4532.820512,4527.179487,4282.051282,4498.974358,4217.435897,4444.102564,4212.307692,4234.871794,4515.897435,4202.051282,4648.205128,3995.897436,4045.641025
259,4415.897435,4530.256410,4527.179487,4282.051282,4504.102564,4217.435897,4443.589743,4213.846153,4243.589743,4522.051282,4207.179487,4649.743589,3989.743590,4040.512820
260,4413.333333,4530.769230,4526.153846,4284.102564,4500.512820,4217.948717,4444.102564,4215.897435,4241.538461,4518.461538,4210.769230,4650.256410,3990.256411,4037.435897
