,AF3,F7,F3,FC5,T7,P7,O1,O2,P8,T8,FC6,F4,F8,AF4
0,4386.666666,4554.871794,4504.102564,4294.871794,4487.692307,4199.487179,4455.384615,4210.256410,4251.794871,4499.487179,4209.743589,4642.051282,3993.846154,4036.410256
1,4389.743589,4561.538461,4509.743589,4294.358974,4486.666666,4196.923076,4452.307692,4212.307692,4252.820512,4498.461538,4214.358974,4647.692307,3998.461539,4040.512820
2,4400.512820,4565.641025,4516.923076,4298.461538,4489.230769,4208.205128,4454.871794,4213.333333,4254.358974,4502.564102,4226.153846,4653.846153,4013.333333,4044.102564
3,4403.076923,4563.589743,4516.410256,4292.307692,4496.410256,4212.820512,4455.897435,4212.820512,4249.743589,4502.051282,4221.025641,4653.333333,4015.897435,4045.128205
4,4393.846153,4560.000000,4510.769230,4285.128205,4497.435897,4205.128205,4454.358974,4210.769230,4244.615384,4499.487179,4203.589743,4647.692307,4002.564102,4044.102564
5,4384.102564,4552.820512,4505.128205,4283.589743,4489.230769,4195.897435,4450.256410,4202.051282,4240.512820,4490.256410,4194.358974,4641.025641,3990.256411,4034.358974
6,4377.948717,4543.589743,4494.871794,4273.333333,4482.564102,4189.230769,4440.512820,4190.769230,4229.743589,4476.923076,4189.230769,4633.846153,3985.128206,4022.564102
7,4380.512820,4543.076923,4493.333333,4267.692307,4479.487179,4186.666666,4438.974358,4191.794871,4226.666666,4480.512820,4183.589743,4633.333333,3987.179488,4024.102564
8,4391.794871,4559.487179,4507.692307,4284.102564,4482.564102,4194.871794,4451.282051,4205.128205,4238.974358,4495.897435,4190.256410,4642.564102,3998.974359,4036.923076
9,4400.512820,4575.897435,4511.794871,4298.461538,4494.358974,4204.615384,4458.461538,4214.871794,4249.230769,4499.487179,4203.076923,4649.743589,4011.282051,4048.717948
10,4403.076923,4570.769230,4505.641025,4293.846153,4502.051282,4205.128205,4454.871794,4213.333333,4247.179487,4495.897435,4208.205128,4651.794871,4012.820512,4051.282051
11,4401.538461,4557.948717,4510.256410,4288.717948,4499.487179,4203.589743,4454.871794,4211.794871,4243.589743,4500.000000,4203.076923,4652.820512,4003.589743,4044.615384
12,4395.384615,4557.948717,4508.205128,4287.179487,4493.846153,4200.512820,4455.897435,4211.794871,4241.025641,4502.564102,4193.846153,4647.692307,3994.358975,4037.948717
13,4386.153846,4559.487179,4493.846153,4277.435897,4487.179487,4196.923076,4448.717948,4211.282051,4238.461538,4495.897435,4189.743589,4640.512820,3992.820513,4035.384615
14,4385.128205,4557.435897,4490.769230,4270.769230,4483.589743,4198.461538,4445.128205,4212.307692,4238.461538,4491.794871,4187.692307,4639.487179,3995.384616,4034.871794
15,4391.282051,4560.000000,4501.538461,4278.461538,4490.256410,4200.000000,4451.282051,4215.384615,4241.025641,4496.410256,4195.897435,4644.102564,3999.487180,4037.948717
16,4395.897435,4562.564102,4509.743589,4285.641025,4494.871794,4201.538461,4455.897435,4217.948717,4246.153846,4498.461538,4211.794871,4647.692307,4004.102564,4043.076923
17,4395.897435,4563.589743,4507.179487,4289.230769,4495.897435,4204.615384,4455.384615,4217.435897,4249.230769,4497.435897,4211.794871,4649.230769,3996.923077,4042.564102
18,4389.230769,4561.538461,4504.615384,4291.282051,4497.948717,4200.000000,4452.307692,4213.333333,4248.205128,4495.384615,4197.948717,4645.641025,3981.538462,4037.948717
19,4383.076923,4555.384615,4504.102564,4288.205128,4496.410256,4197.948717,4451.282051,4215.897435,4251.282051,4493.846153,4193.846153,4640.512820,3983.589744,4035.384615
20,4386.153846,4556.923076,4504.615384,4285.128205,4494.358974,4208.717948,4453.846153,4222.051282,4255.384615,4496.410256,4197.948717,4643.076923,3999.487180,4036.923076
21,4391.794871,4563.589743,4507.179487,4286.666666,4501.538461,4212.307692,4460.000000,4221.025641,4251.794871,4500.512820,4198.461538,4646.153846,4001.538461,4038.461538
22,4391.794871,4563.589743,4507.692307,4288.717948,4511.282051,4197.948717,4457.435897,4214.871794,4247.692307,4495.897435,4208.205128,4645.128205,3989.230770,4039.487179
23,4391.282051,4561.025641,4508.205128,4292.820512,4511.282051,4182.051282,4445.641025,4213.333333,4249.230769,4491.282051,4215.897435,4648.717948,3981.538462,4038.974358
24,4398.461538,4562.564102,4514.871794,4297.948717,4510.256410,4166.153846,4442.051282,4215.384615,4254.871794,4503.589743,4208.717948,4656.410256,3991.794872,4045.641025
25,4405.641025,4564.102564,4521.025641,4296.410256,4513.333333,4156.923076,4447.179487,4220.000000,4260.512820,4514.871794,4207.179487,4660.512820,4010.256410,4052.820512
26,4407.692307,4570.769230,4521.538461,4296.410256,4516.923076,4161.538461,4455.384615,4226.666666,4268.205128,4515.897435,4221.538461,4663.076923,4013.846153,4055.384615
27,4404.615384,4575.384615,4521.025641,4300.512820,4527.692307,4160.512820,4463.076923,4229.230769,4273.846153,4517.435897,4226.153846,4664.102564,4002.051282,4053.846153
28,4400.000000,4567.692307,4521.538461,4303.076923,4542.564102,4153.333333,4464.615384,4226.666666,4267.179487,4514.358974,4212.820512,4660.512820,3998.461539,4054.358974
29,4400.000000,4564.615384,4518.974358,4303.589743,4545.128205,4149.230769,4461.025641,4220.512820,4256.923076,4504.102564,4211.794871,4657.948717,4003.589743,4055.384615
30,4401.025641,4573.846153,4518.461538,4302.564102,4541.538461,4146.666666,4458.461538,4221.025641,4258.461538,4504.615384,4222.051282,4660.512820,4004.615384,4052.820512
31,4399.487179,4576.923076,4521.538461,4305.641025,4544.102564,4142.564102,4459.487179,4227.179487,4264.615384,4513.846153,4227.179487,4664.615384,3998.461539,4052.307692
32,4394.358974,4567.692307,4515.384615,4303.076923,4538.461538,4130.769230,4452.307692,4224.102564,4257.948717,4508.717948,4225.128205,4660.512820,3990.769231,4048.205128
33,4390.256410,4561.538461,4505.641025,4290.769230,4529.230769,4117.948717,4447.179487,4216.923076,4251.282051,4499.487179,4215.897435,4651.794871,3987.692308,4038.974358
34,4388.717948,4558.974358,4506.153846,4290.256410,4535.384615,4118.974358,4452.307692,4219.487179,4256.410256,4502.051282,4211.282051,4651.282051,3988.205129,4036.410256
35,4388.717948,4553.846153,4509.743589,4299.487179,4545.641025,4124.102564,4450.769230,4221.538461,4258.974358,4501.025641,4214.358974,4652.307692,3986.666667,4042.051282
36,4387.179487,4553.333333,4506.153846,4290.256410,4545.641025,4116.410256,4442.051282,4212.820512,4252.307692,4490.769230,4210.769230,4647.179487,3981.025642,4043.076923
37,4387.179487,4560.000000,4506.153846,4279.487179,4541.538461,4108.205128,4442.051282,4206.153846,4249.230769,4491.794871,4200.512820,4646.666666,3981.025642,4040.000000
38,4392.307692,4565.128205,4508.717948,4291.282051,4543.589743,4108.205128,4446.153846,4208.205128,4253.846153,4500.000000,4205.641025,4650.769230,3984.615385,4040.512820
39,4393.333333,4560.512820,4503.589743,4296.923076,4548.717948,4108.717948,4445.641025,4214.358974,4256.923076,4499.487179,4214.871794,4648.717948,3983.589744,4040.000000
40,4389.230769,4552.307692,4503.076923,4285.641025,4549.230769,4110.769230,4449.230769,4219.487179,4255.384615,4498.461538,4212.820512,4645.641025,3981.025642,4038.974358
41,4386.666666,4550.256410,4505.128205,4280.512820,4547.179487,4109.743589,4450.256410,4217.435897,4252.307692,4500.512820,4206.153846,4645.128205,3977.948718,4035.897435
42,4386.153846,4556.410256,4496.923076,4283.589743,4551.794871,4104.615384,4445.641025,4214.358974,4253.846153,4498.974358,4203.589743,4642.051282,3977.435898,4033.333333
43,4385.641025,4555.384615,4492.820512,4286.153846,4554.871794,4103.076923,4448.205128,4212.820512,4258.974358,4498.461538,4207.179487,4641.538461,3978.974359,4035.897435
44,4387.692307,4549.743589,4503.589743,4286.666666,4551.282051,4101.538461,4450.256410,4215.897435,4261.538461,4503.076923,4210.256410,4646.666666,3982.051283,4039.487179
45,4389.743589,4549.743589,4509.230769,4287.179487,4553.333333,4096.410256,4446.153846,4218.974358,4257.435897,4504.615384,4215.384615,4649.743589,3980.512821,4042.051282
46,4388.717948,4552.820512,4506.153846,4289.743589,4558.461538,4093.846153,4445.641025,4213.846153,4250.256410,4497.948717,4222.564102,4651.282051,3980.000000,4044.102564
47,4392.820512,4559.487179,4507.692307,4289.230769,4558.461538,4095.897435,4448.717948,4213.333333,4249.230769,4493.333333,4226.153846,4658.461538,3987.179488,4044.102564
48,4397.435897,4557.948717,4508.205128,4287.179487,4559.487179,4093.333333,4446.153846,4220.000000,4255.384615,4498.461538,4223.589743,4657.435897,3989.230770,4042.051282
49,4391.794871,4548.717948,4503.076923,4285.128205,4560.000000,4087.179487,4440.512820,4219.487179,4255.897435,4502.564102,4217.435897,4648.205128,3982.051283,4040.000000
50,4386.666666,4553.333333,4505.128205,4283.076923,4559.487179,4091.282051,4442.564102,4216.923076,4253.333333,4501.538461,4218.974358,4647.179487,3980.000000,4042.051282
51,4389.743589,4565.641025,4505.641025,4289.230769,4564.102564,4099.487179,4450.256410,4221.025641,4255.897435,4502.051282,4224.615384,4649.743589,3981.538462,4042.564102
52,4389.230769,4561.538461,4496.923076,4294.871794,4567.179487,4101.538461,4458.461538,4223.076923,4257.435897,4502.051282,4218.974358,4644.102564,3978.461539,4038.461538
53,4382.564102,4552.820512,4490.256410,4285.128205,4566.153846,4104.102564,4461.538461,4226.666666,4257.948717,4498.461538,4208.205128,4638.461538,3978.461539,4035.384615
54,4376.410256,4548.717948,4489.743589,4271.794871,4564.102564,4102.051282,4460.000000,4228.717948,4262.051282,4497.948717,4206.153846,4637.948717,3977.435898,4031.282051
55,4377.948717,4546.153846,4492.307692,4277.435897,4562.051282,4096.923076,4463.076923,4227.179487,4268.205128,4505.128205,4216.410256,4642.564102,3973.846154,4029.230769
56,4386.666666,4549.230769,4498.461538,4289.230769,4565.128205,4102.051282,4468.717948,4229.743589,4270.769230,4505.641025,4225.128205,4650.256410,3974.871795,4036.923076
57,4387.692307,4548.717948,4503.589743,4289.230769,4565.641025,4104.615384,4465.128205,4227.692307,4268.717948,4498.974358,4217.948717,4649.743589,3975.897436,4040.000000
58,4382.564102,4544.102564,4503.589743,4285.128205,4563.076923,4101.025641,4458.974358,4223.589743,4266.153846,4504.615384,4211.794871,4644.615384,3977.948718,4036.923076
59,4384.102564,4549.230769,4502.051282,4282.564102,4566.666666,4101.025641,4459.487179,4227.692307,4269.230769,4514.871794,4218.461538,4645.641025,3983.076924,4036.923076
60,4384.102564,4551.794871,4495.897435,4276.923076,4571.282051,4097.948717,4457.435897,4228.717948,4270.256410,4507.179487,4216.410256,4642.564102,3986.153847,4032.307692
61,4376.923076,4546.153846,4489.230769,4274.358974,4564.615384,4087.179487,4452.307692,4218.461538,4261.025641,4496.923076,4204.102564,4635.897435,3975.384616,4025.641025
62,4379.487179,4545.641025,4491.282051,4281.025641,4558.461538,4086.153846,4448.205128,4208.717948,4252.820512,4499.487179,4207.692307,4635.384615,3959.487180,4026.153846
63,4386.666666,4548.205128,4494.358974,4285.641025,4560.512820,4092.307692,4447.179487,4205.128205,4251.794871,4500.000000,4217.948717,4638.461538,3960.000000,4031.794871
64,4384.102564,4546.153846,4491.794871,4286.153846,4563.076923,4090.256410,4446.153846,4204.102564,4246.666666,4491.282051,4208.717948,4639.487179,3968.205129,4031.282051
65,4381.538461,4543.076923,4494.358974,4284.102564,4564.102564,4087.179487,4445.641025,4204.615384,4244.615384,4491.794871,4208.205128,4641.025641,3968.205129,4027.179487
66,4387.692307,4547.179487,4504.102564,4281.538461,4565.641025,4094.358974,4449.230769,4213.846153,4259.487179,4504.102564,4232.820512,4648.205128,3975.897436,4033.333333
67,4394.871794,4551.282051,4507.179487,4281.538461,4564.615384,4101.025641,4452.307692,4224.102564,4270.769230,4513.333333,4241.538461,4652.820512,3992.820513,4045.641025
68,4393.333333,4548.717948,4504.102564,4283.589743,4563.589743,4099.487179,4454.358974,4223.589743,4269.743589,4515.384615,4227.692307,4645.641025,3993.846154,4046.153846
69,4389.230769,4547.692307,4501.538461,4285.641025,4570.769230,4100.000000,4455.897435,4221.538461,4269.230769,4515.384615,4222.564102,4640.000000,3986.666667,4042.051282
70,4389.743589,4548.717948,4497.948717,4288.205128,4576.410256,4104.102564,4454.358974,4222.564102,4267.179487,4511.794871,4228.717948,4641.538461,3985.128206,4041.025641
71,4388.205128,4544.615384,4491.794871,4282.051282,4572.820512,4101.538461,4451.282051,4216.923076,4260.512820,4503.076923,4228.205128,4637.435897,3980.512821,4031.282051
72,4384.615384,4544.615384,4489.743589,4273.846153,4572.820512,4103.076923,4454.358974,4211.794871,4255.897435,4494.358974,4219.487179,4630.256410,3975.384616,4024.615384
73,4384.102564,4552.307692,4492.820512,4278.461538,4575.384615,4110.256410,4461.025641,4214.358974,4258.974358,4495.384615,4210.256410,4632.307692,3977.435898,4033.333333
74,4389.230769,4553.846153,4500.000000,4283.589743,4574.358974,4110.256410,4460.000000,4218.461538,4266.153846,4507.179487,4216.923076,4639.487179,3979.487180,4038.461538
75,4395.897435,4554.871794,4507.692307,4277.435897,4576.923076,4109.230769,4455.897435,4225.128205,4271.282051,4512.307692,4236.923076,4648.717948,3983.076924,4041.025641
76,4396.923076,4556.410256,4507.692307,4267.179487,4577.948717,4111.282051,4451.794871,4222.051282,4266.153846,4508.205128,4238.461538,4650.769230,3986.666667,4044.102564
77,4391.282051,4549.230769,4504.615384,4263.589743,4567.179487,4103.589743,4449.230769,4211.794871,4260.512820,4511.794871,4224.615384,4644.102564,3988.717949,4040.512820
78,4388.205128,4543.076923,4505.128205,4268.205128,4563.589743,4096.410256,4448.717948,4216.410256,4265.128205,4511.794871,4219.487179,4643.589743,3985.128206,4038.974358
79,4389.230769,4544.102564,4506.153846,4267.692307,4565.128205,4098.974358,4444.102564,4221.025641,4265.641025,4497.948717,4223.589743,4645.128205,3972.307693,4040.000000
80,4385.641025,4544.102564,4504.615384,4261.025641,4559.487179,4097.948717,4442.564102,4212.820512,4256.923076,4493.846153,4224.102564,4641.538461,3966.666667,4034.871794
81,4383.589743,4543.076923,4503.076923,4262.564102,4560.000000,4095.897435,4446.666666,4209.743589,4253.846153,4498.974358,4216.923076,4640.512820,3973.333334,4030.256410
82,4385.641025,4544.615384,4504.615384,4264.102564,4565.641025,4098.461538,4449.743589,4213.846153,4257.948717,4495.897435,4211.794871,4645.128205,3972.820513,4032.307692
83,4387.179487,4543.589743,4505.641025,4255.384615,4560.512820,4098.974358,4446.666666,4210.769230,4255.384615,4491.282051,4215.897435,4644.615384,3969.743590,4034.871794
84,4390.256410,4539.487179,4505.641025,4254.358974,4557.948717,4101.025641,4444.102564,4210.769230,4252.820512,4494.358974,4224.615384,4640.000000,3972.820513,4038.974358
85,4389.743589,4533.846153,4505.128205,4260.000000,4564.615384,4103.076923,4444.102564,4213.846153,4260.000000,4500.000000,4225.128205,4640.000000,3970.256411,4038.974358
86,4381.538461,4532.820512,4502.564102,4252.820512,4564.615384,4096.923076,4442.051282,4211.282051,4261.538461,4498.461538,4214.358974,4639.487179,3968.205129,4032.307692
87,4385.128205,4541.538461,4504.615384,4249.743589,4561.538461,4097.435897,4445.128205,4214.871794,4255.897435,4494.358974,4213.846153,4641.538461,3976.410257,4035.384615
88,4398.974358,4549.230769,4510.256410,4258.974358,4565.641025,4109.230769,4451.282051,4223.589743,4258.461538,4501.538461,4232.820512,4649.743589,3983.076924,4045.641025
89,4400.512820,4547.179487,4510.256410,4257.435897,4565.128205,4110.769230,4453.846153,4223.589743,4262.564102,4510.256410,4241.025641,4654.358974,3983.589744,4048.205128
90,4389.743589,4536.410256,4505.128205,4244.102564,4561.025641,4100.000000,4447.692307,4214.871794,4256.410256,4500.512820,4224.102564,4647.179487,3974.358975,4039.487179
91,4385.641025,4526.666666,4503.589743,4244.615384,4558.461538,4097.435897,4442.564102,4211.282051,4250.769230,4488.717948,4211.794871,4639.487179,3962.051283,4030.256410
92,4389.743589,4530.769230,4505.641025,4249.230769,4560.000000,4105.641025,4447.692307,4218.461538,4255.897435,4494.871794,4216.923076,4643.589743,3964.102565,4032.307692
93,4392.307692,4541.025641,4505.128205,4238.974358,4564.615384,4108.717948,4452.307692,4220.000000,4258.974358,4503.076923,4223.076923,4646.666666,3973.846154,4037.948717
94,4396.410256,4542.051282,4505.128205,4235.897435,4568.205128,4108.205128,4451.282051,4216.923076,4256.410256,4499.487179,4222.564102,4647.179487,3977.948718,4041.025641
95,4405.641025,4543.589743,4509.743589,4246.666666,4569.230769,4114.871794,4453.333333,4224.615384,4260.000000,4498.461538,4224.615384,4655.897435,3980.000000,4046.666666
96,4401.538461,4545.128205,4509.230769,4243.076923,4568.717948,4112.820512,4451.282051,4229.230769,4260.000000,4498.974358,4217.948717,4657.435897,3975.897436,4042.564102
97,4385.641025,4533.333333,4502.051282,4232.307692,4562.564102,4100.000000,4438.974358,4214.358974,4247.179487,4492.307692,4197.435897,4640.000000,3963.589744,4028.205128
98,4388.717948,4531.282051,4504.615384,4242.564102,4562.051282,4101.025641,4438.461538,4210.769230,4248.717948,4498.461538,4196.923076,4639.487179,3966.153847,4031.282051
99,4402.051282,4545.641025,4510.256410,4246.666666,4574.358974,4115.897435,4450.769230,4225.641025,4262.564102,4507.692307,4206.666666,4655.897435,3981.538462,4043.589743
100,4400.000000,4548.205128,4508.205128,4227.179487,4579.487179,4118.461538,4450.256410,4228.205128,4260.000000,4503.589743,4198.974358,4656.410256,3978.461539,4042.051282
101,4397.948717,4544.615384,4516.410256,4225.641025,4572.820512,4114.358974,4447.179487,4222.564102,4254.358974,4505.641025,4196.410256,4654.871794,3964.615385,4041.538461
102,4404.615384,4550.256410,4523.076923,4241.538461,4572.820512,4118.461538,4454.358974,4225.641025,4260.000000,4512.307692,4207.179487,4663.589743,3967.692308,4046.153846
103,4401.025641,4543.589743,4511.794871,4237.948717,4571.794871,4118.461538,4454.358974,4224.615384,4258.461538,4500.512820,4203.076923,4659.487179,3975.384616,4040.512820
104,4394.871794,4535.384615,4509.230769,4233.846153,4564.102564,4115.384615,4448.717948,4221.538461,4251.794871,4490.769230,4188.717948,4650.256410,3976.410257,4035.384615
105,4400.512820,4546.666666,4522.564102,4247.692307,4565.641025,4122.564102,4454.871794,4225.128205,4258.974358,4498.461538,4191.794871,4657.435897,3974.358975,4040.512820
106,4403.589743,4553.333333,4522.564102,4255.384615,4573.846153,4127.179487,4461.538461,4226.666666,4262.051282,4502.051282,4202.564102,4660.512820,3971.282052,4043.076923
107,4401.538461,4546.666666,4515.897435,4254.871794,4576.410256,4127.179487,4457.948717,4226.666666,4254.871794,4507.179487,4205.641025,4656.410256,3970.256411,4039.487179
108,4405.128205,4548.717948,4522.051282,4264.615384,4581.025641,4132.820512,4458.974358,4229.230769,4255.384615,4514.358974,4203.076923,4661.025641,3974.358975,4043.589743
109,4406.666666,4550.256410,4526.666666,4269.230769,4580.512820,4134.871794,4463.076923,4229.743589,4258.461538,4510.769230,4201.538461,4665.641025,3979.487180,4050.769230
110,4402.051282,4544.615384,4523.076923,4261.025641,4568.717948,4130.769230,4461.538461,4233.333333,4262.051282,4509.230769,4201.025641,4665.641025,3980.512821,4047.692307
111,4405.128205,4553.846153,4530.769230,4261.025641,4566.153846,4136.410256,4460.512820,4241.025641,4272.307692,4515.897435,4203.589743,4671.282051,3982.051283,4045.641025
112,4411.282051,4561.025641,4539.487179,4266.666666,4576.410256,4144.102564,4463.589743,4241.025641,4272.307692,4516.410256,4212.820512,4675.897435,3986.153847,4051.282051
113,4405.641025,4549.230769,4533.333333,4267.692307,4581.025641,4142.564102,4465.128205,4236.410256,4258.461538,4509.230769,4215.384615,4671.282051,3986.153847,4051.282051
114,4401.538461,4542.564102,4524.102564,4274.871794,4577.948717,4141.538461,4462.564102,4236.410256,4256.923076,4507.692307,4209.230769,4669.230769,3980.000000,4045.641025
115,4403.589743,4549.743589,4523.076923,4280.512820,4570.256410,4140.512820,4457.948717,4231.794871,4258.461538,4506.153846,4203.076923,4668.717948,3975.384616,4042.051282
116,4405.128205,4556.410256,4529.230769,4279.487179,4564.615384,4138.461538,4456.923076,4229.743589,4252.820512,4505.128205,4205.128205,4669.230769,3981.025642,4044.102564
117,4410.256410,4557.948717,4537.948717,4287.179487,4569.230769,4145.641025,4463.589743,4236.410256,4258.974358,4514.871794,4217.435897,4677.948717,3990.256411,4047.692307
118,4405.641025,4552.307692,4535.384615,4290.769230,4571.794871,4148.205128,4461.025641,4233.333333,4263.589743,4513.333333,4215.384615,4676.923076,3986.666667,4045.641025
119,4394.358974,4545.128205,4528.205128,4282.051282,4566.666666,4143.589743,4451.282051,4223.076923,4255.384615,4502.564102,4201.025641,4665.128205,3979.487180,4041.538461
120,4397.948717,4547.692307,4533.333333,4284.102564,4567.692307,4143.589743,4451.282051,4222.564102,4250.256410,4501.538461,4202.564102,4665.641025,3978.461539,4042.051282
121,4407.179487,4554.871794,4540.000000,4290.769230,4568.205128,4147.692307,4456.923076,4230.769230,4254.358974,4507.692307,4212.307692,4671.282051,3977.948718,4041.025641
122,4406.666666,4561.025641,4536.410256,4289.230769,4566.666666,4148.205128,4458.974358,4236.923076,4262.051282,4512.820512,4212.307692,4670.769230,3984.615385,4042.564102
123,4402.564102,4562.051282,4529.230769,4286.666666,4567.692307,4150.256410,4458.974358,4240.000000,4264.102564,4517.435897,4211.794871,4668.717948,3995.897436,4048.205128
124,4402.051282,4557.435897,4527.692307,4283.589743,4565.641025,4156.923076,4461.025641,4235.897435,4255.897435,4516.410256,4211.282051,4668.205128,3991.282052,4046.153846
125,4402.564102,4558.974358,4532.307692,4284.102564,4564.102564,4160.000000,4466.666666,4233.333333,4252.820512,4513.846153,4208.717948,4667.692307,3979.487180,4042.051282
126,4409.230769,4563.589743,4539.487179,4300.000000,4571.794871,4159.487179,4470.769230,4241.538461,4262.564102,4517.948717,4213.333333,4672.820512,3985.128206,4047.179487
127,4411.794871,4562.564102,4537.948717,4308.717948,4574.871794,4161.025641,4467.179487,4244.102564,4267.179487,4519.487179,4217.948717,4672.820512,3991.794872,4047.692307
128,4401.025641,4559.487179,4527.692307,4297.948717,4562.564102,4161.025641,4460.512820,4232.820512,4258.974358,4511.282051,4212.307692,4663.076923,3985.641026,4039.487179
129,4392.307692,4558.974358,4521.025641,4293.333333,4555.384615,4156.923076,4458.974358,4228.205128,4252.820512,4504.615384,4206.153846,4658.974358,3984.102565,4038.461538
130,4397.948717,4563.076923,4528.205128,4302.051282,4558.461538,4157.435897,4461.025641,4235.384615,4256.410256,4509.230769,4210.769230,4665.641025,3988.717949,4042.051282
131,4408.717948,4564.615384,4538.974358,4307.692307,4562.564102,4166.666666,4466.666666,4238.974358,4267.179487,4522.051282,4221.538461,4672.307692,3990.769231,4045.128205
132,4402.564102,4554.871794,4534.358974,4304.102564,4561.538461,4169.230769,4467.692307,4236.923076,4263.076923,4520.000000,4214.871794,4667.692307,3990.256411,4044.102564
133,4386.666666,4540.512820,4516.410256,4290.256410,4549.230769,4160.000000,4452.820512,4228.717948,4244.102564,4499.487179,4195.384615,4651.794871,3983.589744,4032.820512
134,4383.076923,4545.641025,4508.717948,4283.589743,4536.923076,4154.358974,4444.102564,4220.512820,4242.051282,4494.358974,4194.871794,4645.128205,3979.487180,4023.589743
135,4392.820512,4559.487179,4519.487179,4294.358974,4541.025641,4161.538461,4453.846153,4226.666666,4258.461538,4511.282051,4211.282051,4652.820512,3982.051283,4029.743589
136,4393.846153,4554.871794,4521.538461,4301.538461,4550.256410,4167.692307,4458.461538,4232.307692,4256.410256,4506.666666,4213.846153,4653.846153,3977.435898,4031.282051
137,4382.051282,4545.128205,4510.256410,4297.435897,4546.666666,4162.564102,4452.307692,4222.564102,4240.512820,4485.128205,4202.051282,4643.589743,3970.256411,4026.153846
138,4381.538461,4547.692307,4512.820512,4296.410256,4541.025641,4161.025641,4454.358974,4218.461538,4240.512820,4490.769230,4190.769230,4643.589743,3974.358975,4027.179487
139,4390.256410,4551.794871,4524.102564,4296.410256,4538.461538,4169.743589,4461.025641,4224.102564,4246.153846,4507.692307,4188.205128,4651.282051,3979.487180,4028.717948
140,4391.794871,4551.794871,4523.076923,4295.384615,4533.846153,4173.333333,4458.461538,4226.153846,4246.153846,4504.615384,4198.974358,4650.256410,3978.974359,4026.666666
141,4388.205128,4551.282051,4518.974358,4302.051282,4531.794871,4171.282051,4457.948717,4226.153846,4249.743589,4498.974358,4210.256410,4646.153846,3976.410257,4027.179487
142,4387.692307,4551.794871,4518.974358,4305.641025,4527.179487,4170.769230,4460.512820,4225.641025,4252.820512,4501.538461,4208.205128,4645.641025,3976.923077,4030.769230
143,4390.769230,4554.871794,4518.461538,4301.025641,4516.923076,4174.358974,4457.435897,4224.615384,4252.820512,4505.128205,4202.564102,4644.102564,3983.589744,4034.358974
144,4395.384615,4561.025641,4520.000000,4301.025641,4518.461538,4178.461538,4458.974358,4226.153846,4252.820512,4507.692307,4200.000000,4646.666666,3988.205129,4035.384615
145,4397.435897,4559.487179,4521.025641,4307.692307,4527.179487,4178.974358,4461.538461,4228.205128,4248.717948,4504.615384,4202.051282,4650.256410,3981.538462,4034.871794
146,4394.871794,4557.948717,4522.051282,4312.820512,4517.948717,4176.410256,4457.948717,4227.179487,4243.589743,4505.641025,4208.717948,4648.205128,3984.615385,4037.435897
147,4397.435897,4565.128205,4523.076923,4312.820512,4506.666666,4173.846153,4456.410256,4225.128205,4248.717948,4509.743589,4213.333333,4647.179487,3994.871795,4042.051282
148,4404.102564,4568.205128,4524.102564,4311.794871,4511.794871,4175.897435,4464.615384,4228.205128,4254.871794,4501.025641,4209.743589,4652.307692,3993.333334,4044.102564
149,4406.666666,4565.128205,4525.128205,4316.410256,4518.461538,4182.051282,4468.205128,4236.923076,4253.333333,4502.051282,4209.230769,4655.384615,3994.871795,4046.153846
150,4401.025641,4563.589743,4525.641025,4318.974358,4519.487179,4184.615384,4466.153846,4237.435897,4251.794871,4513.333333,4213.333333,4656.410256,4000.000000,4046.666666
151,4395.897435,4563.589743,4525.128205,4312.307692,4514.358974,4182.051282,4467.179487,4228.717948,4253.333333,4506.666666,4212.307692,4656.410256,3993.846154,4040.512820
152,4395.384615,4560.000000,4524.102564,4306.666666,4500.000000,4182.564102,4464.615384,4228.717948,4254.358974,4503.076923,4207.179487,4651.282051,3989.743590,4034.871794
153,4395.384615,4556.923076,4528.205128,4311.282051,4500.000000,4189.230769,4465.128205,4237.948717,4254.871794,4514.358974,4209.230769,4649.743589,3993.846154,4036.410256
154,4397.948717,4564.615384,4535.384615,4315.897435,4515.897435,4194.871794,4473.846153,4242.564102,4258.974358,4514.358974,4222.051282,4655.897435,3993.333334,4041.538461
155,4404.102564,4574.358974,4538.974358,4314.871794,4517.435897,4193.846153,4478.974358,4242.051282,4261.025641,4510.769230,4225.128205,4664.102564,3995.384616,4045.128205
156,4405.641025,4571.794871,4534.871794,4316.410256,4505.128205,4188.717948,4473.333333,4240.512820,4257.435897,4515.384615,4216.410256,4664.102564,4004.615384,4044.102564
157,4399.487179,4556.923076,4527.692307,4317.435897,4498.974358,4185.128205,4466.666666,4239.487179,4255.897435,4508.717948,4209.743589,4655.384615,3998.461539,4038.974358
158,4392.820512,4544.102564,4522.051282,4312.820512,4498.461538,4179.487179,4463.076923,4235.384615,4254.358974,4505.128205,4207.179487,4646.666666,3985.128206,4032.820512
159,4389.230769,4543.589743,4519.487179,4305.128205,4496.410256,4178.461538,4458.974358,4227.179487,4248.205128,4508.717948,4207.692307,4644.102564,3980.512821,4027.179487
160,4392.307692,4557.435897,4521.538461,4300.512820,4495.384615,4184.615384,4460.512820,4224.615384,4246.153846,4501.025641,4211.794871,4647.692307,3981.025642,4029.743589
161,4397.948717,4567.179487,4522.564102,4306.153846,4495.897435,4187.179487,4466.153846,4229.230769,4251.282051,4498.974358,4211.282051,4650.769230,3988.205129,4037.435897
162,4398.461538,4553.846153,4522.564102,4315.384615,4497.948717,4182.564102,4463.589743,4230.256410,4251.282051,4505.128205,4208.205128,4650.769230,3993.846154,4037.948717
163,4393.333333,4545.128205,4522.051282,4312.820512,4498.461538,4178.461538,4460.512820,4225.128205,4247.692307,4505.641025,4212.820512,4647.179487,3988.205129,4033.846153
164,4394.871794,4558.461538,4523.076923,4305.641025,4498.974358,4180.512820,4465.128205,4225.128205,4253.333333,4508.205128,4220.512820,4646.153846,3989.743590,4038.974358
165,4400.512820,4565.641025,4522.564102,4310.256410,4499.487179,4186.153846,4467.692307,4234.358974,4258.974358,4514.871794,4221.025641,4649.230769,3999.487180,4045.128205
166,4396.410256,4556.410256,4517.435897,4313.846153,4498.461538,4185.641025,4464.102564,4236.923076,4254.358974,4509.230769,4218.974358,4648.205128,3995.897436,4040.512820
167,4393.333333,4557.948717,4520.512820,4310.769230,4499.487179,4182.564102,4465.128205,4229.743589,4252.307692,4508.717948,4218.461538,4646.153846,3990.769231,4040.512820
168,4395.384615,4562.564102,4520.512820,4310.769230,4499.487179,4182.051282,4462.051282,4223.076923,4251.794871,4515.897435,4217.948717,4644.615384,3994.358975,4043.076923
169,4390.769230,4549.743589,4508.717948,4312.307692,4498.461538,4179.487179,4452.820512,4219.487179,4242.564102,4504.102564,4216.923076,4638.461538,3990.256411,4038.461538
170,4393.333333,4547.692307,4508.205128,4314.358974,4500.000000,4184.615384,4456.410256,4219.487179,4241.025641,4492.307692,4221.538461,4636.923076,3992.307693,4038.461538
171,4404.102564,4562.564102,4520.000000,4313.333333,4501.538461,4194.871794,4466.666666,4224.615384,4253.333333,4499.487179,4225.641025,4645.128205,4001.538461,4042.564102
172,4402.051282,4561.025641,4522.051282,4307.692307,4502.051282,4189.230769,4463.076923,4225.641025,4254.358974,4498.974358,4219.487179,4646.666666,3994.358975,4038.461538
173,4402.051282,4555.384615,4518.461538,4309.230769,4499.487179,4185.128205,4458.461538,4226.666666,4252.307692,4498.461538,4221.538461,4644.615384,3993.846154,4040.000000
174,4412.820512,4566.153846,4523.076923,4319.487179,4501.025641,4194.871794,4465.128205,4231.794871,4263.589743,4516.410256,4236.410256,4652.820512,4010.769230,4053.846153
175,4411.794871,4568.717948,4523.076923,4323.589743,4508.717948,4195.897435,4466.666666,4231.794871,4266.153846,4525.128205,4238.974358,4653.333333,4010.769230,4051.794871
176,4406.666666,4561.025641,4521.025641,4320.000000,4509.743589,4191.794871,4464.102564,4226.666666,4258.461538,4514.358974,4232.307692,4646.153846,4002.564102,4042.051282
177,4409.230769,4567.692307,4520.512820,4316.923076,4503.076923,4197.948717,4469.743589,4230.256410,4262.051282,4511.794871,4229.230769,4644.615384,4005.641025,4048.717948
178,4402.564102,4567.692307,4511.282051,4313.846153,4503.589743,4198.461538,4470.769230,4237.948717,4265.641025,4517.435897,4228.717948,4641.025641,4003.076923,4049.230769
179,4392.820512,4552.820512,4505.128205,4307.179487,4503.589743,4185.641025,4460.512820,4231.282051,4254.871794,4506.153846,4224.615384,4633.846153,3992.307693,4035.897435
180,4395.897435,4553.333333,4507.179487,4301.025641,4494.358974,4183.076923,4458.461538,4219.487179,4250.256410,4493.846153,4223.076923,4633.333333,3991.282052,4034.358974
181,4398.461538,4560.000000,4509.230769,4308.205128,4493.846153,4193.333333,4470.256410,4224.102564,4258.974358,4503.076923,4226.153846,4636.923076,3998.974359,4043.589743
182,4393.333333,4549.230769,4507.179487,4309.230769,4498.461538,4193.846153,4471.794871,4229.743589,4260.000000,4510.256410,4227.692307,4633.333333,3997.435898,4037.948717
183,4394.358974,4543.076923,4506.153846,4301.538461,4494.871794,4189.743589,4463.589743,4225.641025,4254.358974,4506.666666,4227.692307,4630.256410,3989.743590,4028.717948
184,4402.051282,4554.358974,4509.743589,4307.179487,4495.897435,4195.897435,4466.153846,4229.743589,4259.487179,4509.743589,4229.230769,4635.897435,3994.871795,4035.384615
185,4405.641025,4562.564102,4510.769230,4313.333333,4505.128205,4200.000000,4472.820512,4237.435897,4265.641025,4512.820512,4230.769230,4640.000000,4006.153846,4045.128205
186,4401.025641,4554.871794,4507.692307,4308.717948,4508.205128,4194.871794,4463.589743,4226.153846,4255.897435,4504.615384,4221.538461,4632.307692,4001.538461,4040.512820
187,4394.871794,4547.692307,4504.615384,4304.615384,4500.512820,4192.820512,4454.358974,4209.743589,4242.051282,4495.897435,4213.333333,4622.051282,3987.692308,4027.179487
188,4393.846153,4553.333333,4505.641025,4304.615384,4496.410256,4195.384615,4460.512820,4210.769230,4241.538461,4489.743589,4221.025641,4625.128205,3984.615385,4026.153846
189,4395.384615,4556.923076,4503.589743,4307.179487,4498.461538,4195.384615,4462.051282,4218.461538,4244.102564,4487.179487,4226.153846,4627.179487,3987.179488,4034.871794
190,4396.410256,4552.820512,4503.589743,4307.692307,4503.076923,4197.948717,4460.512820,4220.000000,4244.615384,4497.435897,4216.923076,4621.025641,3992.820513,4036.923076
191,4397.435897,4552.307692,4504.102564,4295.897435,4511.282051,4202.051282,4464.102564,4221.025641,4248.205128,4506.153846,4209.743589,4617.435897,3998.974359,4033.846153
192,4393.846153,4546.153846,4493.333333,4282.051282,4512.820512,4197.948717,4462.564102,4216.410256,4245.128205,4494.358974,4208.717948,4615.897435,3990.769231,4028.205128
193,4390.769230,4537.435897,4487.179487,4284.615384,4503.589743,4193.846153,4457.435897,4205.641025,4233.846153,4482.051282,4196.410256,4612.820512,3979.487180,4020.512820
194,4400.000000,4545.128205,4498.461538,4292.820512,4505.128205,4197.435897,4461.025641,4210.769230,4234.871794,4486.666666,4188.205128,4616.410256,3983.076924,4026.666666
195,4410.256410,4555.897435,4508.717948,4292.820512,4516.923076,4204.615384,4470.256410,4225.641025,4247.179487,4491.794871,4196.923076,4627.692307,3992.820513,4039.487179
196,4404.615384,4551.794871,4506.153846,4284.615384,4517.948717,4203.076923,4464.615384,4224.615384,4246.153846,4487.179487,4200.512820,4626.666666,3993.846154,4033.846153
197,4397.435897,4552.820512,4503.589743,4283.589743,4513.333333,4196.923076,4454.871794,4216.923076,4237.435897,4488.717948,4187.179487,4615.897435,3986.153847,4022.564102
198,4401.538461,4560.512820,4504.615384,4289.743589,4515.384615,4195.897435,4457.435897,4220.512820,4236.923076,4494.871794,4175.897435,4614.871794,3984.102565,4027.179487
199,4408.205128,4557.948717,4505.641025,4288.205128,4516.410256,4203.076923,4464.615384,4225.641025,4238.461538,4491.794871,4179.487179,4624.615384,3989.230770,4038.461538
200,4410.256410,4556.923076,4514.358974,4288.717948,4516.923076,4210.769230,4469.743589,4228.205128,4241.025641,4496.410256,4194.871794,4632.307692,3991.282052,4044.615384
201,4415.384615,4565.128205,4522.564102,4297.948717,4524.615384,4212.307692,4474.358974,4231.282051,4250.256410,4512.307692,4204.615384,4632.820512,3994.358975,4046.666666
202,4423.589743,4575.384615,4522.051282,4296.410256,4530.256410,4212.820512,4476.923076,4231.794871,4254.871794,4511.282051,4193.846153,4634.358974,4007.692307,4050.256410
203,4423.589743,4574.871794,4519.487179,4286.666666,4528.205128,4211.794871,4471.794871,4232.307692,4252.820512,4503.076923,4182.564102,4636.410256,4010.256410,4049.743589
204,4417.435897,4563.076923,4521.025641,4288.205128,4525.128205,4211.282051,4472.307692,4236.923076,4256.410256,4505.641025,4193.333333,4634.358974,4000.000000,4043.076923
205,4418.461538,4557.948717,4521.025641,4297.435897,4528.717948,4217.435897,4478.461538,4242.564102,4259.487179,4508.205128,4206.153846,4632.820512,4001.538461,4040.512820
206,4422.051282,4570.256410,4521.025641,4300.000000,4533.333333,4223.589743,4482.051282,4244.102564,4258.461538,4509.230769,4203.589743,4633.846153,4011.282051,4047.692307
207,4422.564102,4580.512820,4520.000000,4295.384615,4532.307692,4225.128205,4484.615384,4241.025641,4256.923076,4515.897435,4200.000000,4632.307692,4013.333333,4049.743589
208,4421.025641,4575.384615,4513.846153,4294.358974,4531.282051,4225.641025,4484.615384,4239.487179,4256.923076,4518.974358,4204.615384,4629.230769,4016.923076,4044.102564
209,4417.435897,4568.717948,4508.717948,4295.384615,4531.282051,4222.564102,4478.974358,4240.512820,4257.948717,4515.384615,4201.025641,4627.692307,4021.025641,4039.487179
210,4413.333333,4560.000000,4505.641025,4288.205128,4526.666666,4216.923076,4470.256410,4240.512820,4258.974358,4509.230769,4190.256410,4627.692307,4014.358974,4035.384615
211,4418.974358,4561.538461,4510.769230,4289.230769,4527.692307,4223.589743,4474.871794,4247.692307,4265.641025,4514.871794,4198.461538,4631.794871,4013.846153,4041.025641
212,4426.153846,4576.410256,4518.974358,4298.461538,4537.435897,4234.358974,4487.692307,4253.846153,4272.307692,4527.179487,4212.307692,4634.358974,4022.564102,4049.743589
213,4421.025641,4575.897435,4516.410256,4295.384615,4535.897435,4232.307692,4486.153846,4241.538461,4267.692307,4523.589743,4206.666666,4631.794871,4025.641025,4045.641025
214,4417.948717,4561.538461,4514.871794,4286.666666,4527.179487,4227.179487,4482.051282,4227.179487,4262.564102,4517.948717,4203.076923,4630.769230,4025.128205,4040.512820
215,4417.948717,4561.538461,4521.025641,4289.230769,4532.307692,4231.794871,4482.564102,4225.128205,4265.128205,4520.000000,4208.717948,4630.769230,4024.615384,4041.025641
216,4416.923076,4575.384615,4522.051282,4293.846153,4538.974358,4236.923076,4482.051282,4227.179487,4269.230769,4518.974358,4209.743589,4633.333333,4023.589743,4040.000000
217,4420.000000,4575.897435,4521.538461,4297.435897,4539.487179,4235.897435,4485.128205,4230.256410,4272.820512,4522.051282,4207.692307,4641.538461,4026.666666,4047.179487
218,4417.948717,4562.051282,4521.025641,4297.948717,4538.974358,4230.256410,4487.179487,4232.307692,4271.282051,4529.230769,4204.102564,4638.974358,4028.205128,4050.769230
219,4412.820512,4557.435897,4520.512820,4295.384615,4530.769230,4226.666666,4480.512820,4229.743589,4268.717948,4525.128205,4207.179487,4632.820512,4022.564102,4041.025641
220,4422.051282,4572.307692,4528.717948,4300.000000,4527.692307,4233.333333,4483.589743,4235.897435,4277.435897,4525.641025,4224.102564,4646.666666,4030.769230,4049.743589
221,4432.820512,4581.538461,4534.358974,4305.641025,4538.461538,4239.487179,4494.358974,4246.153846,4282.564102,4533.333333,4230.769230,4653.846153,4043.589743,4063.589743
222,4424.102564,4570.256410,4524.102564,4298.974358,4537.948717,4233.846153,4490.256410,4241.025641,4277.435897,4530.256410,4218.461538,4640.000000,4036.923076,4052.307692
223,4423.076923,4565.641025,4522.051282,4292.307692,4530.769230,4229.230769,4487.179487,4233.846153,4276.410256,4530.256410,4220.512820,4637.435897,4029.230769,4048.205128
224,4433.846153,4574.358974,4532.307692,4301.025641,4540.512820,4234.358974,4493.333333,4235.384615,4278.974358,4534.871794,4232.820512,4650.256410,4034.871794,4058.461538
225,4429.230769,4575.384615,4531.794871,4311.282051,4542.564102,4237.948717,4490.769230,4232.307692,4274.871794,4530.256410,4230.769230,4650.256410,4038.974358,4053.333333
226,4422.564102,4571.282051,4524.615384,4305.128205,4527.692307,4235.384615,4488.717948,4227.692307,4270.769230,4525.641025,4220.000000,4641.025641,4037.435897,4048.205128
227,4424.615384,4569.743589,4524.102564,4297.948717,4526.153846,4231.282051,4492.820512,4229.230769,4271.282051,4523.076923,4213.846153,4637.435897,4033.846153,4053.333333
228,4421.025641,4571.794871,4523.589743,4298.461538,4533.333333,4227.692307,4487.692307,4228.717948,4269.230769,4514.871794,4210.256410,4633.333333,4026.666666,4047.692307
229,4413.846153,4574.358974,4521.025641,4295.384615,4532.307692,4226.153846,4480.000000,4223.589743,4266.153846,4507.692307,4210.256410,4630.769230,4024.102564,4038.974358
230,4414.871794,4571.282051,4521.538461,4291.282051,4530.769230,4227.692307,4483.076923,4223.076923,4266.153846,4513.846153,4215.897435,4633.333333,4024.102564,4039.487179
231,4418.461538,4565.641025,4523.589743,4298.461538,4533.333333,4230.769230,4489.230769,4224.615384,4265.128205,4519.487179,4220.512820,4635.897435,4023.076923,4045.128205
232,4417.435897,4566.153846,4521.025641,4301.538461,4534.871794,4231.794871,4488.205128,4222.564102,4258.974358,4509.230769,4209.230769,4633.846153,4028.717948,4046.153846
233,4408.717948,4565.128205,4518.461538,4292.820512,4531.282051,4227.179487,4482.564102,4220.000000,4255.384615,4499.487179,4194.358974,4628.205128,4027.692307,4036.410256
234,4403.076923,4557.435897,4518.974358,4288.717948,4527.692307,4227.692307,4482.564102,4222.051282,4263.589743,4509.743589,4201.025641,4629.743589,4015.384615,4030.769230
235,4412.307692,4560.512820,4522.051282,4300.000000,4536.410256,4235.897435,4490.769230,4231.794871,4274.358974,4524.615384,4221.538461,4637.948717,4019.487179,4039.487179
236,4420.000000,4571.282051,4525.641025,4305.641025,4544.615384,4238.974358,4492.820512,4235.384615,4277.948717,4526.666666,4225.128205,4639.487179,4036.410256,4045.641025
237,4413.333333,4572.307692,4520.512820,4293.333333,4537.948717,4235.384615,4486.666666,4229.743589,4270.256410,4522.051282,4211.794871,4631.794871,4035.897435,4042.564102
238,4405.641025,4565.641025,4510.256410,4282.051282,4530.769230,4230.256410,4482.051282,4225.128205,4260.512820,4514.358974,4205.128205,4623.076923,4025.128205,4036.923076
239,4402.051282,4560.000000,4505.128205,4282.051282,4533.333333,4225.128205,4478.974358,4224.615384,4257.948717,4513.333333,4208.205128,4618.461538,4026.153846,4028.717948
240,4401.538461,4558.461538,4507.179487,4288.205128,4533.846153,4227.179487,4478.974358,4225.128205,4263.589743,4520.000000,4212.307692,4619.487179,4026.153846,4027.179487
241,4405.128205,4561.025641,4512.307692,4291.282051,4531.282051,4233.846153,4484.102564,4225.641025,4269.230769,4520.512820,4212.307692,4623.076923,4016.410256,4034.358974
242,4409.743589,4566.666666,4516.410256,4289.230769,4530.769230,4233.846153,4486.666666,4226.153846,4266.666666,4513.846153,4208.717948,4625.128205,4016.410256,4036.410256
243,4414.358974,4569.743589,4524.102564,4289.743589,4535.384615,4236.410256,4491.282051,4229.230769,4267.179487,4517.948717,4218.461538,4633.333333,4030.769230,4038.461538
244,4413.333333,4565.641025,4524.615384,4291.282051,4541.025641,4238.461538,4490.769230,4230.769230,4271.282051,4525.641025,4227.692307,4636.410256,4035.384615,4040.000000
245,4401.538461,4556.923076,4510.769230,4287.692307,4533.333333,4228.205128,4477.435897,4222.051282,4268.205128,4520.000000,4212.307692,4621.025641,4025.128205,4030.769230
246,4400.000000,4555.384615,4507.692307,4286.666666,4524.102564,4223.589743,4477.948717,4220.000000,4267.179487,4512.820512,4199.487179,4616.923076,4021.538461,4026.153846
247,4414.358974,4563.076923,4520.000000,4289.743589,4531.282051,4236.410256,4494.358974,4231.794871,4272.820512,4516.923076,4217.948717,4631.282051,4026.153846,4037.435897
248,4419.487179,4567.179487,4528.205128,4280.512820,4537.948717,4245.641025,4495.384615,4237.435897,4271.282051,4522.564102,4234.358974,4635.384615,4031.794871,4043.589743
249,4410.256410,4563.589743,4522.051282,4277.948717,4532.820512,4241.538461,4486.153846,4234.358974,4267.179487,4522.051282,4226.666666,4632.307692,4036.410256,4037.948717
250,4402.564102,4552.307692,4511.282051,4292.307692,4527.692307,4233.333333,4483.076923,4229.230769,4271.794871,4517.948717,4220.000000,4630.769230,4034.358974,4034.358974
251,4401.538461,4548.717948,4504.615384,4303.076923,4525.641025,4227.692307,4480.000000,4226.153846,4270.769230,4512.307692,4222.051282,4625.128205,4026.666666,4035.384615
252,4404.615384,4558.974358,4515.384615,4309.743589,4527.179487,4232.820512,4480.512820,4231.794871,4269.743589,4514.358974,4224.102564,4626.666666,4021.538461,4037.948717
253,4403.589743,4556.923076,4522.564102,4314.358974,4532.820512,4241.025641,4487.179487,4235.897435,4272.307692,4518.974358,4220.000000,4633.333333,4022.564102,4036.410256
254,4402.564102,4548.205128,4512.820512,4308.717948,4530.256410,4237.948717,4485.641025,4229.743589,4269.743589,4515.897435,4215.384615,4630.769230,4031.282051,4032.820512
255,4408.205128,4557.435897,4512.307692,4307.179487,4525.641025,4236.410256,4481.025641,4226.666666,4269.230769,4518.974358,4222.051282,4627.179487,4039.487179,4037.948717
