,AF3,F7,F3,FC5,T7,P7,O1,O2,P8,T8,FC6,F4,F8,AF4
0,4389.230769,4405.128205,4521.025641,4263.076923,4512.307692,4202.051282,4441.538461,4215.384615,4217.435897,4499.487179,4198.974358,4632.820512,3987.692308,4037.948717
1,4383.076923,4399.487179,4522.051282,4256.410256,4513.846153,4196.923076,4439.487179,4211.794871,4221.538461,4496.923076,4189.230769,4625.128205,3970.256411,4024.102564
2,4375.897435,4394.358974,4517.948717,4250.769230,4509.743589,4193.333333,4433.333333,4210.769230,4212.820512,4489.230769,4186.666666,4622.564102,3964.615385,4022.051282
3,4372.820512,4390.256410,4510.769230,4248.205128,4504.615384,4192.820512,4432.307692,4207.179487,4202.564102,4482.051282,4182.564102,4621.025641,3962.051283,4025.641025
4,4377.435897,4392.307692,4514.358974,4249.230769,4510.256410,4192.820512,4438.974358,4205.128205,4205.641025,4483.076923,4184.102564,4621.538461,3964.615385,4027.692307
5,4383.589743,4396.410256,4523.076923,4255.897435,4512.820512,4196.923076,4440.000000,4208.205128,4210.256410,4489.743589,4190.256410,4629.230769,3977.435898,4025.641025
6,4384.615384,4399.487179,4522.564102,4259.487179,4509.230769,4199.487179,4434.358974,4209.743589,4216.410256,4501.538461,4201.538461,4635.897435,3987.179488,4028.717948
7,4382.564102,4401.025641,4521.538461,4257.948717,4509.743589,4194.358974,4428.205128,4205.641025,4225.128205,4510.256410,4206.153846,4635.384615,3991.794872,4039.487179
8,4386.153846,4401.538461,4523.076923,4257.948717,4515.384615,4194.871794,4425.641025,4206.666666,4227.179487,4511.282051,4200.512820,4634.871794,3993.846154,4039.487179
9,4390.256410,4398.974358,4522.051282,4257.435897,4514.871794,4202.051282,4428.717948,4214.358974,4225.128205,4509.230769,4201.538461,4633.846153,3988.205129,4028.205128
10,4385.128205,4396.410256,4522.564102,4256.923076,4507.692307,4202.051282,4434.358974,4217.948717,4224.615384,4503.589743,4206.666666,4633.846153,3980.512821,4026.153846
11,4378.974358,4394.358974,4524.102564,4254.871794,4505.128205,4199.487179,4434.871794,4214.358974,4224.102564,4500.000000,4202.051282,4629.743589,3980.000000,4036.410256
12,4383.076923,4390.769230,4521.025641,4252.307692,4509.743589,4201.025641,4436.410256,4214.358974,4221.538461,4505.641025,4201.538461,4631.794871,3980.512821,4037.435897
13,4392.820512,4390.256410,4525.128205,4256.923076,4514.358974,4201.025641,4439.487179,4223.076923,4226.153846,4514.871794,4207.179487,4641.025641,3981.025642,4033.846153
14,4395.384615,4393.333333,4536.923076,4265.128205,4513.333333,4197.948717,4436.923076,4228.205128,4235.897435,4517.435897,4208.205128,4645.641025,3985.641026,4044.615384
15,4390.256410,4394.358974,4538.461538,4267.692307,4507.692307,4196.410256,4429.743589,4223.076923,4235.897435,4512.820512,4212.307692,4645.641025,3990.256411,4051.282051
16,4384.615384,4384.102564,4528.717948,4261.025641,4504.102564,4195.384615,4429.743589,4217.948717,4227.179487,4503.076923,4210.256410,4641.025641,3988.717949,4038.461538
17,4377.948717,4373.846153,4521.025641,4251.282051,4506.666666,4194.871794,4431.282051,4217.948717,4221.538461,4495.897435,4193.333333,4631.282051,3983.589744,4025.128205
18,4373.333333,4380.512820,4520.512820,4251.794871,4510.256410,4196.923076,4430.256410,4212.820512,4217.948717,4498.461538,4187.179487,4627.692307,3985.641026,4029.230769
19,4380.512820,4390.769230,4525.641025,4264.615384,4509.230769,4198.974358,4431.794871,4206.153846,4219.487179,4507.692307,4196.410256,4635.897435,3988.205129,4039.487179
20,4387.179487,4388.717948,4528.205128,4265.641025,4507.179487,4197.435897,4432.820512,4209.230769,4228.205128,4511.282051,4197.948717,4638.974358,3983.076924,4036.923076
21,4379.487179,4378.461538,4522.564102,4251.282051,4502.564102,4190.256410,4426.666666,4210.769230,4226.153846,4500.000000,4189.230769,4633.333333,3976.923077,4022.564102
22,4375.384615,4375.384615,4519.487179,4249.230769,4501.025641,4188.717948,4425.641025,4208.205128,4220.512820,4495.384615,4190.256410,4633.333333,3976.410257,4022.564102
23,4383.076923,4384.615384,4525.128205,4260.000000,4505.128205,4196.410256,4431.794871,4215.384615,4228.717948,4512.307692,4198.974358,4637.948717,3982.051283,4040.512820
24,4382.564102,4388.717948,4525.128205,4260.512820,4509.230769,4198.974358,4432.820512,4218.461538,4228.205128,4516.923076,4198.461538,4634.871794,3985.641026,4038.461538
25,4375.897435,4381.025641,4516.923076,4250.256410,4507.179487,4195.384615,4426.153846,4204.102564,4210.769230,4495.897435,4186.153846,4627.692307,3977.435898,4015.897435
26,4374.871794,4373.846153,4516.410256,4247.692307,4505.641025,4195.897435,4425.128205,4200.512820,4205.641025,4484.102564,4181.538461,4627.179487,3971.794872,4014.358974
27,4377.435897,4376.923076,4522.051282,4252.820512,4509.230769,4199.487179,4429.230769,4212.307692,4221.538461,4502.564102,4187.692307,4629.743589,3978.461539,4033.846153
28,4379.487179,4381.025641,4523.076923,4254.358974,4507.692307,4197.435897,4429.743589,4215.897435,4227.179487,4514.358974,4194.358974,4629.743589,3983.589744,4038.974358
29,4383.076923,4386.666666,4528.717948,4258.461538,4506.153846,4200.000000,4427.692307,4214.871794,4222.051282,4505.128205,4202.051282,4637.435897,3988.717949,4033.333333
30,4389.743589,4390.256410,4534.358974,4264.615384,4512.307692,4203.076923,4429.743589,4214.358974,4221.538461,4502.564102,4204.102564,4645.128205,3996.410257,4038.974358
31,4391.282051,4382.564102,4530.769230,4258.461538,4515.384615,4200.000000,4435.897435,4211.794871,4225.128205,4509.743589,4201.538461,4641.538461,3994.358975,4046.153846
32,4387.692307,4382.051282,4530.256410,4253.846153,4514.871794,4200.512820,4438.974358,4217.948717,4233.333333,4513.846153,4205.128205,4641.538461,3994.358975,4047.179487
33,4385.641025,4389.743589,4530.256410,4260.512820,4517.948717,4201.538461,4438.974358,4228.205128,4240.000000,4516.923076,4208.717948,4643.076923,3998.461539,4045.641025
34,4383.076923,4384.102564,4528.205128,4260.512820,4515.897435,4201.538461,4440.512820,4224.615384,4236.410256,4520.000000,4202.564102,4636.410256,3993.333334,4034.358974
35,4382.564102,4377.948717,4527.692307,4255.384615,4509.230769,4201.025641,4442.564102,4221.538461,4233.333333,4515.384615,4202.051282,4637.948717,3989.230770,4026.153846
36,4388.717948,4387.692307,4530.769230,4259.487179,4513.333333,4199.487179,4443.076923,4227.692307,4240.512820,4514.358974,4211.282051,4649.743589,3994.871795,4038.461538
37,4393.333333,4394.871794,4535.897435,4267.179487,4523.589743,4200.000000,4437.948717,4226.666666,4243.589743,4526.153846,4214.358974,4656.410256,3997.948718,4052.820512
38,4390.256410,4390.769230,4537.435897,4264.615384,4522.564102,4201.025641,4435.384615,4220.512820,4237.948717,4528.717948,4210.769230,4650.256410,3997.435898,4044.615384
39,4388.205128,4387.692307,4533.333333,4257.435897,4511.282051,4195.897435,4433.846153,4218.974358,4231.794871,4517.435897,4206.666666,4643.076923,3993.333334,4032.307692
40,4385.128205,4380.512820,4525.641025,4250.769230,4506.666666,4189.743589,4432.307692,4215.384615,4228.717948,4508.717948,4201.025641,4638.461538,3984.102565,4032.820512
41,4382.564102,4375.897435,4526.153846,4246.153846,4512.820512,4194.871794,4437.435897,4210.256410,4231.282051,4511.794871,4194.871794,4637.948717,3982.051283,4038.974358
42,4385.128205,4384.102564,4531.794871,4248.717948,4515.384615,4202.051282,4440.512820,4215.384615,4232.820512,4512.820512,4200.000000,4642.564102,3991.794872,4045.641025
43,4390.256410,4393.333333,4537.435897,4258.974358,4512.820512,4201.538461,4434.358974,4217.948717,4233.333333,4514.358974,4212.307692,4649.230769,3998.974359,4049.230769
44,4395.384615,4391.282051,4538.974358,4265.641025,4515.384615,4196.410256,4431.282051,4215.897435,4238.974358,4529.743589,4215.897435,4653.333333,4001.025641,4050.256410
45,4393.333333,4381.538461,4534.871794,4259.487179,4513.846153,4194.871794,4435.897435,4221.025641,4247.692307,4536.923076,4211.794871,4651.282051,3999.487180,4046.153846
46,4381.025641,4373.846153,4529.230769,4249.743589,4505.641025,4193.333333,4435.897435,4224.102564,4242.051282,4520.512820,4207.692307,4643.076923,3991.794872,4032.307692
47,4373.333333,4368.717948,4522.051282,4247.179487,4500.512820,4186.153846,4429.230769,4221.538461,4227.179487,4510.256410,4206.666666,4638.461538,3983.076924,4027.692307
48,4375.384615,4365.641025,4521.025641,4247.179487,4501.538461,4187.179487,4431.794871,4218.974358,4221.538461,4511.794871,4203.076923,4637.435897,3981.538462,4033.846153
49,4376.923076,4367.692307,4523.589743,4244.102564,4505.641025,4194.358974,4435.897435,4212.307692,4223.589743,4500.000000,4195.384615,4636.410256,3981.025642,4031.794871
50,4380.000000,4375.384615,4520.512820,4246.153846,4509.743589,4193.333333,4434.358974,4208.717948,4229.230769,4497.435897,4199.487179,4635.384615,3979.487180,4030.256410
51,4386.153846,4380.000000,4520.512820,4254.358974,4508.205128,4191.794871,4434.871794,4212.820512,4235.897435,4512.307692,4210.256410,4636.410256,3984.615385,4043.589743
52,4385.128205,4375.897435,4530.769230,4251.794871,4507.179487,4195.384615,4439.487179,4209.743589,4237.435897,4517.948717,4204.102564,4638.461538,3992.307693,4045.641025
53,4384.615384,4372.307692,4533.846153,4248.205128,4508.717948,4197.948717,4436.923076,4204.102564,4234.871794,4516.923076,4194.358974,4640.000000,3990.256411,4036.410256
54,4388.205128,4377.948717,4529.230769,4257.948717,4508.717948,4194.871794,4426.666666,4200.512820,4228.205128,4509.230769,4195.384615,4638.461538,3978.461539,4033.333333
55,4387.692307,4383.589743,4529.743589,4262.051282,4506.666666,4188.205128,4420.000000,4193.333333,4216.923076,4497.948717,4197.948717,4637.948717,3974.358975,4033.846153
56,4386.153846,4378.461538,4529.743589,4258.461538,4504.615384,4187.179487,4420.512820,4190.769230,4211.794871,4503.589743,4201.538461,4641.025641,3984.615385,4038.461538
57,4384.615384,4374.871794,4529.743589,4262.564102,4506.153846,4196.410256,4433.333333,4198.974358,4220.000000,4514.358974,4208.717948,4645.128205,3990.256411,4039.487179
58,4379.487179,4380.512820,4530.256410,4265.128205,4512.307692,4200.000000,4446.153846,4209.743589,4228.717948,4511.282051,4206.666666,4644.102564,3982.564103,4030.769230
59,4383.589743,4382.051282,4532.820512,4261.538461,4514.358974,4196.923076,4445.128205,4215.384615,4234.358974,4510.769230,4202.051282,4643.076923,3978.461539,4035.384615
60,4388.717948,4373.846153,4532.820512,4258.974358,4509.230769,4201.025641,4441.025641,4210.256410,4231.282051,4507.179487,4204.615384,4642.051282,3982.564103,4047.179487
61,4379.487179,4373.333333,4530.769230,4259.487179,4510.256410,4202.051282,4441.025641,4203.589743,4221.025641,4494.358974,4201.025641,4638.974358,3976.410257,4034.358974
62,4369.743589,4375.897435,4526.153846,4257.948717,4512.820512,4198.974358,4441.538461,4208.205128,4223.589743,4500.000000,4190.769230,4636.410256,3966.153847,4018.461538
63,4371.794871,4368.717948,4521.538461,4251.794871,4511.794871,4201.025641,4441.538461,4214.358974,4234.358974,4515.897435,4184.102564,4629.230769,3967.692308,4025.641025
64,4373.846153,4365.641025,4522.564102,4249.743589,4511.794871,4203.589743,4443.076923,4212.307692,4231.794871,4513.846153,4187.692307,4624.102564,3970.769231,4031.794871
65,4376.410256,4374.871794,4525.128205,4259.487179,4511.794871,4204.102564,4442.051282,4207.179487,4223.076923,4507.692307,4198.974358,4631.282051,3974.358975,4026.666666
66,4383.589743,4384.615384,4527.179487,4267.692307,4513.333333,4201.538461,4438.461538,4206.666666,4228.717948,4512.307692,4209.230769,4643.589743,3986.666667,4029.743589
67,4387.179487,4388.205128,4530.769230,4268.205128,4517.435897,4200.000000,4436.923076,4212.820512,4245.128205,4515.897435,4211.794871,4647.692307,3994.358975,4042.564102
68,4385.641025,4383.076923,4533.846153,4268.205128,4515.897435,4203.589743,4441.538461,4221.025641,4247.179487,4517.435897,4209.230769,4646.153846,3986.153847,4043.076923
69,4380.000000,4371.282051,4529.743589,4264.615384,4506.153846,4202.564102,4443.076923,4222.564102,4237.948717,4520.512820,4209.230769,4642.051282,3978.974359,4032.307692
70,4375.384615,4364.615384,4521.538461,4258.974358,4505.128205,4200.000000,4435.897435,4223.076923,4237.948717,4520.512820,4211.282051,4636.410256,3987.179488,4030.769230
71,4374.871794,4371.794871,4523.589743,4261.538461,4512.307692,4204.102564,4430.769230,4226.153846,4244.615384,4518.974358,4205.128205,4636.923076,3991.282052,4040.000000
72,4376.923076,4375.384615,4525.641025,4264.102564,4513.846153,4202.051282,4430.769230,4222.051282,4242.564102,4514.358974,4197.435897,4637.435897,3982.051283,4039.487179
73,4378.974358,4369.743589,4521.538461,4255.384615,4509.743589,4194.871794,4428.717948,4216.410256,4234.871794,4503.589743,4201.025641,4633.846153,3975.384616,4026.666666
74,4373.846153,4368.205128,4521.538461,4250.769230,4505.128205,4196.410256,4429.230769,4216.410256,4229.743589,4500.000000,4203.076923,4630.769230,3972.820513,4017.948717
75,4367.692307,4371.282051,4521.538461,4258.461538,4506.153846,4202.564102,4434.358974,4212.307692,4225.128205,4502.564102,4190.769230,4627.179487,3969.743590,4020.000000
76,4372.820512,4372.820512,4522.564102,4262.564102,4507.692307,4201.025641,4436.410256,4206.666666,4224.615384,4503.589743,4186.666666,4626.666666,3968.205129,4027.179487
77,4378.974358,4371.794871,4525.641025,4260.512820,4508.205128,4197.948717,4431.282051,4208.205128,4227.692307,4508.205128,4198.461538,4633.333333,3971.282052,4028.717948
78,4374.358974,4368.717948,4525.641025,4264.102564,4509.743589,4200.512820,4425.128205,4208.205128,4225.128205,4506.153846,4204.615384,4636.410256,3976.410257,4025.641025
79,4370.769230,4368.717948,4523.076923,4264.615384,4506.666666,4201.025641,4420.000000,4203.589743,4222.564102,4500.000000,4203.589743,4633.846153,3976.410257,4030.769230
80,4377.948717,4375.384615,4524.615384,4259.487179,4505.128205,4197.435897,4423.076923,4211.794871,4233.846153,4511.794871,4206.666666,4636.410256,3974.358975,4037.948717
81,4381.538461,4378.461538,4525.128205,4255.384615,4507.692307,4197.435897,4429.743589,4221.025641,4241.538461,4521.025641,4203.589743,4637.435897,3975.384616,4034.871794
82,4370.769230,4370.256410,4518.461538,4248.205128,4506.666666,4197.948717,4428.205128,4215.384615,4228.717948,4502.564102,4192.307692,4627.692307,3969.230770,4016.410256
83,4360.512820,4366.666666,4515.897435,4247.179487,4505.128205,4198.974358,4425.641025,4206.666666,4222.051282,4493.333333,4187.179487,4620.000000,3960.000000,4004.615384
84,4364.102564,4374.871794,4515.897435,4255.384615,4508.717948,4201.025641,4429.230769,4206.153846,4224.615384,4501.025641,4188.205128,4622.564102,3968.717949,4014.871794
85,4369.743589,4378.974358,4512.820512,4255.384615,4505.128205,4195.384615,4424.102564,4202.564102,4218.461538,4493.846153,4180.512820,4622.051282,3972.307693,4024.102564
86,4363.076923,4375.897435,4511.794871,4247.692307,4495.897435,4188.717948,4418.974358,4198.461538,4218.974358,4491.282051,4175.384615,4617.948717,3962.564103,4018.974358
87,4361.538461,4383.589743,4518.461538,4248.205128,4502.051282,4196.410256,4426.666666,4207.179487,4227.692307,4509.230769,4183.589743,4621.025641,3968.717949,4017.435897
88,4376.923076,4396.410256,4523.589743,4255.384615,4511.282051,4204.615384,4430.769230,4211.794871,4227.692307,4516.410256,4191.794871,4629.743589,3981.025642,4025.128205
89,4382.564102,4395.897435,4521.025641,4259.487179,4507.179487,4202.051282,4424.102564,4205.128205,4224.615384,4509.230769,4192.820512,4634.358974,3981.025642,4029.230769
90,4379.487179,4394.358974,4525.128205,4259.487179,4504.102564,4196.410256,4417.435897,4204.615384,4225.641025,4509.743589,4193.333333,4635.384615,3984.615385,4031.794871
91,4383.076923,4400.512820,4532.307692,4262.051282,4509.230769,4195.384615,4414.358974,4211.794871,4227.179487,4514.871794,4197.435897,4636.923076,3989.230770,4036.410256
92,4383.589743,4402.564102,4528.717948,4262.564102,4508.717948,4198.974358,4418.974358,4213.846153,4227.179487,4515.384615,4200.000000,4637.948717,3982.051283,4036.923076
93,4378.974358,4400.000000,4524.615384,4255.384615,4505.128205,4197.435897,4425.128205,4211.794871,4224.102564,4515.384615,4196.923076,4634.358974,3977.435898,4028.717948
94,4378.974358,4398.974358,4527.179487,4252.307692,4503.589743,4190.256410,4422.564102,4212.307692,4223.076923,4506.666666,4187.692307,4628.717948,3978.974359,4026.666666
95,4377.435897,4393.333333,4528.717948,4257.435897,4502.564102,4191.282051,4421.538461,4214.358974,4228.205128,4500.000000,4181.538461,4629.230769,3977.435898,4033.333333
96,4374.871794,4391.282051,4526.153846,4260.512820,4505.641025,4198.461538,4426.666666,4216.923076,4223.076923,4507.179487,4182.564102,4630.256410,3978.974359,4032.307692
97,4383.589743,4401.538461,4526.666666,4263.589743,4509.230769,4199.487179,4429.743589,4220.512820,4215.897435,4514.871794,4187.179487,4630.256410,3981.025642,4027.692307
98,4394.358974,4408.205128,4533.333333,4269.743589,4507.179487,4200.512820,4430.256410,4225.641025,4230.256410,4516.923076,4198.461538,4637.435897,3984.102565,4036.923076
99,4392.307692,4404.102564,4535.897435,4267.179487,4509.230769,4202.564102,4425.641025,4223.589743,4237.948717,4521.025641,4206.666666,4642.564102,3991.282052,4046.153846
100,4387.692307,4403.076923,4531.794871,4260.512820,4512.820512,4199.487179,4419.487179,4213.846153,4226.666666,4519.487179,4197.435897,4640.000000,3994.871795,4039.487179
101,4388.717948,4408.717948,4532.307692,4262.051282,4511.282051,4199.487179,4423.589743,4213.846153,4228.205128,4514.358974,4192.307692,4641.025641,3992.820513,4036.923076
102,4389.743589,4410.256410,4541.025641,4266.666666,4511.794871,4206.153846,4431.794871,4222.564102,4239.487179,4515.897435,4201.538461,4642.564102,3990.256411,4041.025641
103,4389.743589,4410.256410,4540.000000,4269.230769,4512.820512,4208.717948,4429.743589,4225.641025,4237.948717,4522.051282,4207.692307,4641.025641,3989.743590,4042.051282
104,4388.205128,4410.256410,4535.384615,4267.179487,4509.743589,4202.564102,4428.717948,4227.179487,4235.384615,4529.230769,4204.615384,4645.641025,3990.256411,4040.512820
105,4385.128205,4404.615384,4538.461538,4263.589743,4509.743589,4197.435897,4437.435897,4229.230769,4239.487179,4535.384615,4199.487179,4645.641025,3989.743590,4037.435897
106,4384.102564,4398.974358,4537.948717,4262.564102,4511.794871,4201.025641,4439.487179,4225.128205,4230.769230,4532.307692,4188.717948,4638.461538,3989.743590,4042.051282
107,4389.230769,4401.538461,4534.871794,4265.128205,4513.333333,4203.076923,4429.743589,4221.025641,4224.615384,4534.871794,4193.846153,4640.512820,3993.333334,4054.358974
108,4393.333333,4407.692307,4542.051282,4267.179487,4511.794871,4198.974358,4424.102564,4228.205128,4235.897435,4545.128205,4213.846153,4650.256410,3996.923077,4055.384615
109,4392.820512,4411.282051,4547.179487,4266.666666,4511.282051,4201.025641,4428.205128,4237.435897,4244.102564,4546.666666,4214.871794,4650.769230,3993.846154,4043.589743
110,4393.333333,4410.769230,4543.076923,4266.666666,4513.333333,4207.179487,4428.717948,4232.307692,4240.512820,4541.025641,4201.025641,4648.205128,3994.358975,4041.025641
111,4395.384615,4409.230769,4546.153846,4267.692307,4514.871794,4207.692307,4427.692307,4220.512820,4235.384615,4539.487179,4203.076923,4650.769230,4003.589743,4049.230769
112,4396.410256,4411.282051,4551.282051,4269.743589,4517.948717,4207.179487,4430.256410,4223.076923,4234.358974,4543.076923,4212.820512,4652.307692,4007.692307,4054.871794
113,4393.846153,4409.743589,4546.153846,4267.692307,4515.897435,4204.102564,4425.128205,4227.692307,4232.307692,4544.615384,4208.717948,4651.282051,3996.923077,4051.282051
114,4396.410256,4406.153846,4545.128205,4265.641025,4510.769230,4200.000000,4421.025641,4225.641025,4235.384615,4543.589743,4206.153846,4653.846153,3995.384616,4046.666666
115,4405.641025,4408.205128,4555.897435,4271.282051,4511.282051,4204.615384,4427.179487,4231.282051,4246.666666,4548.205128,4211.282051,4662.564102,4008.205128,4051.794871
116,4404.102564,4406.153846,4557.948717,4271.794871,4513.846153,4204.615384,4432.307692,4234.871794,4248.205128,4554.871794,4208.717948,4665.128205,4006.153846,4057.948717
117,4393.333333,4400.512820,4547.692307,4262.564102,4505.641025,4193.846153,4428.717948,4226.153846,4234.358974,4546.666666,4204.102564,4656.410256,3995.897436,4052.820512
118,4391.794871,4402.051282,4544.615384,4263.076923,4502.051282,4192.820512,4424.102564,4221.025641,4225.128205,4533.333333,4207.692307,4649.230769,3995.897436,4046.153846
119,4395.384615,4403.589743,4547.179487,4270.256410,4509.743589,4201.538461,4427.179487,4221.538461,4228.717948,4535.897435,4209.230769,4649.743589,3994.358975,4045.641025
120,4392.820512,4401.025641,4545.128205,4264.102564,4509.230769,4202.051282,4426.666666,4215.897435,4229.743589,4536.410256,4198.461538,4651.282051,3986.666667,4043.589743
121,4391.794871,4399.487179,4538.974358,4259.487179,4506.153846,4196.923076,4423.589743,4215.384615,4229.230769,4527.692307,4197.435897,4649.230769,3987.692308,4046.153846
122,4396.410256,4402.051282,4536.410256,4267.692307,4507.179487,4193.846153,4425.641025,4217.435897,4228.717948,4529.230769,4205.128205,4648.717948,3991.282052,4047.179487
123,4399.487179,4407.179487,4542.564102,4273.333333,4506.666666,4196.410256,4428.205128,4214.358974,4226.666666,4536.410256,4201.025641,4649.743589,3989.743590,4043.076923
124,4398.461538,4408.717948,4551.794871,4273.333333,4508.205128,4202.051282,4428.205128,4216.410256,4232.307692,4534.871794,4198.461538,4650.769230,3992.307693,4047.692307
125,4402.051282,4407.179487,4552.307692,4277.948717,4510.256410,4203.589743,4430.256410,4225.128205,4234.358974,4528.717948,4205.641025,4652.307692,3993.846154,4055.897435
126,4404.615384,4406.153846,4550.256410,4279.487179,4510.769230,4200.000000,4432.307692,4231.282051,4228.205128,4525.128205,4205.128205,4652.307692,3991.794872,4054.358974
127,4399.487179,4401.538461,4548.717948,4268.717948,4508.205128,4194.358974,4425.641025,4225.128205,4229.743589,4526.666666,4197.435897,4646.153846,3989.743590,4048.717948
128,4389.743589,4393.846153,4543.589743,4259.487179,4504.102564,4190.769230,4419.487179,4215.897435,4233.846153,4529.230769,4199.487179,4642.051282,3991.794872,4045.128205
129,4385.641025,4394.358974,4539.487179,4262.051282,4498.461538,4188.717948,4417.435897,4213.846153,4226.153846,4527.692307,4200.512820,4640.512820,3992.307693,4043.076923
130,4388.205128,4401.538461,4542.051282,4267.692307,4498.461538,4189.743589,4420.512820,4213.846153,4220.000000,4521.538461,4191.794871,4638.974358,3987.692308,4046.153846
131,4387.179487,4402.051282,4542.051282,4264.615384,4502.564102,4190.256410,4422.051282,4212.307692,4221.538461,4515.384615,4189.743589,4641.538461,3987.179488,4047.179487
132,4383.076923,4391.794871,4537.435897,4262.564102,4501.025641,4189.230769,4415.897435,4212.820512,4224.102564,4510.769230,4194.358974,4644.615384,3988.205129,4038.461538
133,4386.666666,4390.256410,4539.487179,4270.256410,4501.025641,4192.820512,4417.435897,4214.358974,4228.717948,4514.871794,4201.538461,4646.666666,3991.794872,4042.564102
134,4399.487179,4410.256410,4549.743589,4278.974358,4509.230769,4201.025641,4427.692307,4217.435897,4235.384615,4528.205128,4215.384615,4653.333333,4000.000000,4065.128205
135,4406.666666,4421.025641,4553.846153,4280.000000,4513.333333,4203.076923,4424.102564,4218.974358,4241.025641,4538.461538,4222.564102,4657.948717,4007.692307,4075.384615
136,4402.564102,4407.692307,4547.692307,4271.794871,4508.205128,4197.948717,4415.897435,4215.384615,4240.512820,4534.871794,4211.794871,4653.333333,4009.230769,4062.564102
137,4399.487179,4401.025641,4545.641025,4269.230769,4509.230769,4199.487179,4424.102564,4215.897435,4237.435897,4528.205128,4207.692307,4649.230769,4006.153846,4052.307692
138,4396.923076,4404.102564,4548.205128,4274.871794,4513.846153,4204.102564,4431.794871,4219.487179,4239.487179,4531.282051,4211.282051,4650.256410,4000.512820,4058.974358
139,4388.717948,4395.384615,4541.538461,4270.769230,4509.230769,4198.461538,4428.717948,4217.435897,4241.025641,4533.846153,4199.487179,4646.153846,3994.871795,4062.051282
140,4381.025641,4385.641025,4534.871794,4260.512820,4506.153846,4193.846153,4428.205128,4214.358974,4234.358974,4526.666666,4192.820512,4641.025641,3995.897436,4050.256410
141,4378.974358,4384.102564,4535.897435,4260.000000,4505.641025,4192.820512,4427.179487,4214.871794,4227.179487,4518.461538,4206.666666,4640.512820,3997.435898,4040.000000
142,4381.025641,4383.076923,4536.923076,4263.076923,4498.974358,4188.205128,4421.538461,4214.871794,4226.666666,4514.871794,4211.282051,4643.589743,3994.358975,4046.153846
143,4387.179487,4390.769230,4538.461538,4263.076923,4498.461538,4190.256410,4425.641025,4217.435897,4228.717948,4516.923076,4203.076923,4644.102564,3989.743590,4055.384615
144,4389.743589,4399.487179,4538.974358,4266.666666,4510.256410,4194.871794,4428.717948,4213.333333,4225.128205,4517.948717,4202.051282,4640.512820,3989.743590,4048.717948
145,4387.179487,4395.384615,4536.923076,4274.358974,4512.820512,4193.333333,4415.897435,4204.615384,4221.538461,4516.923076,4198.974358,4639.487179,3994.358975,4041.538461
146,4388.717948,4395.897435,4535.897435,4276.923076,4505.128205,4191.282051,4410.769230,4205.641025,4225.128205,4515.384615,4194.358974,4640.512820,3995.897436,4048.717948
147,4394.871794,4404.102564,4537.948717,4273.846153,4505.641025,4192.820512,4423.589743,4211.282051,4225.641025,4510.769230,4202.564102,4641.538461,3991.794872,4057.435897
148,4391.282051,4398.974358,4540.000000,4267.692307,4508.205128,4195.384615,4430.769230,4214.871794,4224.102564,4506.666666,4202.564102,4641.538461,3987.692308,4056.923076
149,4382.564102,4386.666666,4537.948717,4261.025641,4505.128205,4194.358974,4427.179487,4212.307692,4226.666666,4510.769230,4192.307692,4640.512820,3989.743590,4049.743589
150,4385.641025,4390.256410,4536.410256,4262.564102,4504.615384,4196.410256,4430.769230,4210.769230,4225.641025,4514.871794,4199.487179,4642.564102,3994.871795,4042.051282
151,4393.846153,4399.487179,4542.051282,4271.282051,4506.666666,4198.461538,4434.871794,4213.846153,4222.051282,4513.333333,4213.846153,4648.205128,3995.384616,4048.205128
152,4391.794871,4393.333333,4543.076923,4274.358974,4506.153846,4192.820512,4428.205128,4211.282051,4223.076923,4513.333333,4209.743589,4648.717948,3991.282052,4057.948717
153,4389.230769,4386.666666,4537.435897,4270.256410,4505.128205,4189.230769,4427.179487,4208.717948,4227.179487,4511.282051,4204.615384,4643.589743,3991.794872,4057.435897
154,4390.256410,4390.256410,4540.512820,4269.743589,4503.076923,4195.384615,4432.820512,4213.333333,4231.282051,4503.076923,4204.102564,4647.692307,3994.358975,4055.384615
155,4381.538461,4385.128205,4538.461538,4267.179487,4496.410256,4191.282051,4428.205128,4204.102564,4218.461538,4493.333333,4184.615384,4645.128205,3983.076924,4047.692307
156,4378.974358,4377.948717,4528.717948,4260.000000,4495.897435,4181.538461,4418.974358,4184.102564,4196.923076,4492.820512,4175.897435,4635.897435,3973.846154,4038.461538
157,4396.410256,4390.769230,4538.461538,4269.230769,4505.641025,4191.794871,4424.102564,4192.820512,4211.282051,4509.230769,4202.564102,4643.076923,3987.692308,4053.846153
158,4407.179487,4409.743589,4552.307692,4285.128205,4514.871794,4205.641025,4432.820512,4215.897435,4245.128205,4525.641025,4219.487179,4655.897435,4006.153846,4066.153846
159,4397.435897,4407.179487,4545.641025,4284.615384,4513.846153,4200.512820,4430.769230,4218.974358,4242.051282,4518.974358,4204.102564,4652.820512,4004.615384,4053.846153
160,4383.076923,4386.153846,4530.256410,4269.743589,4506.153846,4192.820512,4424.102564,4208.717948,4220.000000,4499.487179,4189.743589,4638.461538,3981.538462,4044.102564
161,4372.820512,4369.743589,4522.051282,4259.487179,4501.025641,4190.769230,4421.538461,4201.538461,4218.974358,4491.282051,4186.666666,4626.153846,3961.538462,4041.025641
162,4375.384615,4373.333333,4524.615384,4261.025641,4497.948717,4189.743589,4423.076923,4194.871794,4220.000000,4494.358974,4186.153846,4625.128205,3963.589744,4035.384615
163,4386.666666,4388.205128,4529.743589,4268.717948,4495.384615,4187.692307,4424.102564,4191.794871,4207.179487,4492.307692,4189.230769,4632.307692,3981.025642,4040.000000
164,4389.743589,4394.358974,4530.256410,4272.820512,4498.974358,4191.282051,4422.051282,4193.333333,4208.205128,4490.256410,4193.846153,4635.897435,3991.282052,4053.846153
165,4391.282051,4390.769230,4533.846153,4271.282051,4509.743589,4200.512820,4424.615384,4203.076923,4232.307692,4505.641025,4201.025641,4639.487179,3994.871795,4060.512820
166,4394.358974,4389.743589,4538.461538,4270.769230,4511.282051,4203.589743,4429.743589,4213.333333,4242.564102,4520.512820,4210.256410,4645.641025,3997.948718,4055.384615
167,4387.179487,4387.179487,4532.820512,4267.179487,4502.564102,4198.974358,4428.717948,4209.230769,4225.128205,4511.282051,4205.641025,4641.025641,3990.769231,4042.564102
168,4380.512820,4386.666666,4529.230769,4265.128205,4505.641025,4196.923076,4427.179487,4200.512820,4212.820512,4500.512820,4196.410256,4633.846153,3981.025642,4041.025641
169,4390.769230,4397.435897,4542.564102,4276.410256,4516.923076,4199.487179,4429.230769,4207.179487,4228.717948,4512.307692,4205.128205,4645.128205,3988.205129,4057.435897
170,4401.025641,4403.589743,4551.282051,4282.051282,4515.384615,4203.076923,4429.230769,4215.384615,4245.128205,4520.512820,4214.358974,4656.410256,4000.512820,4065.641025
171,4391.794871,4392.307692,4538.974358,4269.230769,4507.179487,4203.076923,4426.153846,4204.102564,4236.923076,4506.666666,4204.102564,4645.128205,3991.282052,4052.307692
172,4378.974358,4382.564102,4527.692307,4260.000000,4503.076923,4195.897435,4423.589743,4193.333333,4220.512820,4496.410256,4193.846153,4631.794871,3976.410257,4038.461538
173,4378.461538,4381.025641,4529.743589,4258.461538,4501.025641,4193.846153,4426.666666,4203.076923,4221.538461,4504.102564,4197.435897,4635.897435,3982.051283,4044.615384
174,4379.487179,4375.384615,4533.846153,4254.358974,4501.538461,4196.410256,4428.717948,4216.923076,4230.769230,4504.615384,4197.435897,4638.461538,3986.666667,4049.743589
175,4377.948717,4374.358974,4533.333333,4260.512820,4506.153846,4192.820512,4427.692307,4216.410256,4231.794871,4496.923076,4198.974358,4637.435897,3975.897436,4038.974358
176,4383.589743,4378.461538,4535.897435,4268.717948,4506.666666,4193.333333,4429.230769,4211.794871,4228.205128,4500.512820,4201.025641,4642.051282,3971.794872,4039.487179
177,4390.769230,4377.948717,4543.076923,4265.128205,4505.641025,4198.974358,4431.282051,4211.794871,4223.589743,4503.076923,4200.000000,4647.179487,3978.974359,4054.871794
178,4391.794871,4382.564102,4546.153846,4262.564102,4507.692307,4195.384615,4428.717948,4207.692307,4224.615384,4497.435897,4201.538461,4648.205128,3985.641026,4060.512820
179,4391.794871,4391.282051,4544.615384,4270.769230,4506.153846,4191.282051,4425.641025,4197.948717,4227.692307,4498.974358,4201.025641,4647.179487,3987.692308,4056.410256
180,4398.461538,4391.794871,4543.076923,4279.487179,4505.128205,4194.871794,4422.051282,4198.974358,4226.666666,4511.282051,4200.512820,4645.128205,3991.282052,4058.974358
181,4402.051282,4390.256410,4545.128205,4275.384615,4508.717948,4196.410256,4420.512820,4207.692307,4227.692307,4513.846153,4202.564102,4646.153846,3994.871795,4059.487179
182,4392.820512,4391.794871,4542.564102,4263.589743,4510.256410,4196.410256,4423.076923,4212.307692,4227.692307,4498.461538,4203.076923,4642.051282,3986.666667,4052.820512
183,4382.564102,4385.128205,4535.384615,4262.051282,4510.769230,4202.051282,4429.230769,4217.435897,4232.307692,4491.794871,4197.435897,4633.333333,3973.333334,4045.128205
184,4376.410256,4366.666666,4528.717948,4262.051282,4508.717948,4206.153846,4436.410256,4219.487179,4233.333333,4497.948717,4186.153846,4628.205128,3964.615385,4027.179487
185,4370.769230,4359.487179,4526.666666,4259.487179,4506.153846,4203.076923,4438.461538,4213.846153,4221.538461,4498.974358,4179.487179,4626.153846,3959.487180,4018.461538
186,4376.923076,4376.923076,4534.358974,4263.589743,4506.153846,4198.461538,4436.410256,4213.333333,4224.102564,4500.512820,4192.307692,4631.794871,3964.102565,4037.948717
187,4390.256410,4390.769230,4540.512820,4265.128205,4508.717948,4194.358974,4433.333333,4218.461538,4243.076923,4502.564102,4205.128205,4642.564102,3983.589744,4060.000000
188,4394.358974,4388.205128,4536.923076,4267.179487,4508.717948,4195.384615,4430.769230,4211.794871,4240.512820,4501.025641,4204.102564,4645.128205,3996.410257,4060.512820
189,4393.333333,4383.589743,4536.923076,4275.384615,4506.666666,4197.948717,4431.794871,4203.589743,4221.025641,4501.538461,4208.205128,4638.974358,3993.333334,4047.692307
190,4390.769230,4381.538461,4538.974358,4277.948717,4507.692307,4199.487179,4433.846153,4207.692307,4221.538461,4503.589743,4211.794871,4639.487179,3986.666667,4047.179487
191,4388.205128,4385.128205,4538.974358,4277.948717,4507.692307,4196.923076,4433.333333,4216.410256,4230.256410,4502.051282,4202.564102,4644.102564,3984.102565,4055.384615
192,4390.769230,4391.794871,4541.025641,4276.923076,4507.692307,4196.923076,4431.794871,4222.564102,4232.820512,4499.487179,4196.923076,4643.589743,3984.102565,4053.333333
193,4389.743589,4390.769230,4543.589743,4266.153846,4507.692307,4200.512820,4429.230769,4225.128205,4237.435897,4498.461538,4198.461538,4640.512820,3980.000000,4041.025641
194,4387.692307,4390.256410,4542.564102,4265.641025,4507.179487,4201.025641,4428.205128,4221.025641,4235.384615,4502.051282,4199.487179,4643.589743,3975.897436,4045.641025
195,4392.307692,4401.025641,4541.538461,4280.512820,4507.692307,4199.487179,4435.897435,4214.358974,4226.666666,4505.641025,4197.435897,4649.743589,3981.025642,4060.512820
196,4394.358974,4407.692307,4537.948717,4276.923076,4508.717948,4201.025641,4439.487179,4210.256410,4223.076923,4496.923076,4191.282051,4644.615384,3980.000000,4056.923076
197,4390.769230,4406.153846,4534.358974,4264.102564,4507.692307,4204.102564,4434.871794,4210.256410,4227.692307,4493.846153,4188.717948,4636.923076,3969.743590,4045.641025
198,4389.230769,4405.128205,4537.948717,4267.692307,4506.153846,4204.615384,4433.333333,4216.923076,4233.333333,4502.564102,4191.794871,4636.410256,3970.256411,4040.000000
199,4388.205128,4403.589743,4536.923076,4266.666666,4507.692307,4200.512820,4429.743589,4219.487179,4233.846153,4496.410256,4191.794871,4636.923076,3981.025642,4041.538461
200,4391.282051,4405.641025,4537.435897,4259.487179,4507.179487,4198.461538,4428.205128,4215.384615,4232.820512,4493.846153,4194.871794,4640.512820,3989.743590,4052.307692
201,4398.461538,4413.846153,4545.128205,4270.256410,4507.692307,4201.538461,4438.974358,4220.000000,4238.974358,4510.256410,4203.589743,4649.743589,3997.948718,4061.025641
202,4401.538461,4420.512820,4546.153846,4283.589743,4514.358974,4206.153846,4446.666666,4230.769230,4246.153846,4515.384615,4207.692307,4652.307692,3999.487180,4055.897435
203,4398.461538,4422.564102,4545.128205,4281.538461,4515.897435,4206.153846,4439.487179,4228.205128,4247.179487,4508.717948,4206.153846,4647.692307,3995.897436,4051.282051
204,4397.948717,4424.615384,4547.179487,4279.487179,4515.897435,4206.153846,4431.794871,4224.615384,4245.128205,4514.358974,4201.538461,4647.179487,3996.410257,4058.974358
205,4402.564102,4424.102564,4547.179487,4283.076923,4515.897435,4206.153846,4428.205128,4227.179487,4240.000000,4514.871794,4198.974358,4648.205128,3991.794872,4068.205128
206,4404.615384,4420.000000,4546.153846,4282.564102,4512.307692,4203.589743,4429.230769,4224.615384,4233.333333,4501.538461,4204.102564,4649.230769,3981.538462,4068.717948
207,4401.538461,4419.487179,4547.179487,4277.948717,4514.358974,4205.128205,4435.897435,4221.538461,4233.333333,4496.923076,4204.102564,4651.794871,3981.538462,4058.461538
208,4396.923076,4417.948717,4548.205128,4279.487179,4514.871794,4206.153846,4443.076923,4222.051282,4234.358974,4500.512820,4197.948717,4650.769230,3988.205129,4051.794871
209,4396.410256,4412.307692,4547.179487,4282.051282,4511.282051,4205.128205,4444.102564,4226.153846,4233.333333,4502.051282,4202.564102,4649.230769,3991.282052,4056.410256
210,4400.000000,4411.794871,4548.205128,4281.025641,4510.256410,4203.589743,4441.025641,4228.205128,4232.307692,4501.025641,4210.769230,4649.743589,3992.820513,4060.512820
211,4405.128205,4417.948717,4550.256410,4280.512820,4513.333333,4206.153846,4442.051282,4227.179487,4236.410256,4501.538461,4208.717948,4651.794871,3996.923077,4058.461538
212,4402.564102,4418.974358,4546.666666,4281.538461,4516.410256,4208.205128,4444.102564,4223.589743,4242.051282,4502.051282,4205.641025,4651.282051,3995.384616,4052.307692
213,4395.897435,4414.358974,4540.512820,4280.512820,4515.384615,4205.641025,4437.948717,4220.000000,4237.948717,4503.076923,4204.615384,4648.717948,3988.205129,4051.794871
214,4398.461538,4414.358974,4543.076923,4278.974358,4512.820512,4204.102564,4431.282051,4225.128205,4229.743589,4509.743589,4205.128205,4648.205128,3987.179488,4059.487179
215,4401.025641,4415.897435,4546.153846,4280.000000,4511.794871,4204.102564,4429.230769,4228.205128,4233.846153,4511.282051,4203.589743,4647.692307,3992.307693,4066.153846
216,4396.923076,4414.871794,4540.512820,4281.025641,4511.282051,4204.102564,4427.692307,4224.102564,4243.076923,4505.128205,4194.358974,4645.641025,3989.230770,4059.487179
217,4394.358974,4415.897435,4538.461538,4280.512820,4507.179487,4201.025641,4426.666666,4218.974358,4238.461538,4502.051282,4195.897435,4644.102564,3983.589744,4047.179487
218,4395.897435,4421.025641,4545.128205,4281.025641,4505.128205,4197.435897,4426.666666,4218.461538,4227.179487,4501.538461,4209.230769,4648.205128,3989.230770,4047.179487
219,4396.410256,4416.410256,4547.179487,4278.974358,4504.615384,4194.358974,4426.666666,4218.974358,4226.153846,4496.923076,4212.820512,4651.282051,3995.897436,4057.948717
220,4398.461538,4403.589743,4545.641025,4276.923076,4501.538461,4195.384615,4434.871794,4222.051282,4232.307692,4497.948717,4208.717948,4653.333333,3995.897436,4064.102564
221,4402.051282,4403.589743,4549.230769,4277.948717,4504.615384,4202.051282,4446.153846,4234.871794,4241.025641,4509.230769,4209.230769,4656.923076,3993.846154,4057.435897
222,4397.948717,4409.743589,4550.256410,4281.025641,4513.333333,4201.538461,4447.692307,4236.923076,4243.589743,4512.307692,4209.743589,4657.435897,3988.717949,4051.282051
223,4393.333333,4410.769230,4547.692307,4280.512820,4514.871794,4198.461538,4442.051282,4229.230769,4236.410256,4500.000000,4210.256410,4652.307692,3985.641026,4055.384615
224,4396.410256,4411.282051,4545.128205,4277.948717,4511.794871,4200.512820,4434.358974,4227.692307,4232.307692,4491.282051,4205.641025,4645.128205,3987.692308,4060.512820
225,4401.538461,4414.358974,4543.076923,4283.589743,4510.256410,4200.000000,4432.307692,4229.743589,4241.538461,4505.641025,4193.846153,4643.589743,3990.256411,4056.410256
226,4406.153846,4415.384615,4543.589743,4287.692307,4510.769230,4198.461538,4435.897435,4230.769230,4249.743589,4524.102564,4195.897435,4650.769230,3992.820513,4057.948717
227,4410.769230,4420.000000,4551.282051,4288.717948,4515.384615,4206.666666,4439.487179,4231.794871,4249.743589,4523.076923,4213.846153,4660.512820,3999.487180,4072.307692
228,4412.820512,4427.692307,4557.948717,4288.717948,4516.923076,4211.794871,4438.974358,4235.384615,4253.333333,4517.948717,4225.128205,4667.179487,4005.128205,4082.051282
229,4411.282051,4420.512820,4554.358974,4286.666666,4513.333333,4206.153846,4434.358974,4237.435897,4254.871794,4518.461538,4224.102564,4669.230769,4002.051282,4072.820512
230,4407.179487,4406.153846,4547.179487,4283.076923,4514.358974,4204.615384,4427.692307,4234.358974,4244.102564,4509.230769,4216.410256,4667.692307,3998.974359,4059.487179
231,4400.512820,4404.102564,4545.128205,4280.512820,4515.384615,4206.666666,4425.128205,4227.179487,4235.897435,4503.076923,4215.384615,4662.564102,4001.538461,4060.512820
232,4402.564102,4416.410256,4549.743589,4283.589743,4514.358974,4205.128205,4429.230769,4226.153846,4242.564102,4514.871794,4215.897435,4657.948717,4004.615384,4072.820512
233,4407.179487,4424.615384,4548.205128,4285.128205,4513.333333,4198.974358,4429.230769,4226.153846,4242.051282,4518.461538,4203.076923,4653.333333,3999.487180,4072.820512
234,4397.435897,4416.410256,4536.923076,4279.487179,4509.743589,4194.871794,4425.641025,4215.897435,4227.692307,4504.102564,4193.846153,4645.128205,3992.307693,4050.769230
235,4392.307692,4407.692307,4534.871794,4276.410256,4510.256410,4199.487179,4427.692307,4211.282051,4226.666666,4495.897435,4202.051282,4642.564102,3989.743590,4043.589743
236,4403.589743,4409.230769,4542.564102,4282.051282,4516.410256,4205.641025,4430.256410,4217.435897,4235.897435,4503.589743,4205.641025,4649.230769,3990.769231,4064.102564
237,4407.692307,4417.435897,4546.153846,4284.102564,4517.435897,4205.641025,4425.128205,4225.641025,4236.923076,4511.794871,4201.025641,4653.846153,3994.871795,4075.897435
238,4401.025641,4422.564102,4545.128205,4280.000000,4514.871794,4204.615384,4421.538461,4230.256410,4240.000000,4514.871794,4205.128205,4654.871794,3997.948718,4066.153846
239,4400.512820,4417.948717,4545.641025,4279.487179,4513.333333,4206.153846,4427.179487,4228.205128,4246.666666,4513.333333,4208.717948,4656.410256,3996.923077,4055.897435
240,4404.102564,4413.846153,4543.589743,4277.435897,4510.769230,4201.538461,4430.256410,4223.076923,4243.589743,4511.794871,4208.205128,4655.384615,3997.948718,4061.025641
241,4404.102564,4418.461538,4540.000000,4275.384615,4512.307692,4198.974358,4427.692307,4222.564102,4237.948717,4513.333333,4211.282051,4651.794871,4001.538461,4068.205128
242,4401.025641,4423.076923,4541.025641,4278.974358,4513.333333,4201.538461,4427.692307,4221.538461,4239.487179,4513.846153,4209.230769,4653.846153,3998.461539,4067.179487
243,4396.923076,4417.948717,4542.564102,4284.615384,4506.666666,4201.025641,4428.205128,4215.384615,4237.948717,4513.846153,4206.153846,4656.410256,3998.974359,4060.512820
244,4400.000000,4411.794871,4539.487179,4285.128205,4507.692307,4200.000000,4428.717948,4215.897435,4235.384615,4518.974358,4207.692307,4655.384615,4004.102564,4057.435897
245,4403.589743,4410.769230,4536.410256,4283.589743,4512.820512,4200.000000,4427.692307,4216.923076,4238.461538,4517.435897,4203.589743,4653.333333,4000.000000,4057.435897
246,4391.794871,4406.153846,4535.897435,4276.410256,4504.102564,4194.358974,4419.487179,4213.846153,4235.897435,4502.564102,4196.923076,4650.769230,3989.230770,4050.256410
247,4379.487179,4394.358974,4531.794871,4264.615384,4494.358974,4185.128205,4410.769230,4215.384615,4226.153846,4488.717948,4194.358974,4649.230769,3982.564103,4045.128205
248,4384.102564,4387.692307,4530.769230,4266.666666,4500.000000,4183.076923,4415.384615,4217.435897,4223.589743,4486.666666,4186.153846,4652.307692,3979.487180,4047.179487
249,4391.282051,4395.897435,4535.897435,4277.435897,4506.153846,4188.717948,4422.051282,4211.282051,4220.000000,4486.153846,4181.538461,4653.333333,3976.923077,4046.153846
250,4385.641025,4400.512820,4533.333333,4272.307692,4497.948717,4187.692307,4413.846153,4197.948717,4207.692307,4483.589743,4189.230769,4644.615384,3971.282052,4039.487179
251,4381.538461,4392.820512,4524.102564,4260.512820,4495.897435,4182.051282,4411.794871,4196.410256,4212.820512,4490.256410,4190.256410,4637.948717,3973.333334,4035.384615
252,4386.153846,4396.410256,4526.666666,4264.102564,4507.179487,4185.641025,4426.153846,4212.820512,4236.410256,4503.076923,4191.282051,4642.051282,3990.769231,4042.564102
253,4385.641025,4405.641025,4536.923076,4271.794871,4509.230769,4194.871794,4431.282051,4222.051282,4242.564102,4505.128205,4198.461538,4649.230769,3995.384616,4046.153846
254,4390.769230,4406.153846,4542.051282,4276.410256,4503.589743,4197.435897,4425.128205,4216.923076,4232.820512,4503.076923,4201.025641,4656.923076,3986.666667,4047.692307
255,4408.717948,4408.717948,4551.282051,4285.641025,4510.256410,4202.051282,4431.282051,4222.564102,4242.051282,4514.358974,4208.717948,4668.205128,3995.897436,4061.025641
256,4415.384615,4413.333333,4561.025641,4289.743589,4516.923076,4209.743589,4443.589743,4233.846153,4255.384615,4522.564102,4217.948717,4672.820512,4008.205128,4076.923076
257,4402.564102,4410.769230,4553.333333,4285.128205,4512.307692,4209.743589,4440.000000,4227.692307,4241.538461,4510.769230,4207.179487,4663.076923,3998.461539,4068.205128
258,4390.256410,4406.153846,4538.974358,4277.435897,4511.794871,4202.564102,4428.205128,4215.384615,4220.000000,4495.897435,4195.384615,4647.692307,3984.102565,4046.666666
259,4392.307692,4403.589743,4536.410256,4273.846153,4516.410256,4195.897435,4424.102564,4213.333333,4218.461538,4492.307692,4197.435897,4645.128205,3983.589744,4044.615384
