,AF3,F7,F3,FC5,T7,P7,O1,O2,P8,T8,FC6,F4,F8,AF4
0,4353.333333,4515.897435,4522.564102,4240.000000,4389.230769,3916.410257,4407.179487,4092.820512,4236.923076,4499.487179,4171.282051,4596.923076,3929.230770,4062.564102
1,4352.820512,4515.384615,4524.615384,4243.589743,4391.282051,3917.948718,4408.717948,4098.974358,4239.487179,4500.000000,4166.666666,4595.384615,3930.769231,4062.564102
2,4356.923076,4508.717948,4521.025641,4248.205128,4390.256410,3916.410257,4408.205128,4101.025641,4240.512820,4503.076923,4158.974358,4596.923076,3928.717949,4060.000000
3,4362.564102,4515.384615,4524.615384,4246.153846,4392.307692,3920.512821,4410.256410,4102.051282,4238.974358,4505.128205,4175.384615,4606.153846,3936.410257,4068.717948
4,4367.179487,4530.256410,4537.948717,4249.743589,4395.384615,3926.666667,4415.897435,4106.666666,4241.025641,4503.589743,4188.717948,4617.435897,3938.461539,4078.974358
5,4367.692307,4531.794871,4537.435897,4251.794871,4398.974358,3927.179488,4416.923076,4109.743589,4243.589743,4506.666666,4175.384615,4616.410256,3929.230770,4074.358974
6,4363.076923,4521.025641,4528.717948,4243.589743,4399.487179,3924.102565,4413.846153,4109.743589,4242.051282,4513.846153,4167.692307,4605.128205,3927.692308,4067.692307
7,4363.076923,4518.974358,4529.743589,4247.179487,4399.487179,3923.076924,4413.333333,4111.794871,4243.076923,4514.871794,4170.769230,4603.589743,3937.435898,4069.230769
8,4364.102564,4524.615384,4529.743589,4251.282051,4400.000000,3921.538462,4411.794871,4107.179487,4237.435897,4499.487179,4161.538461,4605.641025,3938.461539,4067.692307
9,4364.102564,4526.666666,4527.179487,4246.153846,4394.358974,3915.384616,4407.179487,4098.974358,4225.128205,4489.743589,4156.410256,4598.974358,3927.179488,4065.128205
10,4366.666666,4527.179487,4529.230769,4247.179487,4394.358974,3914.358975,4407.692307,4103.076923,4229.743589,4504.102564,4173.333333,4599.487179,3920.000000,4070.256410
11,4366.153846,4522.564102,4527.692307,4249.230769,4398.974358,3919.487180,4410.769230,4113.846153,4241.538461,4512.820512,4191.794871,4604.102564,3926.153847,4073.846153
12,4360.000000,4521.538461,4522.051282,4246.666666,4396.410256,3917.948718,4410.769230,4113.846153,4239.487179,4504.102564,4181.538461,4600.512820,3934.871795,4066.666666
13,4357.948717,4524.102564,4523.076923,4239.487179,4397.435897,3913.846154,4411.794871,4112.820512,4240.000000,4496.923076,4156.923076,4597.948717,3937.435898,4064.615384
14,4360.000000,4523.589743,4523.589743,4234.358974,4403.076923,3918.461539,4413.333333,4116.410256,4249.230769,4501.025641,4157.948717,4598.974358,3935.384616,4070.769230
15,4360.512820,4525.128205,4525.128205,4238.461538,4399.487179,3921.025642,4414.358974,4114.358974,4246.666666,4507.692307,4174.871794,4599.487179,3928.205129,4070.256410
16,4358.461538,4525.641025,4525.641025,4237.948717,4401.025641,3920.000000,4415.897435,4110.256410,4234.871794,4508.205128,4176.923076,4600.512820,3921.538462,4062.564102
17,4352.307692,4518.461538,4520.512820,4235.384615,4408.717948,3918.974359,4412.820512,4110.256410,4233.333333,4507.692307,4169.230769,4600.000000,3925.641026,4058.974358
18,4350.769230,4516.410256,4522.564102,4240.512820,4404.102564,3915.897436,4412.820512,4110.256410,4238.974358,4511.282051,4162.564102,4599.487179,3931.794872,4064.102564
19,4354.871794,4525.128205,4526.153846,4241.538461,4400.000000,3915.384616,4420.512820,4108.717948,4237.948717,4507.179487,4151.282051,4601.025641,3923.589744,4065.641025
20,4352.307692,4522.051282,4520.000000,4232.820512,4404.102564,3920.000000,4421.025641,4107.179487,4230.256410,4490.769230,4146.153846,4599.487179,3914.358975,4058.974358
21,4345.128205,4513.333333,4513.333333,4231.794871,4402.564102,3913.333334,4411.794871,4105.641025,4220.000000,4482.051282,4160.000000,4593.846153,3912.820513,4053.333333
22,4347.692307,4515.897435,4516.923076,4238.974358,4401.025641,3904.102565,4412.820512,4109.230769,4221.025641,4489.743589,4171.794871,4594.871794,3915.384616,4058.974358
23,4362.051282,4527.179487,4528.717948,4246.153846,4409.230769,3913.333334,4427.179487,4124.102564,4241.025641,4509.230769,4172.307692,4608.717948,3927.179488,4077.948717
24,4367.692307,4531.282051,4540.000000,4255.897435,4414.871794,3924.102565,4434.358974,4136.410256,4255.897435,4522.051282,4181.538461,4620.000000,3938.461539,4087.692307
25,4356.923076,4522.564102,4533.846153,4247.179487,4411.282051,3920.512821,4430.769230,4132.820512,4249.230769,4511.282051,4181.025641,4612.820512,3936.410257,4075.384615
26,4352.307692,4518.974358,4523.589743,4235.384615,4409.230769,3913.846154,4429.743589,4127.692307,4237.435897,4500.000000,4162.564102,4601.025641,3929.743590,4068.717948
27,4360.512820,4530.256410,4527.692307,4238.461538,4409.743589,3915.384616,4429.230769,4128.717948,4236.923076,4503.076923,4160.000000,4605.641025,3925.641026,4076.923076
28,4362.564102,4540.000000,4531.794871,4239.487179,4409.230769,3918.461539,4427.179487,4127.692307,4238.974358,4506.153846,4172.820512,4611.794871,3929.230770,4085.128205
29,4361.025641,4538.461538,4529.743589,4240.512820,4407.179487,3913.846154,4427.692307,4124.615384,4240.000000,4504.615384,4178.461538,4608.717948,3936.410257,4086.153846
30,4357.435897,4531.282051,4526.153846,4242.564102,4403.589743,3904.102565,4422.051282,4118.974358,4238.974358,4504.615384,4177.435897,4601.025641,3931.282052,4075.897435
31,4347.692307,4522.051282,4521.025641,4235.897435,4399.487179,3896.923077,4413.846153,4112.307692,4229.743589,4499.487179,4162.051282,4593.846153,3914.358975,4063.589743
32,4344.102564,4517.435897,4518.974358,4227.179487,4397.948717,3896.410257,4416.923076,4111.282051,4223.076923,4487.692307,4134.358974,4593.846153,3907.692308,4066.153846
33,4348.205128,4524.102564,4522.564102,4231.794871,4397.435897,3899.487180,4424.102564,4115.384615,4226.666666,4486.153846,4138.974358,4595.384615,3907.179488,4069.230769
34,4341.538461,4524.102564,4518.974358,4235.384615,4396.410256,3894.871795,4422.564102,4114.871794,4221.538461,4483.589743,4164.615384,4588.717948,3900.512821,4057.435897
35,4335.897435,4518.461538,4513.846153,4229.230769,4396.923076,3891.794872,4423.076923,4113.333333,4210.769230,4471.282051,4158.461538,4581.538461,3898.974359,4053.333333
36,4344.102564,4522.564102,4521.025641,4233.846153,4398.974358,3897.948718,4430.769230,4120.512820,4222.564102,4478.461538,4139.487179,4590.256410,3914.871795,4068.205128
37,4346.153846,4525.128205,4523.076923,4235.384615,4403.589743,3901.025642,4433.846153,4127.179487,4238.974358,4501.538461,4141.538461,4599.487179,3925.641026,4071.282051
38,4338.974358,4518.461538,4513.333333,4223.076923,4407.692307,3898.461539,4431.282051,4127.692307,4238.461538,4502.051282,4159.487179,4593.333333,3911.282052,4061.025641
39,4338.461538,4518.461538,4512.307692,4218.461538,4405.128205,3894.871795,4430.256410,4129.743589,4234.358974,4487.692307,4160.000000,4591.794871,3900.512821,4061.025641
40,4340.000000,4518.974358,4514.871794,4223.589743,4396.923076,3892.820513,4427.179487,4131.794871,4229.743589,4481.538461,4137.948717,4595.897435,3906.153847,4067.179487
41,4341.538461,4517.435897,4514.871794,4227.179487,4395.897435,3897.435898,4430.256410,4131.794871,4226.153846,4485.641025,4136.410256,4594.358974,3909.230770,4068.717948
42,4342.564102,4518.461538,4518.461538,4233.846153,4404.615384,3900.000000,4437.435897,4133.333333,4233.846153,4497.435897,4163.076923,4591.794871,3905.641026,4066.666666
43,4336.410256,4506.153846,4512.820512,4227.179487,4405.641025,3889.230770,4435.384615,4139.487179,4240.000000,4503.076923,4157.435897,4590.256410,3900.512821,4059.487179
44,4333.333333,4498.974358,4505.128205,4206.666666,4401.538461,3882.051283,4426.666666,4140.000000,4237.948717,4491.282051,4130.256410,4588.717948,3900.000000,4056.410256
45,4340.000000,4511.282051,4514.871794,4208.717948,4404.615384,3888.717949,4428.205128,4137.435897,4241.025641,4486.666666,4139.487179,4593.333333,3903.589744,4063.076923
46,4339.487179,4511.282051,4521.538461,4224.102564,4412.820512,3892.820513,4433.333333,4141.025641,4242.564102,4497.435897,4158.974358,4595.384615,3904.102565,4066.666666
47,4332.307692,4497.948717,4507.692307,4217.948717,4415.897435,3889.230770,4428.717948,4138.974358,4236.410256,4502.564102,4155.897435,4586.666666,3901.025642,4061.025641
48,4337.948717,4504.615384,4503.589743,4214.358974,4412.820512,3888.205129,4426.666666,4133.846153,4235.897435,4498.974358,4150.256410,4584.615384,3903.589744,4058.974358
49,4345.641025,4514.358974,4516.410256,4222.051282,4409.743589,3888.717949,4429.230769,4131.794871,4241.025641,4495.384615,4142.051282,4589.230769,3908.205129,4060.512820
50,4339.487179,4505.128205,4515.384615,4216.923076,4408.205128,3887.179488,4425.641025,4131.282051,4235.384615,4494.871794,4138.974358,4585.641025,3907.692308,4059.487179
51,4340.000000,4503.589743,4512.820512,4213.846153,4413.846153,3889.230770,4425.128205,4133.846153,4233.846153,4498.974358,4157.435897,4586.666666,3913.846154,4061.538461
52,4348.205128,4513.846153,4521.538461,4222.051282,4419.487179,3894.358975,4428.717948,4140.512820,4246.153846,4506.666666,4169.230769,4591.794871,3922.564103,4063.076923
53,4346.153846,4514.358974,4521.538461,4218.461538,4417.435897,3891.794872,4426.153846,4134.871794,4243.589743,4504.102564,4147.179487,4590.256410,3917.948718,4054.358974
54,4339.487179,4507.692307,4509.743589,4206.666666,4412.307692,3886.666667,4424.102564,4126.666666,4227.692307,4491.794871,4124.102564,4584.102564,3908.205129,4046.666666
55,4339.487179,4504.102564,4509.743589,4209.743589,4410.256410,3888.717949,4426.666666,4135.897435,4229.743589,4487.692307,4132.820512,4583.589743,3913.846154,4052.307692
56,4339.487179,4502.051282,4521.538461,4220.512820,4412.307692,3895.897436,4429.743589,4146.666666,4241.538461,4497.948717,4155.384615,4588.717948,3923.076924,4058.461538
57,4336.923076,4500.000000,4523.076923,4218.974358,4418.461538,3899.487180,4437.435897,4148.717948,4244.102564,4503.589743,4157.948717,4587.179487,3914.358975,4055.384615
58,4336.923076,4501.025641,4514.358974,4215.897435,4424.615384,3900.512821,4444.615384,4147.179487,4242.051282,4500.512820,4143.589743,4582.051282,3903.076924,4050.769230
59,4337.435897,4503.076923,4513.333333,4218.461538,4425.128205,3897.948718,4444.102564,4146.666666,4241.538461,4501.538461,4143.076923,4583.589743,3908.205129,4049.230769
60,4339.487179,4505.128205,4521.538461,4215.384615,4423.589743,3894.871795,4441.025641,4149.230769,4244.102564,4505.128205,4151.282051,4590.769230,3917.948718,4054.358974
61,4344.102564,4507.692307,4522.564102,4213.846153,4422.564102,3896.923077,4441.025641,4151.794871,4246.666666,4503.589743,4143.076923,4593.846153,3922.564103,4059.487179
62,4344.615384,4508.717948,4514.358974,4220.512820,4421.025641,3895.897436,4442.564102,4147.692307,4240.512820,4495.384615,4133.333333,4591.282051,3924.102565,4055.897435
63,4341.538461,4508.717948,4515.384615,4217.435897,4425.128205,3894.358975,4443.076923,4146.666666,4238.461538,4496.923076,4145.128205,4589.230769,3921.538462,4050.769230
64,4343.589743,4513.846153,4524.102564,4211.794871,4429.743589,3897.948718,4445.641025,4154.871794,4251.794871,4511.794871,4161.025641,4596.923076,3916.923077,4055.897435
65,4348.717948,4517.948717,4524.102564,4217.435897,4429.743589,3896.923077,4448.717948,4154.871794,4255.384615,4509.743589,4164.102564,4601.538461,3926.666667,4062.051282
66,4347.692307,4513.846153,4521.025641,4216.410256,4431.794871,3893.333334,4448.205128,4150.769230,4245.128205,4491.794871,4158.461538,4591.794871,3938.461539,4060.512820
67,4343.589743,4508.717948,4520.000000,4208.205128,4432.307692,3893.333334,4446.153846,4151.794871,4248.205128,4497.948717,4144.615384,4588.717948,3930.769231,4055.897435
68,4345.641025,4508.205128,4521.025641,4213.846153,4426.666666,3893.333334,4445.128205,4154.871794,4257.435897,4516.410256,4144.102564,4597.948717,3927.179488,4055.384615
69,4351.282051,4512.307692,4523.589743,4216.923076,4429.743589,3891.282052,4446.153846,4156.923076,4255.384615,4514.871794,4171.282051,4602.564102,3940.512821,4064.102564
70,4352.307692,4517.948717,4524.615384,4205.641025,4437.435897,3890.769231,4445.641025,4155.384615,4255.384615,4511.794871,4178.974358,4601.025641,3938.461539,4067.692307
71,4344.615384,4516.923076,4519.487179,4196.923076,4435.897435,3884.102565,4435.384615,4149.743589,4256.410256,4517.435897,4154.358974,4596.923076,3923.076924,4055.384615
72,4343.076923,4513.333333,4517.948717,4201.538461,4429.743589,3875.384616,4429.743589,4152.820512,4255.897435,4516.410256,4154.871794,4595.897435,3930.769231,4053.333333
73,4357.435897,4517.435897,4531.282051,4211.794871,4429.230769,3880.512821,4441.025641,4167.179487,4267.692307,4520.000000,4168.717948,4610.256410,3951.282052,4069.230769
74,4366.153846,4525.641025,4537.435897,4216.923076,4437.435897,3887.692308,4449.230769,4166.666666,4269.230769,4520.512820,4157.948717,4618.461538,3951.794872,4074.358974
75,4359.487179,4529.743589,4529.743589,4213.846153,4442.564102,3882.564103,4444.102564,4153.333333,4252.307692,4506.153846,4151.282051,4606.153846,3939.487180,4067.179487
76,4360.512820,4532.820512,4530.256410,4212.307692,4436.410256,3875.384616,4440.512820,4156.410256,4251.794871,4507.692307,4165.641025,4605.641025,3934.358975,4071.282051
77,4369.743589,4534.358974,4540.000000,4217.948717,4435.384615,3879.487180,4444.102564,4170.256410,4263.589743,4527.179487,4176.410256,4620.000000,3936.410257,4075.384615
78,4367.692307,4532.820512,4537.948717,4217.435897,4441.025641,3880.000000,4442.564102,4168.205128,4255.384615,4521.538461,4177.435897,4617.948717,3938.974359,4067.692307
79,4357.435897,4527.692307,4524.615384,4207.692307,4436.410256,3869.743590,4431.794871,4154.871794,4242.051282,4497.948717,4159.487179,4602.564102,3935.897436,4057.435897
80,4354.871794,4519.487179,4521.538461,4201.538461,4432.820512,3868.717949,4428.717948,4156.923076,4246.153846,4499.487179,4134.871794,4600.512820,3928.717949,4055.897435
81,4361.538461,4519.487179,4531.794871,4204.102564,4436.410256,3874.358975,4435.384615,4165.128205,4254.871794,4517.948717,4150.769230,4611.282051,3925.641026,4063.589743
82,4363.589743,4524.102564,4538.461538,4202.051282,4436.923076,3874.871795,4433.846153,4162.051282,4256.410256,4518.974358,4179.487179,4613.333333,3927.179488,4064.102564
83,4362.051282,4527.179487,4534.358974,4197.435897,4437.435897,3873.846154,4433.333333,4158.461538,4250.769230,4507.179487,4168.205128,4610.256410,3932.820513,4062.564102
84,4366.153846,4533.333333,4535.384615,4205.641025,4444.102564,3880.000000,4441.538461,4160.512820,4246.153846,4504.102564,4156.410256,4614.871794,3938.461539,4070.256410
85,4367.179487,4531.282051,4540.512820,4211.794871,4444.615384,3883.076924,4437.948717,4153.846153,4244.102564,4504.615384,4162.051282,4611.794871,3934.358975,4068.717948
86,4356.410256,4516.410256,4532.307692,4201.538461,4434.358974,3873.846154,4426.153846,4141.538461,4238.461538,4502.051282,4150.769230,4599.487179,3918.461539,4050.256410
87,4356.410256,4514.871794,4523.589743,4191.794871,4426.666666,3869.230770,4428.717948,4142.051282,4242.564102,4510.769230,4146.153846,4599.487179,3917.435898,4049.743589
88,4366.666666,4521.025641,4523.589743,4189.743589,4435.384615,3872.820513,4432.307692,4144.615384,4246.666666,4509.743589,4162.051282,4604.615384,3923.076924,4058.974358
89,4360.512820,4511.794871,4522.564102,4178.461538,4441.538461,3868.717949,4424.102564,4129.743589,4231.794871,4491.282051,4157.948717,4595.897435,3908.717949,4044.615384
90,4353.846153,4510.256410,4520.512820,4171.282051,4428.205128,3863.589744,4423.589743,4120.512820,4222.564102,4485.128205,4143.589743,4590.769230,3903.076924,4030.769230
91,4361.538461,4518.974358,4522.051282,4187.692307,4422.564102,3869.230770,4429.230769,4127.692307,4237.435897,4498.974358,4152.820512,4601.538461,3920.512821,4046.153846
92,4367.179487,4517.948717,4525.641025,4198.974358,4433.846153,3873.333334,4427.692307,4132.820512,4246.666666,4511.794871,4157.435897,4610.256410,3935.384616,4063.589743
93,4362.564102,4514.871794,4526.153846,4187.179487,4431.282051,3869.743590,4423.589743,4128.205128,4235.384615,4509.230769,4143.589743,4603.589743,3934.871795,4057.948717
94,4361.025641,4513.846153,4522.051282,4175.384615,4419.487179,3864.615385,4421.025641,4123.589743,4232.307692,4494.871794,4147.692307,4595.897435,3928.717949,4046.666666
95,4369.743589,4510.769230,4524.615384,4188.717948,4424.102564,3865.128206,4422.051282,4128.205128,4244.615384,4495.384615,4173.333333,4605.641025,3929.743590,4049.743589
96,4377.948717,4517.435897,4535.897435,4197.948717,4433.333333,3870.769231,4425.128205,4132.820512,4250.769230,4515.384615,4180.512820,4618.974358,3936.923077,4057.948717
97,4373.846153,4526.153846,4531.282051,4185.128205,4433.333333,3872.820513,4424.615384,4124.615384,4249.230769,4522.051282,4163.589743,4610.769230,3938.461539,4057.435897
98,4365.641025,4518.461538,4520.000000,4178.974358,4433.333333,3871.282052,4422.564102,4121.025641,4248.205128,4515.897435,4156.410256,4602.564102,3931.282052,4053.846153
99,4368.205128,4514.871794,4528.717948,4186.666666,4429.230769,3870.769231,4426.153846,4130.256410,4251.794871,4517.948717,4166.153846,4612.307692,3933.333334,4055.897435
100,4378.974358,4525.641025,4543.076923,4189.230769,4423.076923,3872.307693,4430.256410,4136.410256,4254.358974,4520.512820,4178.461538,4621.538461,3942.564103,4061.538461
101,4381.025641,4527.179487,4538.974358,4189.230769,4425.128205,3871.282052,4430.256410,4134.358974,4253.846153,4519.487179,4181.538461,4619.487179,3946.153847,4065.128205
102,4369.230769,4514.358974,4527.692307,4189.743589,4426.666666,3870.256411,4427.179487,4131.794871,4252.820512,4515.384615,4174.871794,4613.333333,3941.025642,4058.974358
103,4360.000000,4509.230769,4522.051282,4171.282051,4421.538461,3865.128206,4421.025641,4127.692307,4247.692307,4507.179487,4170.256410,4607.692307,3925.128206,4047.179487
104,4365.641025,4517.435897,4522.051282,4160.512820,4417.948717,3861.538462,4421.538461,4129.230769,4246.666666,4513.846153,4170.256410,4608.717948,3919.487180,4045.641025
105,4368.717948,4519.487179,4524.615384,4181.025641,4418.461538,3865.641026,4430.256410,4133.333333,4253.333333,4520.000000,4156.410256,4609.743589,3929.743590,4050.769230
106,4357.948717,4510.256410,4521.025641,4187.692307,4422.564102,3867.692308,4428.717948,4126.153846,4248.717948,4503.589743,4139.487179,4602.051282,3928.205129,4043.076923
107,4354.871794,4504.615384,4518.461538,4174.871794,4426.153846,3867.692308,4420.512820,4122.051282,4236.410256,4501.025641,4155.384615,4599.487179,3916.923077,4034.871794
108,4358.974358,4510.256410,4523.076923,4170.769230,4417.948717,3866.666667,4421.538461,4124.615384,4236.923076,4511.794871,4174.871794,4602.051282,3915.384616,4037.948717
109,4355.897435,4513.846153,4523.589743,4167.692307,4407.692307,3862.564103,4421.538461,4120.512820,4241.025641,4505.128205,4165.641025,4600.000000,3920.512821,4041.025641
110,4356.410256,4509.230769,4522.051282,4160.000000,4411.282051,3863.589744,4418.461538,4114.871794,4237.948717,4503.589743,4156.410256,4600.512820,3922.051283,4041.025641
111,4364.615384,4510.769230,4523.589743,4165.641025,4420.512820,3871.282052,4421.538461,4115.897435,4235.897435,4511.282051,4155.897435,4602.564102,3921.025642,4041.025641
112,4365.641025,4516.923076,4524.102564,4179.487179,4421.025641,3871.794872,4426.666666,4121.538461,4236.923076,4501.538461,4145.128205,4602.564102,3920.512821,4040.000000
113,4362.051282,4517.948717,4522.051282,4176.923076,4414.871794,3870.256411,4426.153846,4124.102564,4236.923076,4496.923076,4146.666666,4601.538461,3915.384616,4038.461538
114,4363.589743,4514.358974,4523.589743,4168.717948,4414.871794,3875.897436,4423.589743,4120.512820,4242.051282,4513.846153,4167.692307,4600.512820,3910.769231,4041.538461
115,4362.564102,4509.230769,4518.974358,4171.282051,4425.641025,3875.384616,4422.564102,4112.307692,4242.564102,4514.358974,4160.512820,4598.974358,3912.820513,4041.538461
116,4361.025641,4510.769230,4512.820512,4167.692307,4432.307692,3871.282052,4421.538461,4109.743589,4237.435897,4501.538461,4147.179487,4598.461538,3919.487180,4036.410256
117,4365.128205,4518.974358,4518.461538,4155.897435,4428.205128,3876.923077,4424.102564,4117.435897,4241.025641,4503.589743,4166.153846,4605.128205,3921.025642,4040.000000
118,4367.179487,4521.025641,4525.128205,4160.000000,4423.589743,3882.564103,4426.153846,4126.666666,4248.205128,4511.282051,4176.410256,4612.307692,3921.538462,4050.256410
119,4366.666666,4514.871794,4522.051282,4175.384615,4422.051282,3881.025642,4426.153846,4127.692307,4247.692307,4519.487179,4162.051282,4612.820512,3922.051283,4050.256410
120,4370.769230,4516.410256,4522.564102,4178.461538,4424.615384,3884.102565,4429.743589,4127.179487,4250.769230,4523.589743,4162.564102,4614.871794,3918.974359,4049.230769
121,4372.307692,4517.948717,4526.666666,4170.256410,4429.230769,3888.717949,4433.333333,4128.717948,4255.384615,4515.897435,4175.897435,4618.461538,3917.948718,4052.820512
122,4357.435897,4508.717948,4518.461538,4150.256410,4421.538461,3882.564103,4428.717948,4119.487179,4244.102564,4502.564102,4168.205128,4609.743589,3912.820513,4044.102564
123,4345.641025,4500.000000,4507.692307,4136.410256,4408.717948,3873.846154,4417.435897,4109.230769,4232.820512,4500.000000,4150.256410,4598.461538,3902.051283,4031.282051
124,4349.743589,4500.000000,4507.692307,4148.717948,4409.743589,3875.384616,4415.384615,4112.307692,4236.923076,4503.589743,4143.589743,4598.461538,3895.384616,4031.794871
125,4351.282051,4504.102564,4509.230769,4161.025641,4413.846153,3877.435898,4417.435897,4111.794871,4235.384615,4498.461538,4143.589743,4598.461538,3894.871795,4033.333333
126,4349.743589,4505.641025,4507.692307,4154.871794,4407.692307,3872.307693,4415.384615,4103.589743,4225.641025,4495.897435,4144.102564,4597.435897,3898.461539,4031.282051
127,4351.794871,4503.589743,4506.153846,4148.205128,4406.153846,3874.358975,4413.846153,4101.025641,4226.153846,4497.435897,4149.230769,4599.487179,3904.615385,4031.282051
128,4352.307692,4499.487179,4506.666666,4150.769230,4412.820512,3881.025642,4416.410256,4103.076923,4234.871794,4496.923076,4156.410256,4600.512820,3901.025642,4030.769230
129,4355.897435,4506.666666,4513.846153,4161.538461,4414.871794,3883.589744,4421.538461,4109.230769,4240.000000,4502.051282,4153.846153,4604.615384,3897.948718,4034.871794
130,4366.153846,4519.487179,4522.564102,4168.205128,4415.384615,3885.641026,4425.641025,4118.461538,4242.051282,4513.846153,4151.282051,4609.743589,3911.282052,4047.179487
131,4368.205128,4517.435897,4522.564102,4164.102564,4416.923076,3883.076924,4427.179487,4118.974358,4244.615384,4518.974358,4165.128205,4608.205128,3915.384616,4049.230769
132,4364.615384,4511.282051,4517.435897,4165.128205,4413.846153,3880.000000,4426.153846,4115.384615,4238.461538,4510.769230,4172.307692,4602.564102,3906.153847,4042.564102
133,4356.923076,4509.230769,4512.307692,4160.000000,4409.743589,3882.051283,4420.512820,4110.256410,4230.256410,4500.512820,4145.128205,4593.846153,3897.948718,4031.794871
134,4340.512820,4501.025641,4499.487179,4136.923076,4407.692307,3878.461539,4412.307692,4099.487179,4222.564102,4489.743589,4116.410256,4581.025641,3885.641026,4020.000000
135,4341.025641,4496.923076,4495.384615,4131.282051,4410.256410,3876.923077,4412.307692,4100.000000,4219.487179,4486.153846,4133.333333,4580.000000,3886.666667,4021.538461
136,4356.410256,4502.051282,4505.641025,4149.230769,4413.333333,3880.512821,4417.948717,4111.794871,4225.128205,4498.974358,4160.512820,4592.820512,3898.974359,4034.871794
137,4356.923076,4503.589743,4507.692307,4155.384615,4411.282051,3877.948718,4416.410256,4107.179487,4229.743589,4503.076923,4151.282051,4594.358974,3894.358975,4035.384615
138,4352.820512,4507.692307,4501.538461,4152.307692,4409.230769,3875.384616,4413.333333,4096.923076,4228.205128,4494.871794,4138.461538,4588.717948,3892.307693,4032.307692
139,4358.461538,4508.205128,4503.589743,4153.333333,4411.282051,3877.435898,4412.820512,4100.000000,4228.717948,4499.487179,4147.692307,4591.282051,3904.615385,4038.461538
140,4361.025641,4504.102564,4504.102564,4153.846153,4411.282051,3880.512821,4416.923076,4105.128205,4238.461538,4508.205128,4153.333333,4593.846153,3897.948718,4037.435897
141,4358.974358,4508.205128,4503.076923,4152.820512,4411.794871,3881.538462,4423.589743,4103.589743,4237.948717,4501.025641,4145.641025,4589.743589,3887.692308,4033.333333
142,4354.871794,4507.692307,4501.025641,4151.282051,4411.282051,3879.487180,4419.487179,4096.923076,4227.179487,4495.384615,4134.358974,4585.641025,3902.051283,4031.794871
143,4348.717948,4498.974358,4493.333333,4147.692307,4409.230769,3877.948718,4410.769230,4090.769230,4228.205128,4501.025641,4135.897435,4585.128205,3908.717949,4027.692307
144,4351.282051,4500.000000,4496.923076,4148.205128,4412.307692,3882.051283,4420.512820,4094.358974,4235.384615,4504.102564,4150.769230,4585.641025,3904.615385,4030.256410
145,4353.846153,4501.025641,4506.153846,4148.717948,4410.256410,3880.000000,4427.692307,4101.025641,4236.923076,4506.666666,4153.333333,4586.666666,3905.128206,4036.923076
146,4347.179487,4492.820512,4498.461538,4138.461538,4400.512820,3873.333334,4416.410256,4095.897435,4233.333333,4506.153846,4144.102564,4584.615384,3899.487180,4030.256410
147,4343.589743,4494.871794,4492.820512,4129.743589,4404.102564,3875.897436,4413.846153,4089.743589,4235.384615,4500.512820,4146.153846,4583.076923,3897.948718,4025.641025
148,4350.256410,4504.102564,4503.589743,4131.282051,4411.282051,3880.512821,4424.102564,4091.282051,4237.948717,4504.102564,4147.179487,4584.615384,3908.717949,4034.358974
149,4355.384615,4503.589743,4510.256410,4142.564102,4408.717948,3883.076924,4425.641025,4096.410256,4239.487179,4510.769230,4144.615384,4587.692307,3910.769231,4038.974358
150,4351.282051,4497.435897,4504.102564,4147.179487,4408.205128,3881.538462,4418.974358,4096.923076,4241.538461,4502.051282,4153.846153,4587.179487,3901.025642,4032.820512
151,4343.076923,4491.794871,4495.897435,4136.923076,4403.076923,3871.282052,4413.333333,4089.230769,4236.923076,4491.794871,4152.307692,4578.461538,3897.948718,4026.153846
152,4341.025641,4492.820512,4489.743589,4125.641025,4388.717948,3867.179488,4410.256410,4081.025641,4231.282051,4499.487179,4137.948717,4572.307692,3901.025642,4026.666666
153,4349.230769,4500.512820,4493.333333,4125.128205,4388.717948,3877.435898,4411.794871,4085.128205,4233.846153,4512.820512,4147.692307,4578.461538,3901.025642,4032.820512
154,4354.871794,4503.076923,4498.461538,4124.615384,4404.102564,3884.102565,4416.923076,4091.282051,4236.410256,4509.743589,4168.205128,4587.692307,3900.512821,4036.923076
155,4348.205128,4490.256410,4490.769230,4124.102564,4409.230769,3879.487180,4414.871794,4088.717948,4229.230769,4501.538461,4158.461538,4586.153846,3900.000000,4035.384615
156,4343.589743,4483.076923,4490.256410,4134.358974,4402.564102,3878.974359,4414.358974,4089.230769,4229.230769,4505.128205,4148.717948,4582.564102,3902.564103,4035.384615
157,4351.282051,4495.384615,4500.000000,4141.538461,4401.025641,3887.692308,4424.102564,4095.897435,4242.564102,4513.846153,4160.000000,4586.153846,3906.153847,4041.025641
158,4353.846153,4500.000000,4497.948717,4133.333333,4402.564102,3891.794872,4426.153846,4095.384615,4249.230769,4517.948717,4158.974358,4587.179487,3907.692308,4042.564102
159,4342.051282,4483.076923,4486.666666,4121.025641,4398.461538,3884.615385,4414.871794,4085.128205,4236.923076,4506.153846,4143.589743,4576.410256,3897.948718,4034.358974
160,4337.435897,4473.846153,4485.128205,4119.487179,4394.871794,3875.897436,4410.769230,4079.487179,4224.102564,4486.666666,4134.871794,4568.205128,3886.153847,4028.717948
161,4348.717948,4485.128205,4491.794871,4124.615384,4400.000000,3879.487180,4415.384615,4085.128205,4228.205128,4487.179487,4135.897435,4574.871794,3890.256411,4033.333333
162,4355.384615,4491.282051,4492.820512,4128.205128,4402.051282,3888.717949,4417.948717,4089.743589,4238.461538,4502.051282,4140.512820,4583.076923,3899.487180,4035.384615
163,4349.743589,4484.615384,4491.282051,4127.692307,4395.897435,3885.641026,4421.538461,4089.230769,4240.512820,4508.205128,4147.179487,4581.025641,3898.974359,4031.794871
164,4348.717948,4478.974358,4492.307692,4126.153846,4402.564102,3881.538462,4425.641025,4091.794871,4235.897435,4507.692307,4147.692307,4575.897435,3897.435898,4034.358974
165,4352.820512,4473.333333,4492.307692,4123.076923,4410.769230,3884.615385,4424.615384,4094.871794,4229.230769,4505.128205,4136.923076,4571.794871,3899.487180,4034.871794
166,4352.307692,4476.410256,4490.769230,4118.974358,4402.564102,3886.153847,4420.512820,4091.282051,4229.230769,4499.487179,4129.743589,4569.230769,3901.025642,4027.179487
167,4356.923076,4488.205128,4493.333333,4125.128205,4398.974358,3888.717949,4422.051282,4090.769230,4237.948717,4503.076923,4134.358974,4570.256410,3902.564103,4028.205128
168,4358.974358,4487.179487,4494.358974,4134.358974,4405.128205,3888.717949,4423.076923,4092.307692,4240.000000,4504.615384,4138.974358,4565.641025,3898.974359,4032.307692
169,4349.230769,4477.948717,4490.769230,4129.230769,4405.641025,3883.589744,4417.948717,4089.743589,4230.256410,4495.897435,4131.282051,4553.846153,3894.871795,4025.641025
170,4348.205128,4483.076923,4495.384615,4122.051282,4404.102564,3885.128206,4417.948717,4087.692307,4225.641025,4496.923076,4131.794871,4551.794871,3900.512821,4023.589743
171,4354.358974,4489.743589,4497.948717,4121.025641,4405.641025,3890.769231,4422.051282,4089.743589,4226.153846,4502.051282,4141.025641,4552.820512,3902.564103,4027.179487
172,4352.307692,4484.102564,4490.769230,4118.461538,4404.102564,3889.743590,4420.512820,4094.871794,4228.205128,4500.512820,4129.743589,4546.153846,3900.000000,4022.564102
173,4353.333333,4481.025641,4495.897435,4117.435897,4404.102564,3891.794872,4420.000000,4100.000000,4236.923076,4501.025641,4114.871794,4547.179487,3899.487180,4023.589743
174,4355.897435,4481.025641,4507.692307,4123.076923,4407.179487,3896.923077,4425.641025,4100.512820,4245.128205,4501.538461,4131.282051,4557.435897,3903.589744,4032.307692
175,4352.307692,4478.974358,4507.179487,4129.230769,4406.153846,3897.948718,4427.179487,4100.000000,4245.641025,4503.589743,4153.333333,4557.435897,3905.128206,4033.846153
176,4355.384615,4486.153846,4504.102564,4131.282051,4409.230769,3901.025642,4429.230769,4102.564102,4245.641025,4517.435897,4142.564102,4554.358974,3905.641026,4034.358974
177,4361.025641,4493.846153,4507.179487,4129.230769,4412.820512,3901.538462,4431.282051,4101.025641,4246.153846,4520.000000,4135.897435,4556.923076,3907.179488,4038.974358
178,4355.897435,4491.794871,4507.179487,4125.641025,4409.743589,3900.000000,4424.615384,4097.435897,4244.102564,4503.076923,4148.205128,4557.948717,3912.820513,4036.923076
179,4353.333333,4491.282051,4506.153846,4124.615384,4403.076923,3900.512821,4422.564102,4097.435897,4242.051282,4497.435897,4138.974358,4556.410256,3911.282052,4029.743589
180,4353.333333,4489.743589,4506.153846,4122.564102,4401.025641,3892.307693,4424.102564,4091.794871,4236.410256,4500.000000,4121.538461,4554.358974,3892.820513,4024.615384
181,4351.794871,4487.179487,4507.692307,4124.102564,4404.102564,3888.717949,4425.641025,4088.717948,4234.871794,4503.076923,4133.846153,4555.897435,3888.205129,4029.743589
182,4352.820512,4487.179487,4509.230769,4132.307692,4407.692307,3897.435898,4430.769230,4097.435897,4245.128205,4516.410256,4148.205128,4560.512820,3904.615385,4037.435897
183,4347.179487,4485.641025,4506.666666,4126.666666,4406.666666,3896.923077,4437.435897,4097.948717,4244.615384,4516.923076,4137.435897,4557.435897,3906.153847,4031.794871
184,4344.102564,4490.769230,4505.641025,4120.512820,4402.564102,3892.820513,4441.538461,4090.256410,4234.871794,4500.512820,4135.384615,4552.307692,3898.974359,4027.692307
185,4353.846153,4497.435897,4507.692307,4130.256410,4404.102564,3901.538462,4444.615384,4093.846153,4237.948717,4500.000000,4138.461538,4559.487179,3903.589744,4036.410256
186,4355.897435,4492.307692,4506.666666,4138.461538,4406.153846,3902.564103,4446.666666,4097.948717,4243.589743,4509.230769,4133.846153,4566.153846,3908.205129,4038.974358
187,4348.205128,4490.256410,4504.102564,4136.923076,4406.153846,3896.923077,4451.282051,4093.846153,4243.589743,4514.358974,4143.076923,4565.641025,3910.256411,4037.948717
188,4351.282051,4501.025641,4500.000000,4135.897435,4408.205128,3902.051283,4456.923076,4091.282051,4246.153846,4521.538461,4155.897435,4569.230769,3912.820513,4042.051282
189,4353.333333,4501.538461,4494.358974,4135.897435,4406.666666,3902.564103,4455.384615,4091.282051,4244.615384,4514.358974,4149.230769,4568.717948,3907.179488,4037.435897
190,4341.025641,4489.743589,4489.743589,4124.102564,4398.974358,3893.846154,4450.256410,4087.179487,4234.871794,4495.897435,4133.333333,4556.923076,3902.051283,4027.179487
191,4336.923076,4488.205128,4483.076923,4116.923076,4399.487179,3894.358975,4453.333333,4087.692307,4237.435897,4500.000000,4132.820512,4551.282051,3904.615385,4029.230769
192,4344.615384,4494.871794,4478.974358,4125.128205,4403.589743,3901.025642,4460.000000,4092.307692,4245.641025,4512.307692,4145.128205,4558.974358,3904.102565,4037.435897
193,4347.692307,4501.025641,4484.615384,4133.333333,4400.512820,3903.076924,4462.051282,4092.820512,4248.205128,4518.461538,4151.794871,4566.153846,3905.128206,4040.000000
194,4350.769230,4505.641025,4490.256410,4137.948717,4403.589743,3906.153847,4462.051282,4093.333333,4252.820512,4523.076923,4145.128205,4568.205128,3914.358975,4038.974358
195,4353.333333,4507.179487,4488.717948,4143.076923,4409.743589,3907.692308,4465.128205,4091.282051,4251.794871,4513.333333,4140.000000,4569.743589,3919.487180,4040.000000
196,4353.846153,4510.769230,4488.717948,4140.512820,4409.230769,3904.615385,4466.666666,4089.230769,4247.692307,4505.641025,4149.230769,4569.743589,3917.435898,4044.615384
197,4356.410256,4513.333333,4490.769230,4136.410256,4408.717948,3900.512821,4466.153846,4092.307692,4253.333333,4518.974358,4154.358974,4568.717948,3917.435898,4048.717948
198,4357.435897,4508.205128,4487.692307,4138.974358,4407.692307,3893.333334,4461.538461,4091.794871,4254.358974,4523.076923,4154.871794,4567.179487,3914.358975,4044.615384
199,4351.282051,4504.102564,4485.128205,4139.487179,4402.051282,3889.230770,4457.435897,4086.666666,4248.205128,4517.435897,4160.512820,4567.692307,3911.282052,4039.487179
200,4354.358974,4510.769230,4489.230769,4146.153846,4402.051282,3895.897436,4464.615384,4093.333333,4256.410256,4530.769230,4159.487179,4570.256410,3921.538462,4048.205128
201,4364.615384,4514.358974,4493.846153,4154.358974,4409.743589,3901.538462,4475.384615,4103.589743,4265.641025,4538.461538,4154.871794,4573.333333,3937.435898,4059.487179
202,4361.025641,4512.820512,4489.743589,4141.538461,4410.769230,3897.948718,4472.307692,4097.948717,4257.435897,4527.692307,4162.564102,4570.769230,3934.871795,4056.923076
203,4354.358974,4513.846153,4486.666666,4139.487179,4405.641025,3892.820513,4468.205128,4093.333333,4249.230769,4520.512820,4165.128205,4568.205128,3923.076924,4052.307692
204,4353.846153,4509.230769,4489.230769,4155.384615,4401.538461,3890.769231,4471.794871,4097.435897,4250.256410,4517.948717,4153.333333,4567.692307,3921.538462,4050.769230
205,4349.230769,4504.615384,4489.743589,4146.666666,4399.487179,3887.179488,4469.230769,4098.461538,4253.846153,4517.435897,4155.897435,4562.051282,3920.000000,4043.076923
206,4342.051282,4501.025641,4483.076923,4129.743589,4396.410256,3881.538462,4460.000000,4094.871794,4253.846153,4514.871794,4157.435897,4555.897435,3909.230770,4037.948717
207,4337.435897,4496.410256,4477.435897,4133.333333,4392.820512,3879.487180,4457.435897,4088.717948,4245.128205,4510.256410,4137.948717,4552.307692,3896.923077,4040.000000
208,4336.923076,4501.025641,4485.128205,4139.487179,4392.820512,3884.102565,4466.153846,4086.666666,4242.564102,4512.820512,4137.948717,4551.794871,3902.051283,4039.487179
209,4341.538461,4508.717948,4494.358974,4143.589743,4397.435897,3888.717949,4475.384615,4089.230769,4250.769230,4522.051282,4158.461538,4556.410256,3919.487180,4041.538461
210,4337.948717,4506.153846,4488.717948,4145.128205,4389.743589,3883.589744,4473.333333,4086.666666,4246.666666,4515.384615,4153.333333,4554.871794,3914.358975,4043.076923
211,4327.692307,4498.974358,4482.564102,4135.384615,4378.461538,3876.923077,4468.205128,4078.461538,4234.871794,4501.025641,4138.974358,4541.538461,3890.256411,4037.948717
212,4325.128205,4496.410256,4482.564102,4132.820512,4382.564102,3876.410257,4465.128205,4074.871794,4236.923076,4502.051282,4144.102564,4536.410256,3889.743590,4037.948717
213,4326.666666,4499.487179,4481.025641,4139.487179,4387.692307,3874.358975,4465.641025,4078.974358,4244.102564,4511.282051,4141.025641,4546.666666,3907.179488,4038.974358
214,4319.487179,4504.615384,4484.615384,4141.025641,4379.487179,3873.333334,4467.692307,4080.000000,4239.487179,4512.820512,4130.256410,4546.153846,3907.692308,4032.820512
215,4313.333333,4502.051282,4491.282051,4139.487179,4377.435897,3880.000000,4468.717948,4078.461538,4232.820512,4508.205128,4136.410256,4537.948717,3901.538462,4033.846153
216,4313.333333,4496.923076,4489.230769,4137.435897,4382.051282,3881.538462,4468.205128,4080.512820,4237.435897,4506.153846,4148.205128,4543.076923,3901.025642,4040.512820
217,4314.358974,4503.589743,4486.666666,4135.897435,4378.974358,3873.333334,4470.769230,4087.692307,4249.743589,4508.717948,4153.846153,4548.717948,3901.025642,4041.025641
218,4316.410256,4508.717948,4489.743589,4137.435897,4377.948717,3871.794872,4472.820512,4090.769230,4253.846153,4513.333333,4156.410256,4547.179487,3909.230770,4040.512820
219,4319.487179,4503.589743,4489.743589,4141.538461,4380.512820,3875.897436,4471.794871,4083.589743,4243.076923,4513.333333,4151.794871,4549.743589,3914.358975,4041.025641
220,4324.615384,4508.717948,4490.769230,4144.615384,4376.410256,3875.897436,4474.871794,4079.487179,4240.512820,4512.307692,4147.692307,4554.358974,3904.615385,4045.641025
221,4328.717948,4522.564102,4493.846153,4139.487179,4376.923076,3876.923077,4477.948717,4086.666666,4249.743589,4515.897435,4150.256410,4554.358974,3899.487180,4049.230769
222,4322.564102,4518.461538,4492.307692,4135.384615,4383.589743,3874.871795,4473.846153,4089.230769,4252.307692,4514.358974,4154.871794,4553.846153,3904.102565,4044.615384
223,4310.256410,4500.000000,4489.743589,4138.974358,4382.564102,3869.230770,4466.153846,4082.051282,4242.564102,4502.051282,4151.794871,4551.794871,3905.641026,4037.435897
224,4313.846153,4498.974358,4492.307692,4139.487179,4377.435897,3868.205129,4467.692307,4081.025641,4241.025641,4496.923076,4150.256410,4551.794871,3902.051283,4038.461538
225,4325.128205,4513.333333,4496.410256,4140.512820,4378.461538,3872.307693,4477.435897,4088.717948,4250.256410,4508.717948,4150.769230,4560.000000,3902.051283,4047.692307
226,4320.000000,4512.820512,4496.410256,4137.435897,4377.435897,3871.794872,4477.435897,4086.153846,4252.307692,4517.948717,4137.435897,4559.487179,3901.025642,4048.205128
227,4309.743589,4502.564102,4491.282051,4124.615384,4374.358974,3867.179488,4471.282051,4075.384615,4244.615384,4515.384615,4126.153846,4551.282051,3893.846154,4037.948717
228,4309.743589,4503.589743,4490.256410,4126.153846,4377.435897,3866.666667,4472.307692,4073.333333,4242.051282,4507.692307,4145.641025,4555.897435,3890.769231,4035.897435
229,4315.384615,4513.846153,4501.025641,4138.974358,4380.000000,3873.333334,4476.410256,4079.487179,4245.128205,4503.589743,4168.205128,4568.717948,3900.512821,4045.641025
230,4316.410256,4515.897435,4504.102564,4133.846153,4378.974358,3873.846154,4474.358974,4077.435897,4245.128205,4508.205128,4155.897435,4572.307692,3911.282052,4049.230769
231,4311.282051,4507.179487,4499.487179,4129.230769,4381.538461,3867.692308,4469.743589,4068.717948,4239.487179,4508.717948,4136.410256,4570.256410,3906.153847,4046.153846
232,4305.641025,4503.076923,4498.461538,4134.871794,4384.615384,3868.717949,4471.282051,4066.666666,4236.923076,4498.461538,4133.846153,4568.205128,3891.794872,4044.615384
233,4305.128205,4510.256410,4495.897435,4131.794871,4384.615384,3873.846154,4474.358974,4066.666666,4235.897435,4493.333333,4138.974358,4568.717948,3885.128206,4038.974358
234,4310.256410,4521.025641,4498.461538,4131.794871,4386.666666,3875.384616,4474.358974,4068.205128,4237.948717,4504.102564,4146.153846,4576.923076,3896.410257,4042.051282
235,4315.384615,4522.564102,4505.128205,4141.025641,4390.256410,3879.487180,4475.384615,4076.410256,4247.692307,4512.820512,4143.589743,4583.076923,3912.307693,4053.846153
236,4313.333333,4516.923076,4501.538461,4142.051282,4390.256410,3882.564103,4478.974358,4081.025641,4254.358974,4516.923076,4137.948717,4578.974358,3909.743590,4052.307692
237,4303.076923,4512.820512,4490.256410,4136.410256,4387.179487,3878.974359,4472.820512,4072.307692,4248.717948,4515.897435,4150.256410,4571.794871,3893.846154,4038.974358
238,4288.205128,4510.769230,4485.641025,4125.128205,4382.051282,3872.307693,4464.615384,4059.487179,4236.923076,4500.000000,4147.179487,4560.000000,3885.128206,4027.692307
239,4278.461538,4504.102564,4484.615384,4116.410256,4381.538461,3870.256411,4468.717948,4056.410256,4227.179487,4490.256410,4109.743589,4553.333333,3884.615385,4023.076923
240,4282.564102,4502.051282,4489.230769,4131.282051,4392.307692,3879.487180,4476.410256,4064.102564,4230.256410,4503.589743,4109.743589,4565.641025,3887.692308,4031.794871
241,4287.179487,4511.282051,4496.923076,4144.615384,4395.384615,3883.076924,4481.538461,4069.743589,4242.564102,4513.333333,4149.743589,4575.384615,3888.205129,4039.487179
242,4281.538461,4514.358974,4492.307692,4133.333333,4383.589743,3878.461539,4484.615384,4062.051282,4242.564102,4500.000000,4153.846153,4567.179487,3887.179488,4032.307692
243,4284.615384,4511.282051,4490.256410,4129.743589,4380.000000,3879.487180,4483.076923,4056.410256,4234.358974,4492.820512,4137.948717,4564.102564,3893.333334,4032.820512
244,4295.384615,4514.358974,4498.461538,4139.487179,4387.179487,3881.025642,4480.000000,4058.461538,4236.923076,4501.025641,4139.487179,4571.794871,3897.948718,4044.102564
245,4289.230769,4515.897435,4499.487179,4131.282051,4390.769230,3880.000000,4479.487179,4058.461538,4239.487179,4506.666666,4139.487179,4571.282051,3892.307693,4040.000000
246,4276.923076,4508.205128,4493.846153,4121.538461,4389.743589,3880.000000,4477.948717,4053.846153,4235.897435,4506.666666,4130.769230,4566.666666,3884.615385,4031.794871
247,4282.051282,4502.051282,4490.256410,4132.820512,4387.179487,3876.410257,4473.846153,4052.820512,4235.897435,4505.128205,4133.333333,4566.666666,3888.717949,4037.435897
248,4293.846153,4509.743589,4494.871794,4140.512820,4385.641025,3872.307693,4476.410256,4059.487179,4237.948717,4500.512820,4138.461538,4570.769230,3901.025642,4045.128205
249,4294.871794,4520.000000,4504.102564,4137.948717,4390.256410,3874.871795,4477.948717,4065.641025,4239.487179,4500.512820,4146.153846,4575.897435,3900.512821,4045.128205
250,4292.820512,4518.461538,4502.051282,4131.282051,4394.358974,3879.487180,4475.384615,4062.564102,4237.948717,4503.076923,4151.282051,4574.358974,3887.692308,4040.512820
251,4293.846153,4515.897435,4494.358974,4127.692307,4392.820512,3879.487180,4475.897435,4060.000000,4236.923076,4500.512820,4135.897435,4568.205128,3888.205129,4040.000000
252,4297.435897,4515.384615,4496.410256,4130.769230,4391.794871,3878.974359,4477.435897,4066.666666,4243.589743,4504.102564,4124.102564,4572.307692,3900.000000,4045.641025
253,4298.461538,4513.333333,4500.000000,4128.205128,4390.256410,3874.358975,4475.384615,4072.307692,4248.205128,4512.820512,4134.871794,4579.487179,3900.000000,4046.666666
254,4293.333333,4512.307692,4492.820512,4123.076923,4386.666666,3871.282052,4477.948717,4071.282051,4242.051282,4506.666666,4150.769230,4575.897435,3891.282052,4039.487179
255,4289.743589,4511.794871,4489.230769,4131.282051,4386.666666,3876.410257,4484.102564,4070.769230,4238.461538,4500.000000,4152.307692,4573.333333,3893.333334,4038.974358
256,4295.384615,4510.769230,4495.897435,4144.102564,4394.358974,3881.538462,4483.076923,4073.333333,4247.692307,4510.256410,4140.000000,4582.051282,3898.461539,4046.153846
257,4303.589743,4517.435897,4504.102564,4140.512820,4397.435897,3880.000000,4480.512820,4074.358974,4251.282051,4517.948717,4123.076923,4588.205128,3895.384616,4048.205128
258,4304.615384,4523.589743,4506.153846,4127.179487,4393.846153,3877.948718,4477.948717,4070.256410,4242.564102,4512.820512,4121.538461,4580.512820,3887.692308,4042.564102
259,4307.692307,4518.974358,4497.948717,4125.641025,4393.333333,3877.948718,4478.974358,4067.179487,4238.974358,4511.282051,4135.384615,4576.923076,3886.153847,4039.487179
