,AF3,F7,F3,FC5,T7,P7,O1,O2,P8,T8,FC6,F4,F8,AF4
0,4420.512820,4523.076923,4552.307692,4295.384615,4513.333333,4201.025641,4460.000000,4232.307692,4264.615384,4560.000000,4234.358974,4682.051282,4022.051282,4094.358974
1,4421.025641,4519.487179,4547.692307,4294.871794,4513.333333,4201.538461,4457.948717,4231.794871,4262.564102,4554.358974,4232.820512,4678.974358,4019.487179,4092.307692
2,4420.000000,4523.076923,4544.615384,4295.384615,4514.871794,4201.025641,4457.435897,4231.794871,4258.974358,4544.615384,4224.102564,4675.897435,4017.948717,4086.153846
3,4414.358974,4522.564102,4542.564102,4296.410256,4528.205128,4202.051282,4456.410256,4222.051282,4250.256410,4534.358974,4215.384615,4668.205128,4006.666666,4073.333333
4,4408.717948,4522.051282,4537.948717,4298.461538,4538.461538,4204.102564,4457.435897,4214.871794,4243.589743,4528.717948,4209.230769,4659.487179,3998.974359,4065.128205
5,4407.692307,4522.051282,4533.846153,4297.435897,4523.076923,4201.538461,4458.974358,4217.435897,4246.666666,4536.410256,4205.641025,4657.435897,4003.076923,4066.666666
6,4409.743589,4525.128205,4536.410256,4297.948717,4509.743589,4200.512820,4453.333333,4218.974358,4249.743589,4536.923076,4210.256410,4663.076923,4004.615384,4071.282051
7,4412.820512,4532.307692,4536.923076,4298.974358,4516.923076,4201.538461,4443.076923,4215.384615,4244.102564,4525.641025,4212.820512,4662.564102,4002.051282,4071.282051
8,4417.435897,4538.974358,4534.871794,4303.076923,4530.769230,4202.564102,4443.076923,4211.794871,4242.564102,4528.717948,4206.153846,4659.487179,4005.641025,4066.153846
9,4414.871794,4535.897435,4539.487179,4307.692307,4531.794871,4202.051282,4447.692307,4207.179487,4242.564102,4539.487179,4204.102564,4658.974358,4006.666666,4065.128205
10,4401.538461,4527.692307,4535.897435,4302.051282,4510.769230,4197.948717,4444.102564,4200.000000,4234.358974,4527.179487,4204.102564,4653.846153,3996.923077,4064.102564
11,4400.000000,4531.282051,4525.128205,4298.461538,4504.615384,4197.435897,4442.051282,4199.487179,4231.282051,4510.769230,4199.487179,4649.230769,3993.846154,4061.025641
12,4408.717948,4540.512820,4526.666666,4307.692307,4528.205128,4205.128205,4446.153846,4208.717948,4235.384615,4520.512820,4200.512820,4655.384615,3996.923077,4063.589743
13,4404.615384,4538.974358,4533.846153,4313.333333,4532.820512,4204.102564,4451.794871,4215.384615,4234.871794,4530.256410,4207.179487,4657.435897,3994.871795,4063.589743
14,4397.948717,4533.333333,4532.820512,4311.794871,4517.948717,4200.512820,4455.384615,4212.820512,4235.897435,4520.512820,4206.666666,4653.333333,3989.230770,4055.897435
15,4409.230769,4540.512820,4534.358974,4318.461538,4527.692307,4206.666666,4457.435897,4214.358974,4243.076923,4515.384615,4209.230769,4663.589743,3991.794872,4057.948717
16,4416.923076,4546.153846,4541.025641,4325.641025,4527.179487,4207.179487,4457.435897,4218.974358,4247.179487,4530.256410,4216.410256,4676.410256,4001.538461,4067.179487
17,4406.153846,4542.051282,4540.000000,4319.487179,4502.564102,4197.948717,4455.384615,4218.461538,4245.128205,4540.000000,4215.384615,4669.743589,3998.461539,4067.179487
18,4400.512820,4537.435897,4535.897435,4313.333333,4504.102564,4197.948717,4455.897435,4215.897435,4244.615384,4529.230769,4210.256410,4664.102564,3988.717949,4060.000000
19,4403.589743,4534.871794,4536.410256,4311.282051,4522.051282,4201.538461,4458.974358,4216.410256,4246.666666,4521.025641,4213.333333,4669.743589,3993.333334,4056.923076
20,4402.051282,4536.410256,4537.435897,4304.102564,4523.076923,4200.000000,4458.974358,4216.923076,4246.666666,4525.128205,4218.461538,4671.282051,4002.564102,4057.435897
21,4400.512820,4538.461538,4537.948717,4299.487179,4521.025641,4201.025641,4457.948717,4216.410256,4243.076923,4524.102564,4214.871794,4667.692307,3997.435898,4055.897435
22,4398.974358,4538.974358,4534.358974,4298.461538,4521.025641,4203.589743,4457.948717,4216.410256,4242.564102,4515.897435,4212.307692,4669.230769,3990.769231,4054.358974
23,4396.923076,4539.487179,4533.846153,4298.461538,4509.230769,4199.487179,4457.435897,4215.897435,4247.692307,4516.410256,4216.410256,4671.282051,3994.871795,4056.923076
24,4404.102564,4540.000000,4538.974358,4302.051282,4508.205128,4201.025641,4458.461538,4215.897435,4247.692307,4530.769230,4219.487179,4674.358974,4001.025641,4060.000000
25,4410.256410,4541.025641,4542.564102,4304.102564,4523.589743,4210.769230,4460.512820,4217.948717,4244.102564,4536.923076,4217.948717,4674.871794,4002.051282,4058.461538
26,4402.051282,4542.564102,4535.384615,4297.435897,4530.256410,4210.769230,4463.589743,4218.461538,4247.692307,4529.230769,4212.307692,4668.717948,3998.461539,4054.871794
27,4393.846153,4542.051282,4527.179487,4292.307692,4520.000000,4201.538461,4460.000000,4213.333333,4247.692307,4515.384615,4209.743589,4661.538461,3993.333334,4049.743589
28,4395.897435,4538.461538,4525.641025,4294.358974,4505.641025,4196.923076,4448.717948,4208.717948,4237.948717,4505.128205,4212.820512,4657.948717,3989.743590,4045.128205
29,4401.025641,4545.641025,4531.794871,4296.923076,4511.794871,4200.512820,4449.230769,4213.846153,4241.025641,4518.974358,4216.410256,4662.051282,3997.435898,4049.743589
30,4403.589743,4551.794871,4538.974358,4299.487179,4526.666666,4203.076923,4455.384615,4218.974358,4251.282051,4535.897435,4217.435897,4668.717948,4005.641025,4057.435897
31,4400.512820,4545.641025,4535.384615,4298.461538,4519.487179,4197.435897,4447.692307,4216.410256,4248.717948,4520.512820,4217.948717,4669.230769,4000.512820,4058.974358
32,4395.384615,4540.512820,4532.820512,4294.358974,4502.051282,4195.384615,4441.538461,4213.333333,4244.615384,4501.538461,4216.410256,4664.102564,3993.846154,4055.897435
33,4394.871794,4543.076923,4534.358974,4294.871794,4502.051282,4194.871794,4446.153846,4208.205128,4242.564102,4506.666666,4206.666666,4660.000000,3993.846154,4048.205128
34,4394.871794,4548.717948,4529.743589,4294.358974,4513.333333,4189.743589,4443.589743,4200.512820,4234.358974,4513.846153,4202.051282,4659.487179,3988.205129,4041.538461
35,4395.897435,4553.846153,4527.692307,4294.358974,4523.076923,4193.333333,4442.051282,4200.000000,4234.358974,4517.435897,4210.769230,4660.512820,3986.153847,4046.666666
36,4398.461538,4557.435897,4535.384615,4297.435897,4529.743589,4198.461538,4450.256410,4209.743589,4246.666666,4516.923076,4219.487179,4665.128205,3994.358975,4056.410256
37,4397.948717,4552.820512,4540.000000,4296.923076,4517.435897,4194.871794,4450.256410,4214.358974,4249.230769,4503.589743,4215.384615,4666.153846,3990.256411,4055.897435
38,4394.358974,4542.051282,4537.948717,4292.820512,4494.358974,4191.794871,4445.641025,4212.820512,4244.615384,4505.128205,4206.666666,4665.641025,3981.025642,4052.307692
39,4391.794871,4535.384615,4536.923076,4290.256410,4491.282051,4191.282051,4445.128205,4211.794871,4241.538461,4524.615384,4205.641025,4666.153846,3985.128206,4052.307692
40,4399.487179,4541.538461,4539.487179,4290.769230,4514.358974,4190.256410,4447.179487,4213.846153,4244.615384,4526.153846,4212.307692,4672.307692,4000.000000,4057.948717
41,4413.333333,4554.358974,4551.794871,4296.923076,4536.923076,4197.435897,4455.897435,4217.948717,4250.256410,4513.333333,4227.692307,4684.102564,4007.692307,4069.230769
42,4412.820512,4553.333333,4558.974358,4301.538461,4536.923076,4206.666666,4461.025641,4218.461538,4249.743589,4507.179487,4232.307692,4684.102564,4002.564102,4069.743589
43,4401.025641,4543.589743,4544.102564,4295.897435,4522.564102,4200.000000,4452.307692,4215.897435,4246.666666,4510.256410,4216.923076,4671.794871,3994.358975,4057.435897
44,4396.410256,4538.974358,4533.846153,4290.256410,4495.384615,4185.641025,4442.051282,4212.820512,4246.153846,4516.410256,4206.153846,4662.051282,3989.230770,4051.282051
45,4397.435897,4540.512820,4538.974358,4291.282051,4482.564102,4186.153846,4444.615384,4213.333333,4246.153846,4520.000000,4206.153846,4662.051282,3989.743590,4052.820512
46,4397.435897,4541.025641,4541.025641,4288.717948,4504.102564,4194.871794,4447.179487,4216.923076,4247.692307,4522.051282,4209.743589,4667.179487,3992.820513,4054.871794
47,4400.000000,4544.102564,4540.000000,4286.153846,4524.102564,4192.820512,4445.641025,4216.923076,4250.256410,4524.615384,4217.435897,4671.282051,3993.333334,4062.564102
48,4403.076923,4548.205128,4544.102564,4290.769230,4522.564102,4189.230769,4444.102564,4209.743589,4250.769230,4520.512820,4224.615384,4670.769230,3987.692308,4068.205128
49,4406.153846,4550.256410,4546.666666,4296.410256,4521.538461,4193.333333,4443.076923,4202.051282,4246.153846,4509.743589,4220.000000,4674.871794,3981.025642,4065.641025
50,4404.102564,4549.743589,4544.102564,4291.794871,4513.333333,4194.358974,4444.102564,4201.538461,4245.128205,4505.641025,4216.923076,4680.000000,3972.820513,4065.128205
51,4396.923076,4543.076923,4538.461538,4283.076923,4491.282051,4188.717948,4444.615384,4199.487179,4247.179487,4512.307692,4221.025641,4670.769230,3962.051283,4063.589743
52,4393.846153,4534.871794,4538.461538,4284.102564,4497.948717,4187.692307,4441.538461,4194.358974,4248.205128,4520.000000,4216.923076,4663.076923,3957.948718,4056.410256
53,4395.897435,4536.410256,4544.102564,4288.717948,4525.128205,4196.410256,4447.179487,4199.487179,4248.205128,4527.692307,4216.923076,4671.282051,3961.538462,4053.846153
54,4397.435897,4540.000000,4544.102564,4282.564102,4520.000000,4197.948717,4456.410256,4200.512820,4249.230769,4526.666666,4220.512820,4672.307692,3958.974359,4055.897435
55,4392.820512,4530.256410,4537.435897,4274.358974,4498.461538,4191.794871,4450.769230,4188.205128,4247.179487,4506.666666,4210.256410,4660.512820,3947.179488,4051.794871
56,4386.153846,4524.102564,4534.358974,4276.923076,4492.307692,4189.743589,4446.153846,4180.512820,4237.948717,4491.282051,4197.435897,4653.846153,3932.820513,4046.666666
57,4384.102564,4528.717948,4535.384615,4279.487179,4498.974358,4193.846153,4454.871794,4184.102564,4234.871794,4498.461538,4195.897435,4652.820512,3925.128206,4042.564102
58,4383.589743,4528.205128,4537.435897,4278.974358,4510.769230,4195.897435,4460.000000,4187.692307,4244.615384,4502.564102,4198.974358,4653.333333,3931.282052,4042.564102
59,4387.179487,4526.153846,4538.461538,4281.025641,4522.051282,4196.410256,4457.948717,4187.179487,4249.743589,4494.871794,4200.000000,4657.948717,3945.128206,4049.230769
60,4394.358974,4534.871794,4540.512820,4283.076923,4525.641025,4197.435897,4460.512820,4186.666666,4245.641025,4502.564102,4206.666666,4662.051282,3949.743590,4057.435897
61,4395.897435,4540.512820,4543.589743,4283.076923,4519.487179,4196.410256,4463.076923,4187.692307,4246.666666,4526.153846,4209.230769,4664.615384,3948.717949,4058.974358
62,4388.717948,4528.205128,4541.025641,4278.974358,4506.666666,4192.307692,4460.512820,4187.179487,4249.743589,4526.666666,4207.179487,4663.076923,3943.589744,4054.358974
63,4385.641025,4521.538461,4535.897435,4274.358974,4498.461538,4183.589743,4460.000000,4184.615384,4246.153846,4506.666666,4211.794871,4664.102564,3940.000000,4054.358974
64,4394.358974,4526.153846,4538.461538,4274.871794,4508.205128,4181.538461,4461.538461,4184.102564,4247.692307,4503.589743,4220.512820,4672.820512,3950.256411,4064.615384
65,4400.000000,4525.128205,4542.051282,4274.358974,4520.512820,4186.666666,4461.538461,4185.128205,4250.256410,4518.974358,4218.974358,4674.358974,3961.538462,4067.179487
66,4389.743589,4520.000000,4540.512820,4268.205128,4510.769230,4183.589743,4458.974358,4182.564102,4246.153846,4523.589743,4205.128205,4665.641025,3952.820513,4056.410256
67,4378.461538,4519.487179,4532.307692,4266.153846,4495.384615,4175.897435,4457.435897,4181.025641,4245.128205,4511.282051,4203.076923,4656.410256,3941.538462,4051.282051
68,4380.512820,4520.512820,4526.666666,4268.205128,4499.487179,4171.794871,4454.871794,4181.025641,4247.179487,4503.076923,4213.333333,4652.820512,3945.641026,4057.948717
69,4386.666666,4520.512820,4532.307692,4272.307692,4509.230769,4172.307692,4455.384615,4182.051282,4250.769230,4506.153846,4216.410256,4660.000000,3955.897436,4063.076923
70,4389.230769,4522.051282,4542.564102,4278.974358,4507.179487,4173.333333,4458.974358,4183.589743,4257.948717,4520.512820,4216.923076,4671.794871,3957.948718,4064.102564
71,4392.307692,4523.589743,4542.051282,4282.051282,4507.179487,4176.410256,4460.000000,4184.615384,4259.487179,4535.897435,4222.051282,4671.794871,3957.435898,4064.102564
72,4390.769230,4525.128205,4537.435897,4280.512820,4510.769230,4177.435897,4459.487179,4185.641025,4252.307692,4534.358974,4219.487179,4664.102564,3960.000000,4060.000000
73,4380.512820,4521.025641,4536.410256,4273.846153,4506.666666,4171.794871,4459.487179,4180.000000,4246.666666,4513.333333,4209.230769,4659.487179,3951.794872,4053.846153
74,4379.487179,4512.820512,4537.435897,4266.666666,4508.717948,4169.230769,4457.948717,4177.435897,4248.205128,4505.128205,4212.820512,4663.076923,3945.128206,4058.974358
75,4387.179487,4507.692307,4541.025641,4265.128205,4507.179487,4173.333333,4456.923076,4183.076923,4252.307692,4520.512820,4220.000000,4671.282051,3954.358975,4066.666666
76,4383.076923,4505.128205,4541.025641,4265.128205,4488.717948,4170.769230,4456.410256,4177.948717,4246.666666,4526.153846,4210.256410,4670.769230,3954.871795,4058.974358
77,4376.410256,4509.230769,4538.461538,4266.666666,4492.307692,4165.641025,4455.384615,4167.692307,4242.564102,4511.282051,4202.051282,4663.076923,3945.128206,4052.307692
78,4385.128205,4520.000000,4538.461538,4273.846153,4522.051282,4171.282051,4457.435897,4170.256410,4245.128205,4500.000000,4212.820512,4663.076923,3950.769231,4059.487179
79,4389.743589,4523.589743,4539.487179,4279.487179,4527.692307,4176.410256,4458.461538,4172.820512,4242.564102,4508.717948,4218.974358,4665.641025,3959.487180,4057.948717
80,4387.179487,4527.692307,4540.512820,4284.615384,4511.282051,4173.333333,4452.820512,4168.205128,4239.487179,4515.897435,4209.230769,4662.564102,3956.410257,4054.871794
81,4393.333333,4533.846153,4542.051282,4287.692307,4500.512820,4167.692307,4449.230769,4167.179487,4240.512820,4509.230769,4209.743589,4661.538461,3957.435898,4063.589743
82,4395.897435,4534.871794,4540.512820,4286.153846,4504.102564,4165.128205,4453.333333,4169.230769,4241.025641,4511.794871,4216.923076,4662.051282,3961.025642,4065.128205
83,4391.282051,4531.794871,4540.512820,4285.641025,4520.512820,4170.256410,4460.512820,4175.897435,4244.615384,4522.564102,4216.923076,4664.615384,3963.589744,4065.641025
84,4392.307692,4529.743589,4543.589743,4285.641025,4526.153846,4176.410256,4462.564102,4186.666666,4252.307692,4518.974358,4217.435897,4669.743589,3966.666667,4074.871794
85,4394.871794,4525.641025,4543.076923,4281.025641,4508.205128,4172.820512,4460.000000,4185.641025,4250.256410,4513.333333,4219.487179,4667.692307,3961.025642,4071.282051
86,4390.769230,4520.512820,4540.000000,4278.461538,4502.051282,4168.717948,4459.487179,4174.871794,4244.615384,4520.000000,4213.846153,4662.051282,3955.384616,4056.923076
87,4385.128205,4518.461538,4536.923076,4276.410256,4508.205128,4166.153846,4457.948717,4170.769230,4245.128205,4515.897435,4204.102564,4659.487179,3958.974359,4056.410256
88,4384.102564,4521.025641,4534.871794,4274.358974,4503.589743,4162.051282,4456.410256,4174.871794,4245.128205,4504.615384,4207.692307,4658.974358,3960.512821,4062.051282
89,4385.128205,4520.000000,4535.897435,4279.487179,4497.948717,4162.564102,4456.410256,4175.897435,4246.666666,4504.615384,4215.897435,4660.512820,3956.410257,4058.974358
90,4382.051282,4512.307692,4534.871794,4279.487179,4506.153846,4164.615384,4455.897435,4172.820512,4246.153846,4512.820512,4206.666666,4657.948717,3954.871795,4052.820512
91,4385.128205,4514.871794,4533.333333,4275.384615,4517.435897,4169.743589,4457.435897,4177.435897,4245.641025,4520.000000,4198.974358,4652.307692,3954.871795,4050.256410
92,4395.384615,4527.692307,4535.384615,4284.102564,4524.615384,4175.384615,4460.512820,4186.153846,4247.179487,4516.923076,4214.358974,4657.435897,3957.435898,4054.358974
93,4397.435897,4526.666666,4540.512820,4293.333333,4530.256410,4178.461538,4461.025641,4186.666666,4248.717948,4510.769230,4223.589743,4667.179487,3959.487180,4057.948717
94,4395.384615,4520.512820,4544.102564,4287.179487,4522.051282,4178.974358,4461.538461,4183.589743,4250.256410,4513.333333,4207.179487,4664.615384,3953.846154,4060.512820
95,4397.948717,4522.051282,4543.076923,4285.641025,4505.641025,4174.358974,4462.051282,4184.102564,4247.692307,4517.435897,4199.487179,4658.461538,3949.743590,4063.589743
96,4400.000000,4525.128205,4546.666666,4293.333333,4514.358974,4173.333333,4461.025641,4184.102564,4246.153846,4514.871794,4207.692307,4661.538461,3955.897436,4064.615384
97,4396.923076,4526.153846,4549.743589,4291.794871,4533.846153,4177.948717,4461.025641,4182.051282,4246.153846,4507.692307,4209.230769,4664.102564,3960.512821,4063.589743
98,4393.333333,4522.564102,4543.076923,4287.692307,4526.666666,4175.384615,4459.487179,4180.512820,4245.128205,4503.589743,4206.666666,4664.102564,3955.384616,4059.487179
99,4393.846153,4518.461538,4543.076923,4292.820512,4517.435897,4166.666666,4457.948717,4183.076923,4245.641025,4510.769230,4212.820512,4664.102564,3952.307693,4055.897435
100,4398.974358,4526.666666,4550.256410,4295.897435,4526.666666,4170.256410,4460.000000,4187.179487,4249.230769,4522.051282,4219.487179,4666.666666,3962.051283,4064.102564
101,4402.051282,4536.923076,4547.692307,4294.358974,4520.512820,4174.871794,4460.000000,4185.641025,4249.743589,4520.512820,4216.410256,4668.717948,3972.307693,4074.358974
102,4400.512820,4532.307692,4539.487179,4295.384615,4505.128205,4167.692307,4456.410256,4182.051282,4246.153846,4520.000000,4215.897435,4666.153846,3973.333334,4072.307692
103,4402.051282,4524.615384,4543.589743,4295.384615,4517.948717,4169.230769,4455.897435,4183.076923,4251.282051,4530.256410,4224.615384,4667.179487,3979.487180,4070.256410
104,4406.666666,4524.615384,4552.307692,4293.846153,4535.897435,4174.358974,4459.487179,4187.179487,4257.948717,4537.435897,4232.820512,4675.384615,3987.692308,4076.923076
105,4412.307692,4527.179487,4555.384615,4298.461538,4535.897435,4172.307692,4462.051282,4189.230769,4256.410256,4533.846153,4234.871794,4683.076923,3984.102565,4084.102564
106,4410.256410,4525.641025,4550.256410,4295.897435,4527.692307,4170.769230,4458.974358,4188.205128,4250.769230,4520.512820,4231.282051,4678.461538,3980.512821,4088.717948
107,4399.487179,4522.051282,4538.461538,4283.589743,4509.230769,4165.128205,4449.230769,4179.487179,4242.564102,4513.333333,4223.589743,4667.179487,3979.487180,4081.025641
108,4392.820512,4518.974358,4535.897435,4284.615384,4493.846153,4159.487179,4443.589743,4172.820512,4239.487179,4520.000000,4215.897435,4663.076923,3972.307693,4063.589743
109,4395.384615,4520.512820,4540.512820,4295.897435,4508.717948,4164.615384,4445.128205,4178.461538,4244.615384,4520.512820,4213.333333,4661.025641,3968.205129,4058.974358
110,4397.948717,4522.051282,4541.025641,4296.410256,4528.717948,4171.794871,4449.230769,4185.128205,4248.205128,4515.384615,4214.358974,4658.461538,3974.358975,4070.256410
111,4400.000000,4522.564102,4540.512820,4292.820512,4527.692307,4170.769230,4455.897435,4183.589743,4245.128205,4518.461538,4218.974358,4664.102564,3976.923077,4076.923076
112,4403.076923,4525.128205,4538.974358,4289.743589,4520.000000,4169.743589,4455.897435,4181.538461,4245.128205,4520.000000,4223.589743,4668.205128,3976.923077,4074.871794
113,4400.000000,4522.564102,4537.948717,4282.564102,4512.820512,4168.717948,4447.692307,4185.128205,4248.717948,4514.871794,4220.000000,4663.076923,3975.384616,4071.282051
114,4402.051282,4519.487179,4544.615384,4283.589743,4501.538461,4170.256410,4449.743589,4186.153846,4246.666666,4518.461538,4211.794871,4666.153846,3972.820513,4069.743589
115,4414.358974,4526.666666,4555.897435,4296.923076,4508.717948,4175.384615,4460.512820,4187.179487,4248.717948,4526.153846,4214.871794,4677.948717,3975.384616,4075.897435
116,4417.435897,4535.384615,4557.435897,4303.589743,4529.743589,4174.871794,4461.025641,4192.307692,4254.871794,4523.076923,4228.205128,4679.487179,3980.512821,4085.641025
117,4413.333333,4537.435897,4553.846153,4303.076923,4534.358974,4175.897435,4458.974358,4198.461538,4255.384615,4521.025641,4230.256410,4673.333333,3986.666667,4084.102564
118,4410.256410,4537.435897,4550.769230,4307.692307,4524.102564,4181.538461,4462.051282,4201.025641,4256.410256,4523.589743,4225.641025,4672.307692,3990.769231,4073.846153
119,4403.589743,4531.282051,4545.128205,4307.179487,4514.358974,4175.897435,4462.051282,4196.410256,4257.948717,4521.538461,4225.641025,4670.256410,3982.564103,4065.128205
120,4398.461538,4523.589743,4540.000000,4302.051282,4508.205128,4168.205128,4460.000000,4191.282051,4254.358974,4516.923076,4223.589743,4665.128205,3972.307693,4061.538461
121,4396.410256,4523.589743,4537.948717,4304.102564,4503.076923,4170.769230,4459.487179,4186.666666,4249.230769,4516.410256,4217.435897,4662.564102,3973.846154,4062.051282
122,4396.410256,4527.692307,4543.076923,4305.128205,4513.333333,4173.846153,4458.461538,4184.615384,4250.256410,4521.538461,4223.589743,4667.692307,3984.102565,4067.692307
123,4403.076923,4526.666666,4552.307692,4300.512820,4527.692307,4173.333333,4461.025641,4194.358974,4258.461538,4526.153846,4235.897435,4676.923076,3992.820513,4075.897435
124,4405.641025,4523.589743,4548.717948,4294.358974,4512.307692,4173.846153,4462.564102,4201.025641,4260.000000,4526.153846,4230.256410,4675.384615,3987.179488,4072.307692
125,4394.358974,4522.564102,4537.435897,4287.692307,4489.743589,4165.128205,4453.846153,4190.769230,4249.230769,4513.333333,4216.410256,4665.128205,3974.871795,4057.435897
126,4387.179487,4521.538461,4535.897435,4283.589743,4495.384615,4155.384615,4445.128205,4181.538461,4242.051282,4506.153846,4214.871794,4661.538461,3974.358975,4051.794871
127,4394.358974,4524.102564,4541.538461,4288.717948,4502.564102,4160.000000,4445.128205,4185.128205,4245.641025,4514.358974,4218.974358,4665.641025,3979.487180,4062.051282
128,4398.974358,4526.666666,4541.025641,4295.384615,4490.769230,4164.102564,4447.179487,4186.153846,4246.666666,4514.871794,4216.923076,4667.179487,3977.948718,4061.538461
129,4393.846153,4526.153846,4539.487179,4292.307692,4484.102564,4157.435897,4443.076923,4182.564102,4242.564102,4500.512820,4213.333333,4664.102564,3974.871795,4051.282051
130,4390.769230,4524.102564,4538.974358,4285.128205,4489.743589,4156.410256,4442.564102,4185.641025,4246.666666,4500.512820,4218.974358,4662.051282,3972.820513,4057.435897
131,4394.871794,4522.564102,4537.948717,4284.615384,4500.000000,4166.666666,4451.282051,4192.820512,4254.358974,4514.358974,4225.641025,4667.179487,3977.948718,4064.102564
132,4397.948717,4524.102564,4543.076923,4284.615384,4513.333333,4174.358974,4460.000000,4198.974358,4255.384615,4513.846153,4221.538461,4671.282051,3987.179488,4056.923076
133,4394.871794,4525.128205,4549.230769,4281.538461,4508.205128,4170.256410,4460.000000,4200.512820,4256.410256,4507.179487,4217.948717,4670.769230,3985.641026,4052.307692
134,4390.769230,4514.871794,4545.128205,4274.358974,4490.256410,4160.512820,4450.256410,4196.410256,4260.000000,4513.846153,4222.564102,4670.256410,3977.948718,4056.410256
135,4389.230769,4503.589743,4536.923076,4268.717948,4489.743589,4160.000000,4444.102564,4195.384615,4255.384615,4516.923076,4223.589743,4672.820512,3982.564103,4058.461538
136,4392.820512,4513.333333,4538.461538,4270.769230,4495.897435,4162.564102,4447.179487,4201.538461,4254.871794,4512.820512,4225.128205,4676.410256,3990.769231,4063.589743
137,4394.358974,4523.076923,4540.512820,4278.461538,4495.384615,4158.461538,4446.153846,4197.948717,4257.435897,4512.820512,4227.692307,4673.846153,3985.641026,4066.153846
138,4390.256410,4516.410256,4536.923076,4281.538461,4504.615384,4158.461538,4442.564102,4188.717948,4253.333333,4513.846153,4224.102564,4669.743589,3984.102565,4057.948717
139,4389.230769,4517.948717,4535.897435,4277.948717,4502.051282,4161.538461,4442.564102,4192.307692,4255.897435,4509.743589,4222.564102,4671.282051,3990.256411,4054.358974
140,4387.692307,4520.512820,4536.410256,4270.769230,4472.820512,4153.846153,4443.589743,4196.923076,4260.000000,4506.666666,4224.102564,4668.717948,3983.076924,4055.897435
141,4384.615384,4513.333333,4534.871794,4270.256410,4473.333333,4149.743589,4443.589743,4194.871794,4249.230769,4503.076923,4220.000000,4662.564102,3969.230770,4053.846153
142,4382.564102,4511.794871,4530.769230,4276.923076,4504.615384,4162.564102,4445.128205,4195.384615,4243.076923,4499.487179,4211.794871,4662.051282,3968.717949,4043.589743
143,4381.538461,4512.820512,4522.564102,4272.820512,4513.846153,4165.641025,4449.230769,4193.333333,4248.205128,4497.948717,4208.205128,4658.461538,3972.307693,4037.435897
144,4383.076923,4507.692307,4521.538461,4261.538461,4503.589743,4162.564102,4456.410256,4192.820512,4249.743589,4495.897435,4211.282051,4656.410256,3974.871795,4047.179487
145,4387.179487,4506.153846,4530.256410,4260.000000,4490.256410,4164.102564,4459.487179,4198.461538,4253.333333,4502.051282,4221.538461,4663.589743,3983.589744,4056.410256
146,4386.666666,4506.153846,4533.846153,4263.076923,4475.897435,4158.974358,4448.717948,4196.923076,4250.769230,4514.871794,4221.025641,4664.615384,3985.128206,4052.820512
147,4388.717948,4512.820512,4533.333333,4266.666666,4484.615384,4157.435897,4442.564102,4191.794871,4244.615384,4516.410256,4212.820512,4661.025641,3978.461539,4051.282051
148,4395.384615,4523.076923,4538.461538,4273.333333,4510.769230,4165.128205,4451.282051,4198.461538,4249.743589,4504.102564,4216.923076,4664.102564,3977.948718,4052.820512
149,4391.282051,4516.410256,4535.384615,4275.897435,4510.256410,4163.076923,4453.333333,4196.410256,4251.282051,4496.923076,4222.051282,4663.589743,3983.076924,4044.615384
150,4382.051282,4503.076923,4527.179487,4272.307692,4493.333333,4156.923076,4445.641025,4185.128205,4245.128205,4498.974358,4217.435897,4660.000000,3984.102565,4044.615384
151,4388.717948,4509.230769,4530.769230,4268.205128,4486.153846,4158.974358,4442.564102,4189.743589,4246.666666,4500.512820,4215.384615,4663.076923,3986.153847,4054.358974
152,4393.846153,4516.410256,4537.435897,4262.051282,4483.589743,4157.435897,4444.615384,4197.948717,4247.692307,4499.487179,4216.923076,4664.102564,3983.589744,4048.205128
153,4389.743589,4511.794871,4536.410256,4266.666666,4489.230769,4158.974358,4449.230769,4198.974358,4246.153846,4503.076923,4216.410256,4663.589743,3977.435898,4043.076923
154,4391.282051,4513.846153,4538.461538,4278.461538,4508.205128,4170.256410,4457.435897,4207.179487,4257.435897,4512.820512,4222.051282,4670.256410,3985.641026,4055.384615
155,4393.846153,4517.435897,4539.487179,4273.846153,4511.794871,4171.794871,4462.051282,4213.333333,4267.179487,4521.538461,4226.666666,4673.846153,3994.871795,4061.538461
156,4389.743589,4508.717948,4533.846153,4262.051282,4492.307692,4162.564102,4454.358974,4205.641025,4257.948717,4523.589743,4225.641025,4670.769230,3991.282052,4056.410256
157,4390.256410,4501.538461,4533.333333,4267.692307,4479.487179,4161.538461,4447.692307,4203.589743,4253.846153,4512.820512,4228.717948,4669.743589,3988.205129,4054.358974
158,4397.435897,4508.205128,4539.487179,4277.948717,4488.205128,4165.128205,4451.282051,4212.307692,4261.538461,4504.615384,4231.794871,4671.794871,3996.410257,4058.974358
159,4400.000000,4513.333333,4540.000000,4278.974358,4502.564102,4167.179487,4458.461538,4216.923076,4265.128205,4515.384615,4232.307692,4675.897435,4003.589743,4062.564102
160,4393.846153,4508.717948,4530.256410,4275.897435,4507.179487,4168.717948,4456.410256,4216.410256,4265.128205,4525.128205,4232.307692,4672.820512,4001.025641,4061.538461
161,4381.538461,4505.128205,4520.512820,4267.692307,4496.410256,4163.076923,4445.641025,4207.692307,4257.948717,4517.435897,4222.051282,4657.435897,3987.179488,4046.153846
162,4373.846153,4502.564102,4518.974358,4260.512820,4485.128205,4153.333333,4442.051282,4195.384615,4245.641025,4496.410256,4202.051282,4646.153846,3967.692308,4029.230769
163,4380.512820,4503.589743,4521.538461,4262.564102,4491.282051,4155.384615,4444.615384,4195.384615,4244.615384,4489.230769,4203.076923,4649.230769,3964.102565,4035.897435
164,4388.717948,4504.615384,4522.564102,4266.153846,4497.435897,4161.025641,4445.128205,4201.025641,4249.743589,4500.000000,4218.461538,4651.282051,3978.974359,4048.205128
165,4386.666666,4503.076923,4522.564102,4263.589743,4490.769230,4157.435897,4444.615384,4198.461538,4245.641025,4509.743589,4218.974358,4647.179487,3987.179488,4045.128205
166,4381.538461,4496.923076,4521.025641,4255.897435,4488.205128,4155.897435,4444.615384,4197.435897,4243.589743,4510.256410,4213.333333,4646.666666,3980.512821,4037.948717
167,4383.076923,4491.794871,4520.512820,4252.307692,4490.256410,4159.487179,4443.589743,4199.487179,4248.205128,4503.076923,4214.358974,4650.256410,3975.384616,4040.000000
168,4390.256410,4498.461538,4528.717948,4262.051282,4493.846153,4163.589743,4450.769230,4201.538461,4250.769230,4501.025641,4217.435897,4656.410256,3981.538462,4042.051282
169,4393.333333,4508.717948,4533.846153,4270.769230,4496.410256,4164.102564,4456.410256,4204.102564,4250.256410,4507.179487,4218.461538,4660.000000,3980.000000,4042.564102
170,4386.153846,4501.025641,4527.692307,4265.128205,4492.307692,4161.025641,4448.717948,4203.589743,4248.205128,4507.179487,4215.384615,4655.384615,3971.794872,4045.128205
171,4382.051282,4490.256410,4521.538461,4260.512820,4489.230769,4158.461538,4442.051282,4199.487179,4246.153846,4493.333333,4205.128205,4650.256410,3973.846154,4042.564102
172,4384.102564,4498.974358,4521.538461,4263.076923,4493.846153,4159.487179,4445.641025,4197.948717,4246.153846,4483.589743,4201.538461,4649.230769,3976.923077,4038.974358
173,4384.102564,4505.641025,4525.641025,4262.564102,4491.794871,4161.538461,4445.641025,4200.000000,4245.128205,4493.846153,4212.820512,4649.743589,3972.307693,4036.923076
174,4384.102564,4500.512820,4530.769230,4266.666666,4493.333333,4163.589743,4446.153846,4205.128205,4249.230769,4506.666666,4218.974358,4654.358974,3972.307693,4038.461538
175,4387.179487,4501.025641,4533.846153,4273.846153,4504.615384,4164.102564,4450.256410,4209.230769,4255.384615,4510.769230,4213.846153,4657.948717,3978.461539,4042.051282
176,4390.769230,4505.641025,4535.897435,4271.794871,4498.461538,4162.051282,4446.666666,4204.615384,4251.794871,4507.692307,4211.282051,4657.435897,3983.076924,4049.230769
177,4395.384615,4505.641025,4543.076923,4270.769230,4492.820512,4168.205128,4449.743589,4206.666666,4255.897435,4506.666666,4218.974358,4663.589743,3985.128206,4057.435897
178,4397.435897,4501.025641,4545.641025,4274.358974,4498.461538,4169.743589,4457.948717,4212.820512,4261.538461,4507.179487,4220.512820,4668.717948,3983.589744,4057.435897
179,4392.820512,4496.410256,4541.025641,4271.794871,4498.461538,4162.564102,4448.717948,4206.666666,4253.333333,4507.692307,4215.897435,4662.564102,3984.102565,4052.307692
180,4392.820512,4501.025641,4540.000000,4269.743589,4503.076923,4167.179487,4441.538461,4202.051282,4249.743589,4517.435897,4221.538461,4661.538461,3994.358975,4052.820512
181,4396.410256,4508.205128,4540.000000,4272.820512,4512.307692,4171.282051,4449.743589,4206.666666,4255.897435,4513.846153,4230.256410,4666.153846,3998.974359,4062.051282
182,4393.333333,4505.128205,4537.435897,4273.846153,4499.487179,4163.589743,4448.717948,4205.128205,4251.794871,4493.846153,4223.076923,4659.487179,3992.820513,4063.076923
183,4392.307692,4504.102564,4537.435897,4275.897435,4483.076923,4157.435897,4442.051282,4200.000000,4243.076923,4489.743589,4212.307692,4652.820512,3991.794872,4056.923076
184,4396.923076,4508.717948,4538.461538,4280.512820,4491.794871,4162.051282,4451.282051,4205.128205,4248.205128,4502.051282,4218.974358,4661.025641,3993.846154,4055.384615
185,4398.461538,4510.256410,4538.461538,4280.000000,4511.282051,4169.743589,4461.538461,4213.846153,4255.384615,4509.743589,4228.205128,4665.641025,3990.256411,4056.410256
186,4396.923076,4504.615384,4540.000000,4273.333333,4511.794871,4170.769230,4457.948717,4217.948717,4255.384615,4512.307692,4224.102564,4660.512820,3989.230770,4057.948717
187,4394.871794,4493.333333,4533.846153,4264.102564,4483.589743,4161.538461,4445.641025,4208.205128,4250.256410,4510.256410,4213.846153,4653.846153,3991.794872,4057.948717
188,4392.307692,4492.307692,4527.179487,4263.076923,4470.769230,4155.897435,4437.435897,4197.948717,4243.589743,4504.102564,4212.307692,4651.282051,3991.282052,4056.923076
189,4393.846153,4505.128205,4532.307692,4271.282051,4498.974358,4165.128205,4447.179487,4209.230769,4248.717948,4506.153846,4218.974358,4656.923076,3990.256411,4055.897435
190,4391.282051,4508.717948,4532.820512,4268.205128,4517.435897,4171.282051,4458.974358,4220.000000,4257.435897,4511.794871,4219.487179,4658.461538,3990.769231,4052.307692
191,4382.564102,4500.512820,4523.076923,4260.000000,4510.256410,4169.743589,4456.923076,4217.435897,4256.923076,4507.179487,4212.820512,4651.282051,3990.256411,4044.102564
192,4377.948717,4494.358974,4521.538461,4262.051282,4506.666666,4167.179487,4448.717948,4213.333333,4249.743589,4499.487179,4207.179487,4646.666666,3982.564103,4041.538461
193,4378.974358,4490.769230,4524.615384,4264.102564,4502.564102,4163.589743,4444.102564,4211.794871,4243.076923,4500.000000,4200.512820,4642.051282,3972.820513,4044.615384
194,4380.000000,4490.256410,4522.051282,4262.051282,4495.384615,4163.076923,4446.153846,4212.820512,4244.102564,4507.179487,4196.923076,4640.512820,3975.897436,4044.102564
195,4385.128205,4491.282051,4522.564102,4262.564102,4500.512820,4170.256410,4454.358974,4216.923076,4250.769230,4508.717948,4203.589743,4649.230769,3986.153847,4045.641025
196,4392.307692,4491.794871,4531.282051,4261.538461,4509.230769,4171.282051,4460.512820,4218.974358,4252.307692,4505.641025,4212.307692,4652.820512,3989.230770,4051.794871
197,4397.948717,4493.846153,4536.410256,4261.025641,4506.153846,4164.615384,4456.410256,4217.948717,4250.769230,4509.230769,4216.410256,4651.794871,3991.282052,4055.897435
198,4394.358974,4494.358974,4531.282051,4263.589743,4490.256410,4161.025641,4446.153846,4211.794871,4245.128205,4503.589743,4215.897435,4656.410256,3993.333334,4055.897435
199,4384.615384,4489.230769,4522.051282,4260.512820,4482.564102,4163.589743,4444.102564,4201.025641,4235.384615,4491.282051,4206.666666,4653.333333,3984.102565,4052.820512
200,4386.153846,4490.769230,4521.538461,4258.461538,4501.025641,4169.743589,4453.846153,4203.589743,4234.358974,4497.435897,4199.487179,4645.641025,3973.846154,4052.307692
201,4392.820512,4502.051282,4525.128205,4263.076923,4518.974358,4172.307692,4461.538461,4216.410256,4244.102564,4504.102564,4205.641025,4650.256410,3977.948718,4052.307692
202,4393.846153,4507.179487,4524.615384,4266.153846,4510.256410,4170.256410,4457.435897,4220.000000,4250.256410,4502.051282,4213.846153,4657.435897,3988.205129,4054.358974
203,4395.384615,4504.102564,4527.179487,4268.205128,4502.564102,4168.717948,4455.384615,4219.487179,4253.846153,4512.820512,4214.358974,4656.410256,3993.333334,4061.538461
204,4400.000000,4506.153846,4535.897435,4269.743589,4508.205128,4169.743589,4457.948717,4218.461538,4255.384615,4525.641025,4214.358974,4657.948717,3996.923077,4071.282051
205,4405.128205,4511.794871,4535.897435,4267.179487,4508.205128,4170.256410,4452.820512,4217.435897,4252.820512,4517.948717,4222.564102,4664.102564,4003.589743,4073.333333
206,4405.641025,4508.717948,4533.333333,4264.615384,4509.230769,4170.256410,4450.769230,4223.589743,4254.358974,4505.128205,4228.717948,4664.615384,4002.564102,4069.230769
207,4400.512820,4495.897435,4530.769230,4263.589743,4507.692307,4169.230769,4453.333333,4225.641025,4254.871794,4503.589743,4223.589743,4657.948717,3993.333334,4064.615384
208,4395.384615,4490.769230,4527.179487,4261.538461,4491.282051,4165.641025,4448.717948,4218.461538,4247.692307,4513.333333,4213.846153,4656.923076,3988.205129,4061.538461
209,4398.461538,4501.025641,4528.717948,4264.102564,4489.743589,4164.615384,4445.641025,4216.923076,4247.179487,4521.538461,4207.692307,4658.461538,3990.769231,4064.102564
210,4400.000000,4509.743589,4532.307692,4267.179487,4509.230769,4168.717948,4455.897435,4219.487179,4249.230769,4512.307692,4209.230769,4658.974358,3992.820513,4070.769230
211,4395.897435,4500.000000,4524.102564,4262.051282,4509.743589,4169.743589,4461.025641,4214.358974,4244.615384,4502.564102,4211.282051,4658.461538,3987.692308,4066.153846
212,4397.435897,4494.871794,4517.948717,4264.102564,4503.076923,4167.692307,4456.410256,4212.820512,4244.102564,4508.205128,4208.205128,4659.487179,3987.692308,4055.384615
213,4402.564102,4506.153846,4520.000000,4276.923076,4520.000000,4172.820512,4460.000000,4221.538461,4253.333333,4509.230769,4208.717948,4666.153846,3990.256411,4058.461538
214,4402.051282,4507.179487,4513.846153,4277.435897,4516.923076,4176.410256,4464.102564,4222.564102,4254.358974,4501.538461,4212.307692,4667.692307,3985.641026,4068.205128
215,4396.410256,4498.461538,4505.641025,4262.564102,4488.205128,4169.230769,4459.487179,4219.487179,4247.179487,4504.102564,4208.717948,4660.000000,3984.615385,4066.153846
216,4396.923076,4500.000000,4507.179487,4258.461538,4495.897435,4169.230769,4458.974358,4226.153846,4251.282051,4516.410256,4208.205128,4660.000000,3996.410257,4066.153846
217,4404.102564,4507.692307,4509.230769,4271.794871,4525.128205,4182.051282,4470.256410,4235.897435,4256.923076,4524.615384,4218.974358,4672.307692,4005.641025,4078.461538
218,4409.743589,4510.769230,4509.743589,4281.538461,4526.666666,4186.666666,4476.410256,4234.358974,4251.794871,4523.076923,4221.025641,4674.871794,4006.153846,4083.076923
219,4410.256410,4513.846153,4509.743589,4281.025641,4522.051282,4184.102564,4467.692307,4229.743589,4249.743589,4516.410256,4216.410256,4665.128205,4005.128205,4073.846153
220,4405.128205,4512.820512,4507.179487,4278.974358,4522.564102,4184.102564,4461.538461,4231.794871,4255.384615,4515.384615,4216.410256,4660.512820,3998.461539,4070.769230
221,4401.025641,4507.179487,4504.615384,4278.461538,4502.564102,4177.948717,4461.538461,4229.743589,4252.820512,4515.384615,4214.871794,4659.487179,3990.256411,4070.769230
222,4399.487179,4506.666666,4505.641025,4278.461538,4492.307692,4169.743589,4458.974358,4227.692307,4247.179487,4510.256410,4215.384615,4658.974358,3993.846154,4069.230769
223,4397.948717,4507.692307,4502.564102,4280.000000,4513.846153,4172.307692,4456.923076,4229.230769,4251.282051,4511.794871,4217.435897,4658.974358,4003.076923,4072.307692
224,4394.358974,4507.179487,4493.846153,4278.974358,4525.128205,4174.871794,4460.512820,4226.153846,4249.743589,4509.230769,4213.846153,4657.948717,4000.512820,4070.256410
225,4388.205128,4507.179487,4490.256410,4272.307692,4505.641025,4169.230769,4457.948717,4217.948717,4241.538461,4493.846153,4206.666666,4653.333333,3990.769231,4056.923076
226,4382.564102,4503.589743,4489.230769,4263.589743,4476.923076,4163.589743,4445.128205,4211.282051,4236.410256,4492.307692,4202.564102,4646.666666,3984.615385,4048.205128
227,4385.128205,4501.538461,4491.794871,4260.512820,4468.205128,4163.076923,4445.128205,4212.307692,4236.410256,4505.641025,4201.025641,4646.153846,3986.153847,4052.307692
228,4393.333333,4505.128205,4501.538461,4271.282051,4486.153846,4167.692307,4456.923076,4217.948717,4240.512820,4501.025641,4207.692307,4654.871794,3990.256411,4060.000000
229,4394.358974,4509.743589,4509.743589,4276.923076,4506.666666,4170.769230,4457.435897,4219.487179,4248.205128,4485.641025,4217.435897,4661.025641,3991.282052,4060.000000
230,4391.794871,4510.769230,4505.641025,4268.717948,4506.153846,4168.717948,4452.307692,4216.923076,4244.615384,4492.307692,4212.820512,4656.923076,3991.282052,4049.743589
231,4389.743589,4507.179487,4497.435897,4262.564102,4493.846153,4170.256410,4452.820512,4214.358974,4231.794871,4503.076923,4200.512820,4650.256410,3984.615385,4040.000000
232,4382.051282,4505.128205,4491.794871,4263.076923,4490.256410,4170.769230,4449.230769,4206.153846,4229.230769,4497.948717,4196.410256,4640.512820,3971.282052,4034.358974
233,4377.948717,4505.641025,4490.256410,4264.102564,4490.769230,4167.179487,4442.051282,4202.564102,4232.820512,4489.743589,4198.461538,4633.846153,3965.128206,4032.307692
234,4379.487179,4504.102564,4493.333333,4258.461538,4489.743589,4168.205128,4445.641025,4211.794871,4229.743589,4482.051282,4196.410256,4637.435897,3963.589744,4033.333333
235,4380.512820,4503.589743,4493.846153,4251.794871,4494.871794,4171.794871,4455.897435,4218.461538,4232.307692,4479.487179,4197.435897,4646.666666,3956.410257,4036.410256
236,4384.615384,4506.666666,4494.871794,4248.205128,4495.384615,4171.282051,4455.897435,4217.435897,4241.025641,4487.692307,4205.641025,4652.820512,3961.025642,4038.974358
237,4383.076923,4499.487179,4494.871794,4247.179487,4475.897435,4168.205128,4445.641025,4211.282051,4241.025641,4488.717948,4206.666666,4647.692307,3970.769231,4037.435897
238,4378.461538,4493.846153,4491.794871,4251.282051,4468.205128,4163.076923,4438.974358,4202.051282,4231.282051,4479.487179,4200.000000,4641.538461,3964.102565,4035.897435
239,4383.589743,4501.025641,4496.410256,4256.923076,4487.692307,4160.512820,4442.564102,4200.000000,4228.717948,4476.410256,4198.974358,4643.076923,3955.897436,4035.384615
240,4385.128205,4502.051282,4501.538461,4252.307692,4494.358974,4164.102564,4443.589743,4205.128205,4232.307692,4478.974358,4200.512820,4645.128205,3957.948718,4030.769230
241,4375.384615,4497.948717,4495.384615,4246.153846,4475.897435,4164.615384,4441.025641,4202.564102,4228.717948,4474.358974,4195.384615,4643.076923,3955.384616,4024.615384
242,4375.897435,4502.051282,4492.307692,4251.794871,4471.282051,4162.051282,4441.538461,4201.538461,4226.666666,4473.333333,4192.307692,4642.564102,3950.256411,4027.179487
243,4390.256410,4512.820512,4501.025641,4264.102564,4492.820512,4166.153846,4450.256410,4215.897435,4239.487179,4481.538461,4203.076923,4649.230769,3959.487180,4040.000000
244,4398.974358,4523.589743,4511.794871,4269.230769,4510.256410,4178.974358,4461.025641,4229.743589,4250.769230,4489.743589,4215.897435,4660.512820,3972.820513,4048.205128
245,4395.384615,4521.538461,4515.897435,4267.179487,4507.179487,4182.051282,4458.974358,4226.153846,4248.205128,4491.282051,4214.871794,4665.128205,3973.333334,4045.128205
246,4393.333333,4509.230769,4516.923076,4264.615384,4496.923076,4175.384615,4457.948717,4218.974358,4246.666666,4491.794871,4211.282051,4663.076923,3973.333334,4041.025641
247,4395.897435,4505.128205,4514.358974,4258.974358,4469.743589,4171.282051,4460.000000,4219.487179,4248.205128,4490.256410,4212.820512,4662.564102,3972.820513,4042.051282
248,4391.282051,4507.692307,4509.743589,4250.256410,4444.102564,4166.153846,4449.230769,4216.923076,4241.025641,4481.538461,4206.666666,4655.384615,3965.641026,4040.512820
249,4386.153846,4506.153846,4507.179487,4250.769230,4469.230769,4167.179487,4443.076923,4214.358974,4237.948717,4478.974358,4202.051282,4647.692307,3964.102565,4034.358974
250,4393.333333,4507.692307,4507.692307,4262.051282,4515.384615,4177.948717,4454.358974,4219.487179,4247.179487,4489.743589,4204.102564,4651.282051,3974.358975,4035.384615
251,4397.435897,4514.871794,4509.230769,4266.153846,4516.410256,4181.025641,4456.923076,4222.051282,4249.743589,4495.897435,4204.615384,4652.307692,3976.410257,4041.025641
252,4393.333333,4516.923076,4508.717948,4258.461538,4486.666666,4171.794871,4444.102564,4216.923076,4243.589743,4488.205128,4206.666666,4647.179487,3969.743590,4041.538461
253,4391.282051,4516.410256,4505.641025,4255.384615,4471.282051,4167.692307,4440.000000,4215.897435,4243.589743,4483.076923,4208.717948,4647.692307,3969.743590,4038.974358
254,4391.794871,4517.948717,4509.230769,4263.076923,4481.538461,4172.820512,4449.230769,4221.538461,4248.205128,4489.230769,4206.153846,4652.820512,3971.794872,4038.974358
255,4396.410256,4523.076923,4518.974358,4268.205128,4504.615384,4180.512820,4457.948717,4228.205128,4249.230769,4491.282051,4210.769230,4657.948717,3974.358975,4046.153846
256,4403.076923,4526.153846,4525.128205,4267.179487,4511.282051,4182.051282,4461.025641,4228.717948,4250.256410,4490.769230,4220.512820,4660.512820,3982.564103,4054.871794
257,4400.512820,4520.000000,4521.538461,4263.076923,4493.333333,4177.948717,4454.871794,4222.564102,4249.743589,4494.871794,4214.871794,4656.923076,3985.641026,4051.794871
258,4392.307692,4507.179487,4519.487179,4253.333333,4475.897435,4174.871794,4444.102564,4216.923076,4242.051282,4486.153846,4205.128205,4651.794871,3975.897436,4040.000000
259,4389.230769,4501.025641,4519.487179,4250.256410,4474.871794,4171.794871,4439.487179,4216.410256,4237.948717,4472.307692,4204.102564,4654.358974,3967.179488,4035.384615
