,AF3,F7,F3,FC5,T7,P7,O1,O2,P8,T8,FC6,F4,F8,AF4
0,4386.666666,4526.153846,4508.205128,4267.179487,4537.948717,4201.025641,4431.794871,4186.666666,4219.487179,4482.564102,4224.102564,4620.000000,3970.256411,4047.179487
1,4380.000000,4522.051282,4509.230769,4261.538461,4534.358974,4197.435897,4423.076923,4183.076923,4208.205128,4485.128205,4223.589743,4618.461538,3963.076924,4042.564102
2,4387.692307,4524.102564,4515.384615,4270.256410,4540.512820,4199.487179,4421.538461,4188.205128,4206.666666,4495.897435,4224.615384,4623.589743,3969.230770,4044.615384
3,4396.923076,4526.153846,4520.000000,4280.000000,4543.589743,4200.000000,4426.153846,4195.897435,4218.461538,4500.512820,4225.128205,4628.717948,3984.615385,4050.769230
4,4397.435897,4527.692307,4518.974358,4274.358974,4540.512820,4200.000000,4425.641025,4204.102564,4227.692307,4502.051282,4232.820512,4630.256410,3993.333334,4052.820512
5,4395.897435,4534.358974,4516.410256,4263.589743,4538.461538,4200.512820,4423.589743,4204.615384,4229.743589,4510.256410,4241.025641,4627.692307,3988.717949,4053.333333
6,4394.871794,4532.820512,4515.384615,4263.076923,4537.948717,4201.025641,4428.205128,4200.000000,4226.153846,4511.282051,4232.820512,4621.538461,3987.692308,4051.282051
7,4393.846153,4527.692307,4512.820512,4265.641025,4541.025641,4201.025641,4431.794871,4200.512820,4224.102564,4504.615384,4225.128205,4619.487179,3992.307693,4049.230769
8,4394.871794,4531.282051,4513.333333,4262.051282,4545.128205,4201.538461,4430.769230,4202.564102,4229.230769,4502.051282,4235.384615,4628.205128,3991.794872,4053.333333
9,4400.512820,4534.871794,4520.000000,4261.538461,4544.102564,4203.076923,4428.717948,4203.589743,4231.794871,4503.076923,4246.666666,4633.846153,3989.230770,4058.461538
10,4402.051282,4533.333333,4521.025641,4267.179487,4538.974358,4201.538461,4423.589743,4200.000000,4224.615384,4498.974358,4244.615384,4631.282051,3984.615385,4055.897435
11,4398.461538,4530.769230,4517.948717,4270.769230,4540.512820,4197.435897,4422.564102,4193.333333,4217.435897,4500.512820,4240.000000,4628.205128,3979.487180,4054.358974
12,4393.846153,4528.205128,4517.435897,4268.205128,4540.000000,4196.410256,4426.153846,4187.179487,4212.820512,4499.487179,4236.923076,4627.179487,3979.487180,4058.461538
13,4392.820512,4525.128205,4515.897435,4263.589743,4534.358974,4196.410256,4423.589743,4182.564102,4206.666666,4486.666666,4232.307692,4623.589743,3972.820513,4055.384615
14,4395.897435,4527.179487,4514.871794,4264.102564,4534.358974,4192.307692,4423.076923,4183.589743,4209.743589,4484.615384,4231.282051,4621.538461,3972.820513,4052.307692
15,4401.538461,4532.820512,4519.487179,4265.641025,4541.538461,4195.384615,4429.743589,4195.384615,4223.589743,4496.410256,4235.384615,4628.717948,3985.128206,4058.461538
16,4402.051282,4535.384615,4525.641025,4263.589743,4539.487179,4199.487179,4432.307692,4206.666666,4229.743589,4505.128205,4242.051282,4635.897435,3986.666667,4064.615384
17,4399.487179,4531.794871,4522.564102,4262.051282,4531.794871,4193.846153,4424.102564,4204.102564,4222.051282,4501.025641,4240.000000,4632.820512,3977.948718,4061.025641
18,4399.487179,4530.769230,4520.000000,4267.692307,4531.282051,4190.256410,4419.487179,4200.000000,4217.948717,4495.897435,4236.923076,4631.794871,3982.051283,4056.410256
19,4399.487179,4531.794871,4520.512820,4272.820512,4530.769230,4190.769230,4425.641025,4198.461538,4221.025641,4497.435897,4242.564102,4635.897435,3986.153847,4057.948717
20,4393.846153,4524.615384,4515.897435,4267.179487,4530.256410,4192.820512,4429.230769,4194.871794,4214.871794,4498.974358,4237.948717,4629.230769,3976.923077,4055.384615
21,4390.256410,4520.512820,4512.307692,4261.025641,4532.307692,4194.358974,4429.743589,4191.794871,4207.179487,4500.000000,4226.153846,4619.487179,3974.358975,4051.282051
22,4393.846153,4527.179487,4516.410256,4263.076923,4533.333333,4196.410256,4431.794871,4191.282051,4216.923076,4504.102564,4230.769230,4624.615384,3982.051283,4055.897435
23,4396.923076,4533.846153,4520.000000,4264.615384,4534.358974,4197.435897,4430.256410,4193.846153,4227.692307,4509.743589,4241.025641,4632.820512,3984.615385,4060.512820
24,4396.923076,4533.333333,4518.461538,4260.512820,4534.358974,4195.384615,4426.666666,4197.948717,4223.589743,4506.153846,4237.435897,4632.307692,3982.564103,4058.461538
25,4400.512820,4531.794871,4520.000000,4265.641025,4532.820512,4193.846153,4430.769230,4207.692307,4224.102564,4504.102564,4239.487179,4634.871794,3987.179488,4062.564102
26,4403.076923,4532.820512,4521.538461,4274.871794,4533.333333,4194.871794,4433.846153,4211.794871,4228.717948,4510.256410,4245.641025,4638.461538,3989.743590,4068.717948
27,4397.948717,4530.769230,4516.923076,4267.179487,4531.282051,4191.794871,4428.205128,4199.487179,4223.589743,4511.282051,4238.461538,4632.820512,3983.076924,4061.538461
28,4396.923076,4526.666666,4513.846153,4257.948717,4526.666666,4188.205128,4427.179487,4192.820512,4218.974358,4502.564102,4234.871794,4630.256410,3981.538462,4058.461538
29,4401.025641,4527.179487,4517.435897,4266.666666,4529.230769,4190.256410,4428.205128,4197.948717,4222.051282,4496.923076,4241.025641,4634.358974,3982.564103,4067.179487
30,4402.051282,4533.333333,4520.512820,4272.820512,4533.333333,4193.333333,4425.128205,4196.410256,4221.025641,4500.000000,4240.512820,4632.820512,3981.025642,4068.717948
31,4405.128205,4536.923076,4522.051282,4264.102564,4532.307692,4193.333333,4424.102564,4192.820512,4219.487179,4505.128205,4235.384615,4632.820512,3986.153847,4064.102564
32,4403.589743,4531.794871,4525.128205,4259.487179,4530.256410,4191.282051,4426.666666,4202.564102,4223.589743,4503.076923,4235.384615,4634.871794,3990.769231,4065.128205
33,4392.820512,4528.205128,4523.589743,4265.641025,4531.282051,4190.769230,4432.820512,4206.666666,4223.076923,4496.410256,4233.333333,4630.769230,3980.512821,4063.589743
34,4393.333333,4530.256410,4521.538461,4269.743589,4533.846153,4194.871794,4437.948717,4202.564102,4219.487179,4495.897435,4232.820512,4629.743589,3974.871795,4061.538461
35,4401.025641,4531.794871,4522.051282,4268.205128,4535.384615,4198.974358,4434.871794,4201.538461,4220.512820,4497.948717,4236.410256,4630.769230,3981.025642,4063.589743
36,4396.923076,4529.743589,4522.051282,4267.179487,4535.384615,4196.923076,4429.743589,4201.025641,4223.589743,4497.435897,4232.820512,4626.153846,3977.435898,4061.025641
37,4387.692307,4526.666666,4516.923076,4265.128205,4532.820512,4191.282051,4426.666666,4195.897435,4217.948717,4497.948717,4225.641025,4620.512820,3969.230770,4053.333333
38,4385.641025,4525.128205,4510.769230,4260.000000,4529.230769,4189.230769,4423.589743,4190.769230,4207.179487,4496.923076,4224.102564,4616.410256,3969.230770,4048.205128
39,4388.717948,4528.205128,4516.923076,4261.025641,4531.282051,4193.333333,4427.692307,4193.846153,4210.256410,4497.435897,4225.641025,4617.948717,3977.435898,4054.358974
40,4388.717948,4530.256410,4523.589743,4265.641025,4533.846153,4195.897435,4434.871794,4201.025641,4224.102564,4500.000000,4223.589743,4624.102564,3981.025642,4058.461538
41,4389.230769,4527.692307,4519.487179,4265.641025,4531.794871,4192.307692,4431.794871,4206.153846,4226.666666,4498.974358,4227.692307,4627.692307,3978.974359,4058.974358
42,4393.846153,4530.769230,4517.435897,4267.179487,4535.384615,4194.358974,4428.205128,4209.230769,4222.564102,4502.051282,4236.923076,4632.820512,3983.076924,4064.615384
43,4400.512820,4536.923076,4525.641025,4268.717948,4540.512820,4197.948717,4429.230769,4213.333333,4224.102564,4511.794871,4243.076923,4642.051282,3990.256411,4070.256410
44,4405.641025,4537.948717,4533.333333,4265.641025,4539.487179,4198.461538,4430.256410,4215.897435,4228.205128,4514.871794,4246.666666,4647.179487,3993.846154,4071.794871
45,4406.153846,4539.487179,4531.794871,4270.769230,4539.487179,4203.076923,4430.256410,4212.307692,4230.769230,4510.769230,4245.641025,4644.102564,3994.871795,4075.384615
46,4404.102564,4538.974358,4526.153846,4281.025641,4542.051282,4207.179487,4431.794871,4206.153846,4229.743589,4509.743589,4238.974358,4640.512820,3994.871795,4075.384615
47,4401.025641,4535.897435,4520.000000,4278.461538,4541.025641,4203.589743,4431.794871,4202.051282,4228.717948,4510.769230,4239.487179,4638.974358,3992.820513,4070.256410
48,4402.564102,4542.051282,4517.435897,4272.307692,4542.564102,4205.128205,4431.282051,4202.564102,4230.256410,4512.307692,4247.179487,4638.974358,3995.384616,4072.307692
49,4407.692307,4548.717948,4518.461538,4277.948717,4547.692307,4210.256410,4433.846153,4204.102564,4229.230769,4513.333333,4247.692307,4636.410256,3998.461539,4076.923076
50,4411.794871,4547.692307,4520.000000,4280.000000,4547.179487,4209.743589,4434.358974,4202.051282,4224.615384,4511.794871,4248.717948,4637.435897,3995.384616,4077.948717
51,4411.794871,4549.230769,4524.102564,4274.871794,4542.051282,4206.153846,4432.820512,4202.564102,4225.128205,4512.820512,4250.769230,4645.641025,3994.871795,4082.564102
52,4409.230769,4549.230769,4526.666666,4275.897435,4542.564102,4203.589743,4433.846153,4208.717948,4227.692307,4517.435897,4245.128205,4646.666666,3997.435898,4083.589743
53,4409.230769,4545.641025,4526.153846,4281.025641,4541.538461,4203.076923,4433.846153,4210.769230,4224.615384,4512.820512,4242.564102,4641.538461,3996.923077,4079.487179
54,4406.153846,4545.641025,4520.000000,4280.000000,4536.410256,4202.564102,4428.717948,4200.512820,4223.076923,4501.538461,4245.128205,4636.410256,3991.794872,4073.846153
55,4400.000000,4544.102564,4512.307692,4276.923076,4538.461538,4202.051282,4424.615384,4195.897435,4222.564102,4500.512820,4238.974358,4631.282051,3988.205129,4070.256410
56,4405.641025,4541.538461,4515.897435,4280.000000,4540.512820,4205.128205,4431.794871,4205.641025,4226.153846,4512.307692,4238.974358,4634.358974,3990.769231,4074.871794
57,4412.307692,4545.128205,4524.102564,4285.128205,4538.974358,4207.179487,4435.384615,4208.205128,4229.743589,4515.384615,4246.666666,4640.000000,3992.820513,4080.000000
58,4402.051282,4542.051282,4516.923076,4282.564102,4538.461538,4203.076923,4428.717948,4194.358974,4214.358974,4502.051282,4234.871794,4632.307692,3981.025642,4070.256410
59,4395.897435,4532.307692,4509.230769,4275.384615,4536.410256,4200.000000,4427.692307,4187.692307,4200.512820,4491.282051,4217.948717,4625.641025,3971.794872,4063.076923
60,4408.205128,4537.435897,4520.512820,4274.358974,4538.461538,4205.128205,4433.333333,4197.948717,4212.307692,4492.820512,4227.692307,4634.871794,3983.589744,4074.871794
61,4413.333333,4542.564102,4526.666666,4279.487179,4539.487179,4203.589743,4432.820512,4208.205128,4223.076923,4503.076923,4245.641025,4641.538461,3992.820513,4082.564102
62,4407.179487,4540.000000,4521.538461,4281.538461,4535.897435,4197.435897,4432.307692,4206.666666,4215.384615,4512.307692,4246.666666,4636.410256,3989.743590,4077.435897
63,4408.717948,4544.102564,4523.589743,4283.076923,4536.410256,4202.051282,4440.000000,4204.102564,4216.410256,4513.846153,4241.025641,4635.897435,3995.897436,4078.974358
64,4405.128205,4543.076923,4522.564102,4281.538461,4538.461538,4207.179487,4441.025641,4205.128205,4222.564102,4510.769230,4232.307692,4635.897435,3997.948718,4078.974358
65,4396.923076,4534.871794,4513.846153,4276.410256,4535.897435,4204.102564,4433.333333,4204.102564,4220.512820,4506.666666,4227.692307,4630.256410,3985.641026,4071.794871
66,4403.076923,4540.000000,4512.307692,4278.974358,4537.948717,4206.153846,4432.820512,4206.666666,4223.589743,4505.128205,4230.769230,4628.717948,3985.641026,4072.820512
67,4409.230769,4548.205128,4515.384615,4281.025641,4542.051282,4211.794871,4437.948717,4210.769230,4226.666666,4508.205128,4229.230769,4633.846153,3991.282052,4078.461538
68,4403.589743,4543.076923,4513.333333,4275.897435,4540.000000,4208.717948,4442.564102,4210.769230,4221.538461,4512.307692,4230.256410,4637.435897,3987.179488,4078.974358
69,4402.051282,4538.974358,4515.384615,4278.461538,4540.000000,4209.230769,4442.051282,4210.256410,4226.153846,4514.358974,4240.512820,4637.435897,3985.128206,4076.410256
70,4406.153846,4544.102564,4517.948717,4283.076923,4542.564102,4213.846153,4441.025641,4211.282051,4234.871794,4517.948717,4241.025641,4634.871794,3983.589744,4076.923076
71,4403.076923,4543.076923,4511.794871,4274.871794,4540.512820,4212.820512,4445.128205,4210.769230,4233.846153,4515.897435,4229.743589,4630.769230,3983.589744,4077.435897
72,4396.923076,4536.923076,4509.230769,4267.692307,4536.410256,4208.717948,4443.076923,4210.256410,4225.641025,4508.717948,4226.666666,4627.692307,3989.230770,4076.410256
73,4396.410256,4537.435897,4513.333333,4272.307692,4536.410256,4206.153846,4435.384615,4210.256410,4222.564102,4509.743589,4228.205128,4627.179487,3988.205129,4074.358974
74,4401.538461,4540.000000,4515.897435,4277.435897,4538.974358,4206.666666,4434.871794,4209.743589,4225.641025,4512.820512,4228.205128,4631.794871,3986.153847,4077.435897
75,4405.128205,4540.000000,4515.897435,4275.897435,4535.897435,4207.692307,4437.948717,4210.769230,4223.589743,4503.076923,4229.743589,4635.384615,3992.820513,4083.589743
76,4402.564102,4538.461538,4514.358974,4276.410256,4530.769230,4204.102564,4431.794871,4205.128205,4214.871794,4492.820512,4230.256410,4632.307692,3989.743590,4081.538461
77,4398.974358,4536.410256,4514.871794,4277.435897,4533.846153,4201.538461,4425.641025,4194.871794,4212.820512,4498.461538,4231.282051,4631.282051,3981.538462,4076.923076
78,4398.974358,4537.435897,4512.820512,4269.743589,4536.410256,4204.615384,4427.179487,4197.948717,4220.000000,4505.128205,4232.307692,4633.333333,3990.769231,4075.897435
79,4395.384615,4540.512820,4509.230769,4267.692307,4535.384615,4207.692307,4428.717948,4202.051282,4221.025641,4499.487179,4232.307692,4631.794871,3995.384616,4073.846153
80,4392.307692,4537.435897,4508.717948,4273.333333,4533.333333,4205.128205,4428.205128,4195.897435,4221.538461,4496.923076,4228.717948,4631.282051,3982.051283,4070.256410
81,4397.948717,4531.794871,4512.820512,4275.384615,4536.410256,4205.128205,4431.282051,4200.512820,4231.794871,4509.230769,4229.230769,4633.846153,3984.102565,4069.743589
82,4398.974358,4534.871794,4515.897435,4272.820512,4543.589743,4209.743589,4434.871794,4210.769230,4231.282051,4516.410256,4234.871794,4634.871794,4000.512820,4072.820512
83,4391.794871,4537.948717,4514.871794,4270.256410,4542.564102,4211.282051,4438.974358,4208.205128,4222.564102,4508.717948,4237.948717,4633.333333,4001.025641,4070.256410
84,4389.230769,4533.333333,4514.358974,4265.128205,4541.538461,4210.256410,4443.076923,4206.666666,4229.230769,4502.051282,4233.846153,4633.333333,3992.307693,4064.102564
85,4390.769230,4529.230769,4515.384615,4261.538461,4545.641025,4211.794871,4444.102564,4212.307692,4235.384615,4501.025641,4228.717948,4634.358974,3990.769231,4060.000000
86,4390.769230,4528.717948,4515.897435,4264.615384,4545.641025,4212.307692,4441.025641,4211.282051,4227.179487,4503.076923,4226.666666,4636.923076,3991.794872,4061.538461
87,4391.282051,4524.102564,4514.358974,4263.589743,4541.025641,4210.256410,4439.487179,4210.256410,4224.102564,4506.666666,4224.102564,4635.897435,3990.769231,4061.025641
88,4390.769230,4517.948717,4512.307692,4263.076923,4541.538461,4214.871794,4443.076923,4210.769230,4228.717948,4506.153846,4228.205128,4635.897435,3985.641026,4057.435897
89,4388.717948,4525.128205,4513.333333,4265.128205,4547.692307,4218.974358,4448.205128,4212.820512,4227.692307,4501.025641,4234.871794,4637.948717,3984.615385,4058.974358
90,4391.282051,4533.333333,4515.384615,4264.615384,4549.230769,4215.384615,4444.102564,4212.820512,4225.128205,4496.923076,4233.333333,4638.974358,3992.307693,4063.076923
91,4391.282051,4529.230769,4514.358974,4264.102564,4543.589743,4211.282051,4431.794871,4200.512820,4223.589743,4495.897435,4225.641025,4633.333333,3992.820513,4061.025641
92,4382.564102,4518.461538,4509.743589,4262.051282,4536.410256,4206.666666,4427.179487,4187.692307,4216.410256,4495.384615,4215.384615,4622.564102,3975.384616,4050.769230
93,4378.974358,4516.410256,4508.717948,4264.102564,4534.871794,4202.564102,4431.282051,4195.384615,4216.923076,4494.871794,4212.820512,4623.076923,3968.717949,4047.179487
94,4387.692307,4521.538461,4511.794871,4266.153846,4533.846153,4204.615384,4432.307692,4206.153846,4226.666666,4502.564102,4224.102564,4631.282051,3986.666667,4055.897435
95,4392.820512,4521.025641,4512.820512,4261.538461,4533.333333,4207.692307,4430.256410,4203.076923,4228.205128,4513.333333,4234.358974,4632.307692,4003.589743,4061.025641
96,4395.897435,4520.000000,4514.871794,4262.051282,4538.461538,4206.153846,4431.794871,4204.102564,4229.743589,4517.948717,4240.512820,4635.897435,4009.230769,4064.102564
97,4404.102564,4531.282051,4521.025641,4272.820512,4540.512820,4206.666666,4433.333333,4209.743589,4237.435897,4518.974358,4250.256410,4646.666666,4011.794871,4072.307692
98,4405.641025,4538.974358,4521.025641,4273.846153,4533.333333,4206.153846,4430.256410,4204.615384,4238.974358,4519.487179,4249.743589,4648.717948,4013.333333,4075.384615
99,4400.512820,4532.820512,4515.897435,4265.128205,4530.256410,4202.564102,4429.230769,4204.615384,4235.897435,4517.435897,4241.538461,4642.051282,4012.307692,4073.333333
100,4400.000000,4526.153846,4515.897435,4264.102564,4534.871794,4202.564102,4430.769230,4212.307692,4238.974358,4517.948717,4244.615384,4638.974358,4007.692307,4072.820512
101,4398.974358,4523.076923,4517.948717,4261.025641,4533.333333,4206.153846,4430.769230,4211.794871,4241.025641,4515.384615,4245.641025,4640.000000,4003.076923,4067.692307
102,4395.897435,4525.128205,4516.923076,4253.333333,4529.230769,4203.076923,4429.743589,4207.692307,4234.358974,4508.717948,4236.923076,4638.974358,4004.615384,4062.051282
103,4397.948717,4529.743589,4518.461538,4252.820512,4531.282051,4197.948717,4426.666666,4209.230769,4230.769230,4507.692307,4237.435897,4637.435897,4002.051282,4066.666666
104,4401.025641,4531.794871,4520.000000,4262.051282,4533.846153,4202.564102,4425.128205,4213.333333,4235.384615,4516.923076,4243.076923,4638.461538,3995.897436,4071.282051
105,4401.538461,4532.820512,4518.974358,4267.692307,4532.820512,4206.666666,4425.128205,4212.820512,4241.025641,4520.000000,4236.410256,4639.487179,4000.000000,4069.743589
106,4400.000000,4530.256410,4519.487179,4266.666666,4535.897435,4205.641025,4428.205128,4213.333333,4240.000000,4516.923076,4230.256410,4636.410256,4008.205128,4070.256410
107,4396.923076,4527.692307,4517.435897,4263.589743,4539.487179,4208.205128,4435.897435,4211.794871,4238.461538,4516.923076,4236.410256,4634.871794,4006.666666,4071.282051
108,4392.820512,4528.205128,4512.820512,4260.000000,4534.871794,4208.717948,4441.025641,4212.820512,4238.974358,4516.923076,4238.974358,4634.358974,3996.923077,4065.641025
109,4394.871794,4527.692307,4516.410256,4263.076923,4531.794871,4203.076923,4435.897435,4219.487179,4238.974358,4517.435897,4234.358974,4635.384615,3994.358975,4065.128205
110,4404.102564,4530.769230,4524.102564,4274.358974,4534.871794,4202.051282,4427.692307,4218.461538,4239.487179,4519.487179,4236.410256,4642.564102,4002.564102,4073.333333
111,4405.641025,4535.897435,4522.051282,4275.384615,4540.000000,4205.641025,4426.153846,4211.282051,4237.948717,4518.974358,4237.435897,4645.128205,4004.102564,4074.871794
112,4395.384615,4531.794871,4513.846153,4262.564102,4539.487179,4204.102564,4427.692307,4205.641025,4235.384615,4514.358974,4228.717948,4636.410256,3996.410257,4066.666666
113,4389.230769,4524.615384,4511.282051,4260.000000,4535.384615,4198.974358,4426.666666,4203.076923,4230.769230,4511.282051,4226.666666,4631.282051,3991.282052,4063.589743
114,4395.897435,4527.179487,4513.333333,4271.282051,4537.435897,4199.487179,4426.666666,4204.615384,4227.179487,4512.307692,4236.410256,4636.923076,3996.923077,4070.256410
115,4403.589743,4531.282051,4518.974358,4274.871794,4538.974358,4207.179487,4431.794871,4209.743589,4232.820512,4516.410256,4245.641025,4643.589743,4005.128205,4075.384615
116,4404.102564,4535.897435,4526.153846,4272.820512,4537.948717,4212.307692,4435.384615,4216.923076,4243.076923,4525.641025,4247.692307,4649.230769,4006.153846,4076.923076
117,4401.538461,4537.435897,4527.692307,4276.410256,4540.512820,4209.743589,4431.794871,4220.512820,4247.179487,4531.282051,4246.153846,4651.282051,4005.641025,4078.461538
118,4403.076923,4534.358974,4528.205128,4277.435897,4540.000000,4205.128205,4428.205128,4216.923076,4244.102564,4528.205128,4243.076923,4648.205128,4011.282051,4079.487179
119,4407.179487,4536.923076,4529.743589,4271.794871,4532.307692,4204.102564,4429.743589,4211.794871,4237.948717,4527.692307,4242.564102,4646.666666,4017.435897,4080.512820
120,4401.025641,4541.538461,4525.641025,4266.153846,4530.769230,4202.051282,4429.230769,4211.794871,4230.256410,4526.153846,4244.615384,4645.641025,4011.282051,4078.461538
121,4393.846153,4535.384615,4517.948717,4260.512820,4532.820512,4198.461538,4427.179487,4207.179487,4224.615384,4514.871794,4239.487179,4636.923076,3993.846154,4068.717948
122,4392.820512,4527.179487,4517.948717,4258.461538,4528.717948,4193.846153,4427.692307,4199.487179,4221.025641,4506.153846,4228.205128,4630.256410,3984.102565,4061.538461
123,4393.333333,4528.717948,4524.615384,4266.666666,4532.307692,4194.871794,4427.692307,4202.564102,4223.076923,4509.743589,4224.615384,4636.923076,3995.384616,4066.153846
124,4397.948717,4533.333333,4526.666666,4273.333333,4537.435897,4202.051282,4426.666666,4208.205128,4232.307692,4514.358974,4234.871794,4643.076923,4009.230769,4073.333333
125,4399.487179,4536.410256,4521.025641,4266.666666,4534.358974,4203.076923,4424.102564,4206.666666,4235.384615,4513.846153,4236.923076,4637.948717,3998.974359,4072.820512
126,4393.846153,4536.410256,4517.435897,4262.051282,4529.743589,4195.384615,4423.076923,4208.717948,4228.717948,4512.820512,4230.256410,4634.871794,3984.102565,4068.717948
127,4393.846153,4535.384615,4520.000000,4266.153846,4532.307692,4194.871794,4427.692307,4216.923076,4231.794871,4513.333333,4233.846153,4640.512820,3991.794872,4071.282051
128,4397.948717,4530.769230,4520.512820,4265.641025,4535.384615,4202.564102,4431.794871,4217.435897,4238.974358,4513.846153,4234.358974,4643.589743,4004.102564,4074.871794
129,4393.333333,4525.128205,4515.384615,4261.025641,4533.846153,4206.153846,4430.256410,4214.358974,4237.435897,4518.974358,4230.769230,4643.076923,4001.538461,4071.794871
130,4392.307692,4529.743589,4516.410256,4263.589743,4534.358974,4203.589743,4430.256410,4221.025641,4242.564102,4526.666666,4233.333333,4644.102564,3996.923077,4073.333333
131,4398.974358,4535.897435,4522.564102,4267.179487,4535.384615,4202.564102,4432.307692,4228.717948,4256.410256,4531.282051,4236.410256,4645.641025,3998.461539,4081.538461
132,4398.461538,4534.358974,4518.974358,4265.641025,4532.820512,4203.076923,4431.282051,4224.615384,4253.333333,4531.282051,4234.871794,4645.641025,4000.512820,4082.051282
133,4392.820512,4528.717948,4513.846153,4261.025641,4529.743589,4199.487179,4428.205128,4214.358974,4237.435897,4522.564102,4233.333333,4641.025641,3998.974359,4071.794871
134,4394.871794,4533.846153,4521.538461,4261.538461,4527.179487,4194.358974,4427.692307,4209.230769,4233.333333,4513.846153,4231.794871,4641.538461,3995.897436,4071.794871
135,4399.487179,4542.051282,4525.641025,4270.256410,4528.205128,4194.871794,4429.230769,4211.794871,4241.025641,4520.512820,4235.897435,4647.692307,3996.923077,4082.051282
136,4398.974358,4537.948717,4520.512820,4270.256410,4528.205128,4193.846153,4426.153846,4209.230769,4242.564102,4525.641025,4241.025641,4647.692307,3999.487180,4083.589743
137,4397.948717,4535.384615,4518.974358,4264.615384,4527.692307,4191.794871,4421.025641,4203.076923,4237.948717,4517.435897,4234.358974,4643.076923,3994.871795,4077.435897
138,4403.076923,4543.076923,4522.051282,4270.769230,4531.794871,4197.435897,4424.102564,4204.615384,4235.897435,4515.897435,4234.358974,4643.589743,3995.384616,4077.435897
139,4403.589743,4544.615384,4521.025641,4274.871794,4533.333333,4200.000000,4424.102564,4207.692307,4235.384615,4520.000000,4236.410256,4646.666666,4002.564102,4081.538461
140,4397.435897,4534.871794,4519.487179,4266.153846,4529.230769,4193.846153,4421.025641,4204.102564,4235.384615,4517.948717,4229.230769,4645.128205,3998.461539,4078.974358
141,4397.948717,4531.794871,4522.051282,4265.128205,4527.179487,4192.820512,4424.615384,4201.538461,4234.871794,4517.435897,4229.743589,4645.128205,3993.846154,4077.948717
142,4398.461538,4532.307692,4518.974358,4270.769230,4527.692307,4192.307692,4423.076923,4196.410256,4226.666666,4515.384615,4235.384615,4643.076923,3999.487180,4078.974358
143,4394.358974,4526.153846,4513.333333,4266.153846,4525.641025,4189.743589,4420.000000,4189.743589,4218.974358,4505.641025,4230.256410,4638.461538,3996.410257,4075.897435
144,4394.358974,4526.666666,4515.384615,4263.589743,4528.205128,4192.307692,4426.153846,4190.256410,4224.615384,4502.051282,4219.487179,4634.358974,3991.794872,4071.282051
145,4392.307692,4527.692307,4511.282051,4264.615384,4527.692307,4190.769230,4426.666666,4191.282051,4227.179487,4503.589743,4212.307692,4631.282051,3995.897436,4068.205128
146,4383.076923,4519.487179,4501.538461,4262.564102,4518.461538,4182.051282,4418.974358,4187.179487,4217.948717,4500.000000,4210.256410,4631.282051,3987.692308,4065.641025
147,4382.051282,4519.487179,4506.153846,4262.564102,4519.487179,4185.641025,4421.025641,4188.717948,4216.923076,4497.435897,4214.871794,4631.282051,3974.871795,4064.615384
148,4389.743589,4523.589743,4512.820512,4261.025641,4524.102564,4190.256410,4426.153846,4195.897435,4226.666666,4500.000000,4219.487179,4630.769230,3976.923077,4066.666666
149,4387.692307,4521.538461,4507.179487,4256.923076,4521.025641,4184.102564,4421.538461,4195.384615,4229.230769,4501.025641,4218.974358,4630.769230,3983.589744,4068.717948
150,4386.153846,4523.589743,4506.153846,4258.974358,4520.512820,4184.615384,4420.000000,4192.820512,4222.564102,4500.512820,4223.076923,4631.794871,3987.179488,4070.769230
151,4390.769230,4525.641025,4511.282051,4265.128205,4522.051282,4190.256410,4424.102564,4194.871794,4220.000000,4502.564102,4226.153846,4629.743589,3983.076924,4070.769230
152,4387.179487,4519.487179,4508.717948,4261.538461,4518.461538,4189.743589,4427.179487,4198.461538,4225.641025,4503.589743,4220.000000,4627.179487,3974.358975,4066.153846
153,4380.512820,4521.538461,4504.615384,4257.435897,4518.461538,4186.153846,4430.256410,4200.000000,4225.128205,4502.051282,4212.820512,4628.717948,3976.923077,4066.153846
154,4377.948717,4521.538461,4504.615384,4261.025641,4518.974358,4185.128205,4425.128205,4197.435897,4212.820512,4495.897435,4209.743589,4625.641025,3983.076924,4067.692307
155,4378.974358,4510.769230,4504.615384,4265.128205,4513.333333,4182.564102,4415.384615,4194.358974,4209.230769,4493.846153,4209.743589,4623.589743,3975.897436,4065.128205
156,4383.076923,4515.897435,4509.230769,4269.230769,4514.871794,4181.025641,4416.410256,4196.923076,4218.461538,4498.974358,4216.923076,4630.256410,3975.384616,4067.692307
157,4386.666666,4528.717948,4513.846153,4269.743589,4520.000000,4186.153846,4423.076923,4197.948717,4222.051282,4502.564102,4222.051282,4633.846153,3985.128206,4074.358974
158,4386.666666,4529.230769,4513.333333,4264.615384,4518.974358,4188.717948,4423.589743,4196.410256,4223.589743,4503.076923,4213.846153,4629.230769,3985.641026,4073.846153
159,4386.153846,4527.179487,4511.282051,4266.153846,4515.384615,4183.076923,4422.564102,4195.384615,4226.153846,4500.000000,4208.205128,4627.692307,3977.948718,4070.256410
160,4387.692307,4525.128205,4509.743589,4271.794871,4514.358974,4181.538461,4420.512820,4192.820512,4218.974358,4497.435897,4217.435897,4627.692307,3979.487180,4071.794871
161,4388.717948,4525.641025,4508.205128,4267.692307,4515.384615,4184.615384,4418.974358,4190.769230,4210.769230,4501.538461,4221.025641,4624.102564,3987.692308,4072.820512
162,4389.743589,4531.282051,4507.179487,4261.538461,4516.923076,4182.564102,4421.538461,4194.871794,4215.897435,4505.641025,4212.307692,4627.179487,3988.205129,4071.282051
163,4386.153846,4530.256410,4503.076923,4263.589743,4515.384615,4178.461538,4418.461538,4192.307692,4219.487179,4501.538461,4208.717948,4630.256410,3982.051283,4066.153846
164,4378.974358,4520.512820,4500.000000,4265.128205,4513.846153,4178.461538,4412.307692,4182.051282,4209.230769,4494.871794,4211.282051,4621.538461,3978.974359,4058.974358
165,4380.512820,4518.461538,4504.615384,4260.000000,4517.435897,4183.076923,4413.846153,4183.589743,4206.153846,4492.307692,4212.820512,4616.410256,3981.025642,4058.461538
166,4384.102564,4520.512820,4507.692307,4256.923076,4518.461538,4187.692307,4417.948717,4192.820512,4213.333333,4493.846153,4212.820512,4621.538461,3986.153847,4062.051282
167,4381.025641,4518.974358,4504.615384,4261.538461,4518.974358,4187.179487,4417.948717,4192.307692,4213.846153,4497.435897,4211.794871,4626.153846,3987.179488,4060.000000
168,4379.487179,4517.435897,4506.153846,4265.641025,4525.128205,4186.153846,4422.564102,4191.282051,4212.307692,4498.461538,4211.794871,4626.153846,3984.102565,4057.948717
169,4380.000000,4518.461538,4513.846153,4263.589743,4528.717948,4191.282051,4426.666666,4192.307692,4218.974358,4497.948717,4218.461538,4625.128205,3984.102565,4057.435897
170,4377.435897,4519.487179,4514.871794,4261.538461,4525.128205,4191.794871,4426.153846,4192.820512,4222.051282,4497.948717,4221.538461,4625.128205,3988.205129,4055.384615
171,4375.897435,4517.435897,4512.820512,4262.564102,4523.076923,4190.256410,4424.615384,4197.435897,4225.128205,4496.410256,4222.564102,4629.743589,3991.794872,4057.435897
172,4379.487179,4517.435897,4512.307692,4263.076923,4525.641025,4191.282051,4425.128205,4201.538461,4231.282051,4497.435897,4226.153846,4635.384615,3989.743590,4061.025641
173,4382.051282,4522.051282,4512.307692,4264.102564,4529.743589,4193.846153,4428.717948,4203.076923,4231.794871,4504.615384,4222.564102,4635.384615,3986.153847,4061.538461
174,4385.128205,4520.512820,4513.333333,4262.051282,4531.794871,4197.435897,4429.230769,4202.051282,4224.102564,4502.051282,4218.461538,4633.846153,3990.769231,4063.589743
175,4388.717948,4518.461538,4514.871794,4260.512820,4528.205128,4195.384615,4424.615384,4199.487179,4221.538461,4496.410256,4228.205128,4636.923076,4001.025641,4070.769230
176,4391.282051,4527.692307,4515.897435,4266.666666,4526.666666,4190.769230,4422.051282,4196.410256,4226.153846,4505.128205,4233.333333,4641.025641,4003.076923,4074.358974
177,4393.333333,4533.846153,4522.051282,4268.205128,4529.743589,4194.871794,4424.615384,4196.923076,4227.692307,4515.897435,4227.692307,4642.051282,3996.410257,4072.820512
178,4395.897435,4531.794871,4527.179487,4265.128205,4533.333333,4202.564102,4425.641025,4202.564102,4224.615384,4515.384615,4231.282051,4638.974358,3997.435898,4073.846153
179,4396.923076,4535.384615,4523.076923,4271.282051,4534.358974,4202.051282,4424.615384,4200.000000,4224.615384,4510.256410,4238.974358,4636.410256,4002.051282,4073.846153
180,4396.410256,4536.923076,4518.461538,4275.384615,4532.307692,4194.871794,4423.589743,4190.769230,4222.051282,4506.666666,4231.794871,4638.461538,3995.384616,4071.794871
181,4390.769230,4527.692307,4516.410256,4266.666666,4524.102564,4189.743589,4418.974358,4188.205128,4211.794871,4495.897435,4221.025641,4636.923076,3980.000000,4064.615384
182,4387.179487,4523.589743,4516.923076,4261.538461,4518.461538,4188.717948,4418.974358,4194.358974,4209.743589,4491.794871,4220.000000,4634.358974,3973.333334,4059.487179
183,4396.410256,4531.794871,4524.102564,4269.743589,4525.641025,4192.307692,4427.692307,4201.538461,4223.076923,4506.153846,4227.179487,4640.000000,3984.102565,4068.205128
184,4401.025641,4533.846153,4527.179487,4271.282051,4528.205128,4194.358974,4431.282051,4205.128205,4229.743589,4513.846153,4228.717948,4642.564102,3990.256411,4070.769230
185,4385.641025,4519.487179,4516.923076,4262.564102,4523.076923,4190.256410,4425.641025,4199.487179,4222.564102,4504.615384,4217.948717,4632.307692,3975.897436,4055.897435
186,4373.846153,4511.794871,4510.256410,4258.461538,4521.025641,4187.179487,4423.076923,4193.333333,4220.512820,4495.897435,4213.846153,4626.153846,3963.589744,4047.692307
187,4384.102564,4522.564102,4515.897435,4265.641025,4522.051282,4190.769230,4425.641025,4201.538461,4227.179487,4498.461538,4220.512820,4632.820512,3972.307693,4055.897435
188,4396.923076,4532.307692,4519.487179,4271.794871,4525.128205,4193.333333,4427.179487,4210.769230,4228.717948,4506.153846,4224.102564,4634.358974,3986.153847,4064.102564
189,4394.358974,4527.692307,4516.923076,4266.666666,4522.051282,4190.769230,4423.076923,4204.102564,4226.666666,4513.333333,4223.076923,4631.794871,3985.128206,4064.615384
190,4387.692307,4520.512820,4516.923076,4261.538461,4520.512820,4188.717948,4424.615384,4198.461538,4227.179487,4515.384615,4223.076923,4633.333333,3978.974359,4060.512820
191,4386.666666,4519.487179,4515.384615,4264.615384,4523.076923,4191.282051,4430.769230,4203.076923,4229.743589,4508.205128,4221.025641,4632.820512,3978.461539,4057.948717
192,4383.076923,4517.948717,4507.179487,4263.589743,4523.589743,4190.769230,4429.743589,4205.641025,4228.205128,4501.538461,4214.358974,4629.743589,3975.384616,4056.923076
193,4377.948717,4516.410256,4503.076923,4256.410256,4521.538461,4188.205128,4426.666666,4202.051282,4223.076923,4501.538461,4213.333333,4626.666666,3969.230770,4052.820512
194,4384.615384,4518.974358,4510.256410,4256.923076,4524.102564,4192.307692,4432.307692,4206.666666,4225.641025,4508.717948,4218.461538,4631.282051,3973.333334,4056.923076
195,4391.794871,4521.025641,4518.461538,4256.410256,4528.717948,4195.897435,4436.923076,4213.846153,4236.410256,4513.333333,4220.512820,4635.897435,3983.076924,4064.102564
196,4385.641025,4517.435897,4516.410256,4248.717948,4525.641025,4190.769230,4431.794871,4211.794871,4240.512820,4513.333333,4217.948717,4633.333333,3982.564103,4060.000000
197,4380.512820,4512.820512,4512.307692,4246.666666,4520.512820,4185.641025,4427.692307,4206.666666,4235.384615,4512.820512,4218.461538,4629.743589,3976.923077,4055.897435
198,4385.641025,4521.025641,4513.846153,4250.769230,4521.538461,4188.717948,4430.256410,4208.205128,4230.769230,4506.666666,4223.076923,4633.846153,3977.435898,4059.487179
199,4386.153846,4527.692307,4515.897435,4253.846153,4523.076923,4191.794871,4431.794871,4206.153846,4228.717948,4500.000000,4222.051282,4632.820512,3974.871795,4060.000000
200,4379.487179,4516.410256,4513.846153,4251.794871,4521.025641,4189.230769,4428.717948,4197.948717,4223.589743,4498.461538,4213.333333,4621.538461,3969.230770,4053.846153
201,4378.974358,4511.794871,4510.769230,4250.769230,4520.000000,4188.205128,4427.692307,4198.461538,4221.538461,4501.025641,4205.641025,4621.025641,3968.205129,4052.820512
202,4383.589743,4521.538461,4512.820512,4253.846153,4521.538461,4189.230769,4430.769230,4203.589743,4225.128205,4504.102564,4207.179487,4629.230769,3969.743590,4056.410256
203,4380.000000,4520.000000,4515.384615,4253.846153,4521.538461,4188.717948,4430.769230,4201.025641,4227.179487,4500.000000,4208.205128,4631.282051,3966.153847,4056.410256
204,4377.435897,4511.794871,4513.846153,4251.282051,4524.102564,4191.794871,4430.256410,4201.025641,4227.179487,4496.923076,4209.230769,4629.230769,3966.666667,4054.871794
205,4378.974358,4512.307692,4509.230769,4250.769230,4523.589743,4192.820512,4432.307692,4204.102564,4225.128205,4497.948717,4207.179487,4625.128205,3970.769231,4054.358974
206,4374.871794,4512.820512,4505.128205,4251.794871,4516.923076,4187.692307,4428.717948,4202.051282,4222.051282,4497.948717,4205.641025,4620.512820,3967.692308,4051.794871
207,4376.923076,4512.820512,4509.743589,4249.230769,4517.435897,4187.692307,4430.769230,4205.641025,4227.179487,4502.051282,4212.820512,4626.153846,3969.230770,4055.384615
208,4388.717948,4519.487179,4518.461538,4247.179487,4523.589743,4193.333333,4436.923076,4214.871794,4236.410256,4508.717948,4220.512820,4635.897435,3980.512821,4066.666666
209,4389.743589,4526.666666,4517.948717,4255.897435,4527.179487,4195.897435,4433.846153,4216.410256,4238.461538,4508.205128,4223.076923,4634.358974,3987.179488,4070.256410
210,4381.025641,4529.743589,4513.846153,4263.589743,4528.717948,4193.846153,4431.794871,4213.333333,4237.435897,4509.743589,4225.641025,4632.307692,3982.051283,4065.128205
211,4378.461538,4527.692307,4512.307692,4260.512820,4527.179487,4191.794871,4437.435897,4209.230769,4234.358974,4517.435897,4224.615384,4632.820512,3974.358975,4063.076923
212,4380.512820,4525.641025,4511.794871,4257.435897,4524.615384,4191.794871,4432.820512,4207.179487,4228.717948,4511.282051,4215.897435,4628.717948,3974.871795,4064.615384
213,4379.487179,4531.282051,4511.794871,4264.615384,4520.512820,4193.333333,4425.641025,4207.179487,4230.256410,4498.461538,4210.769230,4627.692307,3980.000000,4063.589743
214,4381.025641,4536.410256,4512.307692,4267.179487,4516.410256,4189.743589,4428.717948,4206.666666,4233.846153,4502.564102,4213.333333,4630.769230,3984.615385,4064.102564
215,4386.153846,4534.871794,4512.307692,4259.487179,4517.435897,4185.641025,4430.256410,4204.102564,4229.230769,4508.205128,4212.820512,4631.794871,3981.538462,4067.692307
216,4389.743589,4537.948717,4514.871794,4261.025641,4523.076923,4189.743589,4429.230769,4206.153846,4232.820512,4507.179487,4216.410256,4634.871794,3978.974359,4071.794871
217,4391.794871,4541.025641,4518.461538,4266.666666,4524.615384,4190.256410,4432.820512,4210.769230,4238.461538,4507.179487,4222.051282,4637.948717,3985.128206,4072.307692
218,4388.717948,4535.897435,4516.410256,4265.128205,4515.897435,4182.051282,4428.717948,4207.692307,4230.769230,4502.564102,4216.410256,4635.384615,3985.641026,4068.205128
219,4383.076923,4528.717948,4510.769230,4261.538461,4511.794871,4180.000000,4420.512820,4202.051282,4220.512820,4494.871794,4205.128205,4630.256410,3972.307693,4063.589743
220,4377.435897,4523.589743,4507.692307,4261.538461,4512.820512,4181.538461,4417.435897,4197.948717,4215.384615,4492.307692,4203.589743,4624.102564,3961.538462,4057.435897
221,4378.461538,4520.512820,4511.794871,4257.948717,4509.743589,4178.974358,4415.897435,4194.358974,4212.307692,4491.794871,4205.641025,4622.051282,3965.641026,4054.871794
222,4384.102564,4524.615384,4512.820512,4257.435897,4510.256410,4178.461538,4418.974358,4194.871794,4215.384615,4490.769230,4203.589743,4625.641025,3968.717949,4061.025641
223,4380.512820,4529.743589,4508.717948,4260.512820,4515.897435,4181.025641,4426.666666,4196.410256,4221.538461,4492.307692,4203.076923,4624.102564,3964.615385,4063.076923
224,4376.410256,4528.205128,4506.153846,4255.384615,4515.384615,4183.076923,4427.179487,4197.948717,4222.051282,4495.897435,4205.128205,4621.538461,3965.641026,4057.948717
225,4382.564102,4523.589743,4508.717948,4252.820512,4514.358974,4184.615384,4425.128205,4201.025641,4221.538461,4500.000000,4205.128205,4627.179487,3971.794872,4058.974358
226,4386.666666,4522.051282,4512.307692,4262.051282,4518.974358,4187.179487,4430.256410,4207.179487,4226.153846,4503.076923,4206.153846,4632.820512,3974.871795,4066.153846
227,4382.564102,4523.589743,4511.794871,4269.230769,4521.025641,4191.794871,4436.923076,4207.179487,4232.307692,4505.641025,4206.153846,4630.256410,3971.282052,4064.102564
228,4378.974358,4522.051282,4507.179487,4261.025641,4516.410256,4190.769230,4433.333333,4201.538461,4226.666666,4499.487179,4198.461538,4623.076923,3963.076924,4057.435897
229,4378.461538,4518.461538,4502.051282,4250.769230,4511.794871,4180.000000,4425.128205,4194.871794,4212.820512,4487.179487,4190.769230,4617.948717,3957.948718,4057.948717
230,4375.897435,4517.435897,4504.102564,4252.820512,4511.282051,4176.410256,4421.538461,4192.820512,4211.282051,4488.717948,4195.384615,4616.923076,3962.051283,4060.000000
231,4376.410256,4515.897435,4507.179487,4257.435897,4510.769230,4180.512820,4423.589743,4196.923076,4218.461538,4496.410256,4199.487179,4618.461538,3967.179488,4058.461538
232,4380.512820,4520.000000,4509.230769,4257.948717,4511.794871,4181.538461,4428.205128,4202.564102,4223.589743,4503.076923,4201.538461,4622.051282,3964.615385,4062.564102
233,4383.589743,4530.769230,4511.794871,4262.564102,4515.897435,4185.641025,4431.282051,4201.538461,4226.666666,4511.282051,4206.153846,4625.128205,3965.128206,4069.743589
234,4377.435897,4526.153846,4504.615384,4262.564102,4515.897435,4186.666666,4426.666666,4194.871794,4225.641025,4504.615384,4200.000000,4620.512820,3969.230770,4063.589743
235,4368.717948,4512.307692,4493.846153,4247.692307,4505.128205,4178.461538,4422.051282,4192.820512,4219.487179,4490.256410,4185.641025,4613.333333,3964.615385,4051.282051
236,4372.820512,4512.820512,4497.435897,4243.076923,4504.102564,4176.410256,4424.615384,4193.846153,4218.974358,4493.846153,4188.205128,4614.358974,3962.564103,4054.871794
237,4380.512820,4518.974358,4505.641025,4250.769230,4510.769230,4182.051282,4426.666666,4196.410256,4224.102564,4503.076923,4198.461538,4617.948717,3969.230770,4064.615384
238,4377.948717,4515.897435,4502.051282,4248.717948,4507.179487,4179.487179,4423.589743,4195.897435,4223.076923,4500.000000,4196.923076,4619.487179,3967.692308,4064.102564
239,4372.820512,4510.256410,4498.461538,4248.717948,4504.102564,4174.358974,4420.512820,4190.769230,4222.564102,4493.333333,4194.358974,4618.461538,3964.102565,4058.974358
240,4371.282051,4510.256410,4500.000000,4250.769230,4507.692307,4175.384615,4422.564102,4189.743589,4221.025641,4488.717948,4191.282051,4615.384615,3966.666667,4059.487179
241,4371.794871,4513.846153,4500.512820,4246.666666,4507.179487,4177.435897,4421.025641,4194.358974,4212.307692,4492.307692,4184.615384,4614.871794,3959.487180,4063.589743
242,4374.871794,4518.461538,4504.102564,4248.717948,4507.692307,4179.487179,4418.974358,4193.846153,4207.179487,4497.948717,4185.641025,4617.948717,3950.769231,4063.076923
243,4380.512820,4521.025641,4511.794871,4261.538461,4515.897435,4181.025641,4423.589743,4191.794871,4215.897435,4493.846153,4190.256410,4624.615384,3962.564103,4065.128205
244,4381.025641,4520.000000,4509.743589,4261.538461,4516.410256,4180.512820,4425.128205,4194.358974,4220.000000,4493.846153,4189.743589,4625.128205,3975.897436,4070.256410
245,4374.358974,4515.897435,4500.512820,4247.692307,4511.282051,4179.487179,4420.512820,4190.769230,4211.282051,4493.846153,4191.794871,4617.948717,3965.641026,4066.153846
246,4369.743589,4513.333333,4500.000000,4244.102564,4512.820512,4176.923076,4418.461538,4182.564102,4205.128205,4487.692307,4191.794871,4615.897435,3953.333334,4057.948717
247,4367.692307,4512.307692,4500.000000,4249.743589,4510.769230,4175.897435,4418.461538,4182.051282,4207.179487,4485.128205,4184.102564,4618.461538,3958.974359,4055.384615
248,4370.256410,4511.794871,4498.974358,4249.230769,4511.282051,4180.000000,4418.974358,4191.282051,4213.846153,4487.692307,4185.641025,4621.025641,3967.179488,4059.487179
249,4380.000000,4518.461538,4503.589743,4247.179487,4518.461538,4184.615384,4424.615384,4200.000000,4224.102564,4493.846153,4199.487179,4624.615384,3971.794872,4067.692307
250,4380.512820,4523.589743,4504.615384,4249.230769,4517.948717,4182.051282,4428.717948,4197.435897,4225.128205,4498.974358,4196.923076,4623.589743,3973.333334,4069.230769
251,4367.692307,4513.846153,4498.461538,4244.102564,4507.179487,4177.948717,4423.589743,4188.205128,4214.358974,4487.692307,4182.051282,4617.435897,3964.615385,4054.871794
252,4360.000000,4504.102564,4496.410256,4236.410256,4507.179487,4175.897435,4421.025641,4186.153846,4207.179487,4476.410256,4182.051282,4612.820512,3958.461539,4045.128205
253,4362.051282,4505.128205,4498.461538,4238.974358,4512.307692,4176.923076,4424.102564,4192.307692,4212.307692,4484.102564,4186.153846,4616.410256,3962.564103,4050.769230
254,4360.512820,4506.153846,4500.000000,4240.512820,4509.230769,4178.974358,4422.051282,4193.333333,4217.435897,4489.230769,4185.641025,4617.948717,3964.615385,4049.743589
255,4353.846153,4498.461538,4496.410256,4234.358974,4503.589743,4175.897435,4413.846153,4189.230769,4210.256410,4482.051282,4184.102564,4613.846153,3963.589744,4042.564102
256,4353.846153,4494.871794,4494.871794,4236.410256,4502.564102,4170.769230,4413.333333,4191.282051,4205.128205,4480.000000,4183.076923,4614.358974,3964.615385,4042.051282
257,4362.564102,4506.666666,4502.051282,4248.717948,4508.205128,4174.358974,4421.538461,4194.358974,4216.923076,4484.102564,4185.641025,4623.589743,3967.692308,4047.692307
258,4368.205128,4511.282051,4506.666666,4253.333333,4510.769230,4178.461538,4421.538461,4193.846153,4223.076923,4485.641025,4192.307692,4626.153846,3974.871795,4052.820512
259,4366.666666,4504.102564,4502.051282,4245.128205,4505.128205,4174.871794,4415.897435,4188.717948,4211.794871,4483.076923,4193.846153,4622.564102,3977.435898,4052.307692
260,4366.666666,4507.692307,4500.000000,4241.538461,4503.589743,4171.794871,4415.384615,4189.230769,4205.128205,4483.076923,4193.333333,4625.128205,3970.256411,4050.769230
261,4372.820512,4513.333333,4505.128205,4246.666666,4508.205128,4172.307692,4416.923076,4193.333333,4209.743589,4484.102564,4196.923076,4627.179487,3967.179488,4054.871794
262,4371.794871,4509.743589,4506.666666,4246.153846,4509.743589,4171.794871,4413.846153,4189.230769,4210.769230,4480.000000,4191.794871,4624.102564,3969.230770,4054.871794
263,4363.076923,4506.666666,4503.076923,4242.564102,4507.692307,4169.230769,4409.743589,4180.000000,4204.102564,4476.923076,4181.538461,4620.000000,3966.666667,4048.205128
