,AF3,F7,F3,FC5,T7,P7,O1,O2,P8,T8,FC6,F4,F8,AF4
0,4421.025641,4536.410256,4490.769230,4450.256410,4618.461538,4216.410256,4421.025641,4233.333333,4439.487179,4520.512820,4265.641025,4688.205128,3955.384616,4076.410256
1,4422.051282,4529.230769,4488.717948,4452.820512,4616.923076,4216.410256,4424.102564,4241.025641,4446.153846,4525.128205,4267.692307,4689.230769,3964.102565,4076.923076
2,4429.230769,4530.256410,4495.897435,4458.461538,4618.461538,4220.000000,4427.692307,4248.717948,4457.948717,4533.333333,4271.794871,4697.435897,3976.923077,4083.589743
3,4434.358974,4539.487179,4500.512820,4461.538461,4618.974358,4225.128205,4423.589743,4250.256410,4465.128205,4542.564102,4278.974358,4704.615384,3982.051283,4090.769230
4,4434.358974,4537.948717,4499.487179,4461.538461,4615.384615,4218.974358,4420.512820,4247.179487,4462.564102,4546.153846,4281.538461,4704.615384,3979.487180,4091.794871
5,4433.846153,4531.794871,4501.025641,4456.410256,4614.358974,4212.820512,4425.128205,4247.179487,4456.410256,4535.384615,4278.974358,4703.076923,3974.871795,4090.769230
6,4429.743589,4526.666666,4498.974358,4448.717948,4612.307692,4214.871794,4428.205128,4244.102564,4449.230769,4518.974358,4274.871794,4703.076923,3965.641026,4086.153846
7,4420.512820,4518.461538,4489.743589,4449.230769,4605.128205,4215.384615,4426.666666,4238.461538,4441.025641,4520.000000,4266.666666,4697.948717,3955.897436,4077.948717
8,4415.384615,4512.820512,4484.615384,4453.333333,4605.641025,4210.256410,4427.692307,4235.384615,4435.384615,4530.256410,4257.948717,4691.794871,3952.820513,4072.307692
9,4419.487179,4522.051282,4490.769230,4456.410256,4614.871794,4208.205128,4424.615384,4236.410256,4434.871794,4531.282051,4257.948717,4695.384615,3954.358975,4073.333333
10,4426.666666,4532.307692,4496.923076,4462.051282,4617.435897,4211.794871,4420.000000,4238.974358,4442.051282,4530.769230,4266.666666,4702.051282,3956.410257,4080.000000
11,4428.717948,4529.230769,4495.897435,4463.076923,4615.384615,4212.307692,4421.025641,4240.000000,4446.666666,4532.820512,4272.307692,4702.564102,3960.512821,4083.589743
12,4426.153846,4526.666666,4494.871794,4456.410256,4616.923076,4209.230769,4419.487179,4239.487179,4445.128205,4531.794871,4267.179487,4700.000000,3960.512821,4080.512820
13,4424.102564,4530.256410,4495.897435,4455.384615,4616.923076,4206.666666,4413.846153,4238.461538,4440.512820,4525.128205,4261.538461,4697.948717,3956.923077,4077.435897
14,4421.538461,4529.230769,4497.948717,4462.564102,4615.384615,4206.153846,4413.333333,4236.923076,4436.923076,4516.923076,4261.025641,4696.410256,3955.384616,4077.948717
15,4422.051282,4527.179487,4495.897435,4466.153846,4616.923076,4210.256410,4418.461538,4236.410256,4436.410256,4516.923076,4264.102564,4695.897435,3957.948718,4077.948717
16,4426.666666,4531.282051,4494.871794,4465.128205,4616.410256,4217.948717,4428.205128,4236.923076,4442.051282,4527.179487,4268.205128,4696.923076,3959.487180,4078.974358
17,4429.230769,4535.384615,4497.435897,4467.692307,4615.384615,4222.051282,4433.333333,4235.897435,4447.692307,4534.871794,4275.897435,4696.923076,3960.512821,4083.076923
18,4426.153846,4529.743589,4493.846153,4465.128205,4614.358974,4216.410256,4425.641025,4232.307692,4441.025641,4533.333333,4270.256410,4693.333333,3964.102565,4081.025641
19,4421.025641,4520.512820,4487.179487,4456.923076,4608.205128,4208.717948,4414.871794,4227.179487,4432.307692,4529.230769,4257.948717,4688.717948,3959.487180,4074.871794
20,4418.974358,4523.076923,4490.256410,4454.358974,4605.641025,4209.230769,4420.000000,4227.692307,4436.923076,4528.205128,4263.589743,4690.256410,3953.333334,4074.871794
21,4418.461538,4528.205128,4496.923076,4461.538461,4612.307692,4216.410256,4426.666666,4231.282051,4437.435897,4526.666666,4268.717948,4692.820512,3952.820513,4075.384615
22,4416.923076,4526.666666,4490.769230,4465.128205,4615.384615,4216.923076,4418.974358,4231.794871,4432.820512,4524.615384,4263.589743,4692.820512,3955.384616,4074.871794
23,4423.076923,4530.256410,4486.153846,4465.641025,4612.307692,4211.794871,4415.384615,4231.282051,4441.025641,4527.692307,4268.205128,4697.948717,3962.564103,4080.512820
24,4429.230769,4532.820512,4493.846153,4469.230769,4613.846153,4208.717948,4417.435897,4230.769230,4449.743589,4535.897435,4276.923076,4703.076923,3969.743590,4085.128205
25,4424.102564,4528.717948,4495.897435,4467.692307,4616.410256,4207.179487,4413.333333,4226.666666,4443.589743,4533.846153,4274.358974,4698.974358,3969.230770,4080.512820
26,4423.076923,4533.846153,4490.769230,4463.076923,4617.435897,4211.794871,4413.333333,4224.615384,4440.000000,4523.076923,4271.282051,4696.410256,3966.666667,4081.025641
27,4432.307692,4540.512820,4494.871794,4469.230769,4619.487179,4220.000000,4421.538461,4234.358974,4448.205128,4530.256410,4273.846153,4700.512820,3971.282052,4092.307692
28,4434.358974,4536.410256,4500.512820,4476.923076,4623.076923,4221.538461,4424.615384,4243.589743,4453.333333,4545.641025,4277.435897,4703.589743,3972.307693,4094.358974
29,4427.692307,4534.871794,4498.461538,4473.333333,4622.564102,4216.410256,4420.512820,4237.435897,4445.641025,4540.000000,4278.461538,4701.538461,3967.179488,4083.076923
30,4426.666666,4538.974358,4497.435897,4468.205128,4618.974358,4215.384615,4421.538461,4228.205128,4438.461538,4529.230769,4273.333333,4697.948717,3966.153847,4077.435897
31,4427.692307,4538.461538,4499.487179,4473.333333,4620.512820,4222.564102,4427.179487,4228.717948,4443.076923,4535.897435,4273.846153,4698.974358,3969.230770,4082.564102
32,4422.051282,4531.282051,4492.307692,4471.794871,4620.512820,4222.051282,4425.641025,4227.179487,4440.000000,4532.307692,4269.743589,4694.358974,3964.615385,4080.000000
33,4414.871794,4522.564102,4486.153846,4461.025641,4614.358974,4212.307692,4417.948717,4221.025641,4429.230769,4516.410256,4258.974358,4683.076923,3952.820513,4070.256410
34,4412.820512,4524.615384,4490.256410,4461.538461,4612.820512,4207.179487,4414.871794,4222.051282,4435.897435,4520.512820,4264.102564,4682.564102,3952.820513,4069.743589
35,4417.435897,4530.769230,4494.871794,4468.717948,4614.871794,4208.717948,4418.461538,4226.153846,4443.589743,4532.307692,4281.025641,4689.230769,3961.538462,4075.384615
36,4421.025641,4526.666666,4496.923076,4467.179487,4614.358974,4207.692307,4418.974358,4231.794871,4437.435897,4531.282051,4283.589743,4692.820512,3965.128206,4075.384615
37,4421.025641,4521.538461,4495.384615,4464.102564,4611.794871,4205.641025,4417.948717,4238.461538,4435.897435,4530.256410,4273.333333,4695.384615,3961.025642,4073.333333
38,4417.948717,4528.717948,4492.307692,4465.641025,4609.743589,4209.230769,4420.000000,4232.820512,4439.487179,4529.743589,4268.717948,4694.358974,3957.435898,4074.358974
39,4414.871794,4531.794871,4492.307692,4463.589743,4609.230769,4210.256410,4420.512820,4222.564102,4434.871794,4527.179487,4276.410256,4692.307692,3958.461539,4072.820512
40,4414.358974,4526.666666,4490.256410,4463.076923,4607.692307,4208.717948,4419.487179,4223.076923,4428.717948,4526.153846,4281.538461,4692.307692,3956.410257,4070.256410
41,4412.307692,4524.102564,4483.076923,4465.641025,4607.179487,4210.256410,4419.487179,4222.564102,4426.666666,4524.615384,4268.717948,4686.666666,3954.871795,4068.717948
42,4413.333333,4526.666666,4483.076923,4464.102564,4611.794871,4216.923076,4420.512820,4220.000000,4429.230769,4526.666666,4260.000000,4684.102564,3961.025642,4071.282051
43,4420.512820,4532.307692,4487.692307,4461.025641,4617.948717,4225.128205,4425.128205,4231.794871,4440.000000,4535.384615,4271.794871,4694.358974,3966.153847,4076.923076
44,4423.076923,4536.923076,4485.128205,4457.948717,4616.410256,4224.615384,4430.769230,4243.076923,4450.256410,4538.461538,4278.974358,4696.923076,3962.564103,4078.461538
45,4418.461538,4537.435897,4483.589743,4456.923076,4610.256410,4215.897435,4430.769230,4240.000000,4447.692307,4532.307692,4277.435897,4694.358974,3959.487180,4078.974358
46,4423.589743,4541.025641,4489.743589,4459.487179,4608.205128,4213.846153,4424.615384,4240.512820,4442.564102,4527.179487,4282.564102,4704.102564,3964.102565,4085.641025
47,4432.307692,4548.205128,4495.897435,4459.487179,4611.794871,4215.897435,4420.000000,4245.641025,4446.666666,4528.717948,4285.128205,4708.717948,3965.641026,4092.307692
48,4432.307692,4550.256410,4494.871794,4460.512820,4620.000000,4218.461538,4419.487179,4244.615384,4452.307692,4534.358974,4276.410256,4701.025641,3965.641026,4093.846153
49,4431.282051,4553.333333,4492.307692,4468.717948,4620.512820,4223.076923,4421.025641,4238.461538,4446.153846,4534.358974,4272.820512,4699.487179,3969.230770,4093.846153
50,4433.846153,4557.435897,4493.333333,4469.230769,4616.923076,4221.025641,4421.538461,4230.769230,4432.307692,4529.230769,4277.948717,4702.564102,3969.230770,4093.333333
51,4438.461538,4558.974358,4497.435897,4465.641025,4618.974358,4216.923076,4421.538461,4229.743589,4430.256410,4529.743589,4285.128205,4704.615384,3968.717949,4096.410256
52,4436.923076,4553.846153,4497.948717,4465.641025,4617.948717,4217.948717,4420.000000,4234.358974,4432.820512,4532.307692,4284.615384,4704.615384,3968.717949,4098.974358
53,4429.743589,4545.128205,4490.256410,4462.564102,4611.794871,4214.358974,4418.461538,4235.897435,4429.230769,4529.230769,4278.461538,4702.051282,3965.641026,4093.846153
54,4426.666666,4541.538461,4488.205128,4457.948717,4612.307692,4213.846153,4424.615384,4240.512820,4432.820512,4527.692307,4272.307692,4702.564102,3963.589744,4089.743589
55,4431.282051,4544.615384,4493.846153,4459.487179,4616.923076,4226.153846,4434.358974,4252.307692,4446.153846,4530.769230,4267.692307,4705.128205,3962.051283,4094.358974
56,4431.794871,4548.205128,4490.769230,4462.564102,4615.384615,4231.282051,4436.923076,4259.487179,4449.230769,4533.846153,4271.282051,4701.538461,3959.487180,4095.384615
57,4424.102564,4544.102564,4482.051282,4458.461538,4613.333333,4224.615384,4434.358974,4257.435897,4441.025641,4533.846153,4278.461538,4696.410256,3962.051283,4089.230769
58,4418.461538,4534.358974,4482.564102,4453.333333,4613.846153,4223.589743,4433.846153,4253.333333,4437.435897,4532.307692,4275.897435,4693.846153,3963.589744,4084.615384
59,4416.923076,4532.820512,4484.615384,4453.846153,4613.333333,4230.769230,4436.923076,4252.307692,4436.923076,4532.820512,4269.743589,4688.717948,3957.948718,4082.564102
60,4415.384615,4537.948717,4482.564102,4457.435897,4613.846153,4233.846153,4436.923076,4252.820512,4435.384615,4531.794871,4269.743589,4684.102564,3953.846154,4080.512820
61,4415.897435,4537.435897,4481.025641,4455.384615,4612.820512,4232.820512,4434.871794,4248.205128,4436.923076,4530.769230,4270.256410,4683.589743,3951.794872,4082.051282
62,4418.974358,4537.435897,4482.051282,4454.358974,4610.769230,4232.820512,4433.333333,4245.128205,4438.461538,4530.256410,4269.743589,4688.205128,3955.384616,4085.128205
63,4424.615384,4544.615384,4487.692307,4463.589743,4611.794871,4234.871794,4432.820512,4246.153846,4439.487179,4528.717948,4272.820512,4695.384615,3965.128206,4087.692307
64,4424.615384,4546.153846,4488.205128,4469.230769,4615.897435,4229.230769,4426.153846,4243.076923,4435.897435,4528.717948,4271.282051,4696.410256,3967.692308,4089.230769
65,4420.512820,4539.487179,4487.179487,4464.102564,4612.307692,4218.974358,4419.487179,4235.384615,4423.589743,4529.230769,4273.846153,4696.410256,3958.461539,4088.717948
66,4423.589743,4535.897435,4493.846153,4458.461538,4604.615384,4220.000000,4422.051282,4235.897435,4415.897435,4530.769230,4279.487179,4701.025641,3953.846154,4091.794871
67,4427.692307,4537.948717,4497.435897,4461.538461,4606.153846,4224.102564,4425.641025,4242.564102,4422.051282,4529.743589,4268.205128,4702.564102,3961.025642,4093.846153
68,4422.051282,4537.948717,4488.717948,4463.076923,4607.692307,4218.974358,4423.589743,4244.102564,4427.692307,4526.666666,4258.974358,4698.974358,3963.589744,4086.666666
69,4417.435897,4532.820512,4478.461538,4455.897435,4607.179487,4215.384615,4423.589743,4244.615384,4427.179487,4526.666666,4274.358974,4695.897435,3956.923077,4081.025641
70,4418.974358,4529.230769,4480.000000,4452.307692,4612.307692,4220.000000,4427.179487,4247.692307,4429.743589,4530.769230,4284.615384,4695.897435,3954.358975,4082.051282
71,4415.897435,4534.871794,4482.564102,4455.897435,4614.871794,4225.641025,4424.615384,4245.128205,4431.282051,4532.820512,4272.820512,4694.871794,3959.487180,4080.000000
72,4415.897435,4538.461538,4482.564102,4463.076923,4613.846153,4226.153846,4423.589743,4238.974358,4429.743589,4530.256410,4268.717948,4696.410256,3962.564103,4081.025641
73,4419.487179,4536.410256,4485.128205,4465.641025,4614.871794,4226.153846,4429.230769,4239.487179,4429.743589,4531.794871,4275.384615,4699.487179,3962.051283,4084.102564
74,4412.307692,4533.846153,4484.615384,4462.051282,4610.256410,4224.102564,4426.153846,4239.487179,4424.102564,4532.307692,4274.358974,4693.333333,3955.384616,4078.974358
75,4406.153846,4527.692307,4480.000000,4455.384615,4601.538461,4218.461538,4416.923076,4232.820512,4414.871794,4524.102564,4265.128205,4688.717948,3946.666667,4075.384615
76,4412.820512,4526.153846,4483.076923,4454.871794,4603.076923,4215.384615,4416.923076,4233.333333,4415.384615,4518.974358,4261.538461,4694.871794,3951.282052,4080.512820
77,4420.000000,4532.307692,4492.307692,4459.487179,4608.205128,4217.948717,4420.000000,4239.487179,4421.025641,4525.641025,4270.256410,4699.487179,3962.564103,4084.102564
78,4417.948717,4533.846153,4491.794871,4460.000000,4611.282051,4222.051282,4422.564102,4240.512820,4421.538461,4532.820512,4271.282051,4697.948717,3962.051283,4083.076923
79,4414.871794,4530.256410,4488.717948,4462.051282,4613.333333,4224.102564,4426.153846,4239.487179,4422.051282,4530.256410,4262.051282,4694.871794,3955.897436,4081.025641
80,4414.871794,4534.358974,4492.820512,4465.641025,4613.846153,4222.051282,4423.589743,4236.923076,4418.974358,4525.641025,4261.025641,4691.794871,3953.846154,4075.897435
81,4417.948717,4541.025641,4500.000000,4464.615384,4617.435897,4224.102564,4424.102564,4237.435897,4417.948717,4527.692307,4267.179487,4693.846153,3957.948718,4077.948717
82,4424.102564,4541.538461,4502.051282,4465.641025,4619.487179,4230.256410,4431.282051,4242.564102,4416.923076,4533.846153,4272.820512,4701.025641,3960.000000,4085.641025
83,4423.076923,4538.461538,4499.487179,4467.179487,4614.871794,4226.153846,4425.128205,4237.435897,4404.615384,4530.256410,4273.846153,4700.512820,3957.948718,4086.153846
84,4417.435897,4535.897435,4497.435897,4461.538461,4610.256410,4218.974358,4413.333333,4231.794871,4397.948717,4523.076923,4265.641025,4699.487179,3965.128206,4082.564102
85,4415.384615,4531.282051,4493.333333,4451.282051,4607.179487,4218.974358,4412.307692,4234.871794,4406.666666,4526.666666,4256.410256,4697.948717,3972.820513,4082.051282
86,4416.923076,4530.769230,4491.282051,4451.794871,4607.692307,4218.974358,4413.333333,4235.384615,4409.230769,4531.282051,4263.589743,4692.820512,3968.205129,4081.538461
87,4422.564102,4538.974358,4497.435897,4465.128205,4615.384615,4222.564102,4417.948717,4236.923076,4407.692307,4527.179487,4273.846153,4696.923076,3966.153847,4086.666666
88,4426.666666,4542.564102,4503.076923,4471.282051,4616.923076,4226.153846,4423.589743,4242.051282,4414.358974,4525.641025,4273.846153,4704.102564,3971.282052,4092.820512
89,4424.615384,4536.923076,4500.000000,4463.589743,4606.153846,4220.000000,4416.410256,4242.564102,4416.410256,4535.897435,4272.307692,4698.974358,3969.743590,4086.153846
90,4423.076923,4534.871794,4496.923076,4461.538461,4602.051282,4216.410256,4412.307692,4241.025641,4411.794871,4542.564102,4273.846153,4694.358974,3967.179488,4083.076923
91,4427.179487,4540.512820,4503.076923,4466.153846,4606.666666,4223.589743,4418.974358,4245.128205,4407.692307,4536.410256,4279.487179,4698.461538,3972.820513,4092.820512
92,4429.743589,4543.589743,4504.615384,4467.179487,4608.205128,4225.641025,4417.948717,4246.666666,4407.179487,4535.384615,4282.564102,4700.512820,3976.410257,4094.358974
93,4426.153846,4540.512820,4501.025641,4468.205128,4606.666666,4225.641025,4415.897435,4244.102564,4410.256410,4542.564102,4279.487179,4700.512820,3973.333334,4086.153846
94,4419.487179,4534.871794,4496.410256,4466.153846,4605.641025,4228.205128,4421.025641,4241.538461,4407.692307,4537.948717,4271.282051,4696.410256,3962.564103,4080.512820
95,4413.846153,4530.256410,4494.358974,4458.461538,4605.128205,4224.615384,4422.051282,4239.487179,4401.538461,4528.717948,4264.102564,4690.256410,3954.358975,4076.410256
96,4412.307692,4529.230769,4496.410256,4454.871794,4606.666666,4223.076923,4420.512820,4241.538461,4400.000000,4530.769230,4265.641025,4690.256410,3958.461539,4074.871794
97,4406.153846,4523.076923,4493.333333,4453.333333,4602.564102,4224.102564,4421.025641,4238.461538,4394.358974,4532.307692,4263.589743,4688.717948,3958.461539,4071.282051
98,4398.461538,4514.358974,4484.615384,4447.179487,4597.435897,4220.000000,4416.923076,4231.794871,4385.128205,4525.128205,4252.820512,4679.487179,3950.769231,4063.589743
99,4404.615384,4520.000000,4484.615384,4448.717948,4602.051282,4216.923076,4414.358974,4234.358974,4389.230769,4529.230769,4254.358974,4684.102564,3954.358975,4068.717948
100,4411.282051,4526.153846,4487.692307,4457.435897,4605.128205,4215.897435,4413.846153,4233.846153,4394.358974,4541.025641,4268.205128,4691.794871,3961.025642,4074.871794
101,4400.000000,4516.410256,4478.461538,4453.846153,4600.512820,4211.282051,4406.666666,4225.128205,4384.615384,4536.923076,4266.666666,4679.487179,3953.333334,4061.538461
102,4393.846153,4513.846153,4471.794871,4449.743589,4601.025641,4214.358974,4409.230769,4229.743589,4381.538461,4532.307692,4257.948717,4674.358974,3955.897436,4059.487179
103,4406.153846,4523.589743,4481.538461,4458.461538,4605.641025,4224.102564,4421.025641,4244.102564,4393.333333,4543.076923,4267.179487,4689.743589,3970.256411,4075.897435
104,4417.948717,4530.769230,4493.333333,4467.179487,4606.153846,4225.128205,4423.589743,4250.769230,4398.461538,4555.897435,4275.897435,4697.948717,3975.897436,4080.512820
105,4420.000000,4533.846153,4498.974358,4465.641025,4604.615384,4223.589743,4422.564102,4251.282051,4397.435897,4555.897435,4275.897435,4696.923076,3973.846154,4078.974358
106,4416.923076,4532.307692,4495.897435,4460.512820,4604.102564,4222.564102,4422.564102,4246.153846,4401.538461,4546.666666,4272.820512,4699.487179,3968.205129,4079.487179
107,4412.820512,4529.230769,4488.717948,4462.051282,4604.615384,4214.358974,4413.846153,4238.974358,4400.512820,4545.641025,4270.256410,4697.435897,3965.128206,4074.871794
108,4411.794871,4528.717948,4490.256410,4464.615384,4608.717948,4210.256410,4406.666666,4236.923076,4386.153846,4546.153846,4269.743589,4690.256410,3962.564103,4070.769230
109,4413.333333,4531.282051,4492.820512,4465.641025,4609.743589,4214.871794,4413.333333,4237.435897,4378.461538,4535.897435,4268.205128,4691.282051,3961.538462,4073.333333
110,4415.897435,4532.307692,4489.230769,4466.153846,4602.051282,4218.974358,4419.487179,4238.461538,4385.641025,4530.256410,4268.717948,4696.923076,3964.615385,4076.923076
111,4415.897435,4530.256410,4488.205128,4462.051282,4597.948717,4218.461538,4417.948717,4238.974358,4388.205128,4541.538461,4270.256410,4696.410256,3966.666667,4077.948717
112,4410.256410,4525.641025,4486.666666,4459.487179,4601.538461,4216.923076,4418.974358,4233.846153,4383.076923,4545.641025,4263.589743,4691.794871,3962.564103,4075.384615
113,4408.205128,4525.641025,4483.076923,4465.128205,4601.538461,4217.948717,4421.538461,4231.794871,4382.051282,4543.589743,4256.923076,4690.256410,3960.000000,4071.794871
114,4413.846153,4527.692307,4486.153846,4470.256410,4601.025641,4220.000000,4423.589743,4240.000000,4386.666666,4551.282051,4263.589743,4693.846153,3966.153847,4074.358974
115,4415.384615,4521.538461,4486.153846,4467.179487,4603.076923,4223.076923,4428.717948,4247.692307,4393.333333,4550.769230,4268.717948,4696.410256,3969.230770,4077.948717
116,4410.256410,4519.487179,4482.051282,4468.205128,4601.025641,4223.076923,4431.282051,4248.717948,4396.923076,4543.076923,4265.641025,4694.871794,3963.589744,4075.384615
117,4406.666666,4525.641025,4483.076923,4470.256410,4602.051282,4224.102564,4428.205128,4244.102564,4392.820512,4544.102564,4270.769230,4694.871794,3957.948718,4071.282051
118,4406.666666,4530.256410,4483.589743,4465.641025,4610.769230,4227.179487,4426.666666,4238.974358,4385.128205,4546.153846,4275.384615,4694.358974,3959.487180,4072.820512
119,4406.666666,4526.666666,4483.076923,4466.666666,4614.358974,4229.230769,4429.743589,4238.461538,4386.153846,4547.179487,4268.205128,4691.794871,3960.000000,4074.871794
120,4405.128205,4522.051282,4484.615384,4470.769230,4608.717948,4228.717948,4431.794871,4240.000000,4388.717948,4549.230769,4264.102564,4692.820512,3957.948718,4071.282051
121,4402.051282,4521.538461,4482.564102,4466.153846,4605.641025,4223.076923,4427.692307,4237.948717,4383.589743,4542.051282,4262.564102,4694.358974,3962.051283,4066.153846
122,4403.076923,4520.512820,4481.025641,4462.051282,4605.641025,4216.410256,4421.538461,4237.435897,4386.153846,4535.897435,4262.051282,4692.307692,3969.230770,4068.205128
123,4410.769230,4523.076923,4486.666666,4468.205128,4603.589743,4216.410256,4420.512820,4241.025641,4396.410256,4551.794871,4272.307692,4693.846153,3972.820513,4076.923076
124,4414.358974,4531.794871,4489.743589,4467.692307,4600.000000,4222.564102,4424.615384,4242.564102,4396.923076,4563.076923,4282.051282,4694.871794,3975.384616,4080.512820
125,4411.794871,4535.897435,4486.666666,4462.051282,4603.076923,4225.128205,4425.641025,4241.538461,4397.435897,4554.871794,4277.435897,4693.333333,3978.974359,4077.435897
126,4409.743589,4531.282051,4484.615384,4468.205128,4611.282051,4226.666666,4428.717948,4242.051282,4401.025641,4551.794871,4271.282051,4693.333333,3978.461539,4074.871794
127,4408.717948,4529.743589,4484.102564,4471.282051,4612.307692,4232.820512,4434.871794,4243.589743,4396.923076,4557.948717,4278.461538,4692.307692,3974.358975,4075.384615
128,4410.769230,4532.820512,4490.769230,4466.153846,4605.128205,4231.794871,4433.333333,4245.128205,4393.333333,4556.923076,4284.615384,4693.846153,3975.384616,4080.000000
129,4413.333333,4530.256410,4497.435897,4464.615384,4600.512820,4221.538461,4424.102564,4240.512820,4389.743589,4547.179487,4280.512820,4697.948717,3972.307693,4080.000000
130,4410.256410,4525.128205,4488.205128,4462.564102,4601.025641,4218.974358,4420.000000,4233.846153,4386.153846,4544.102564,4273.333333,4690.256410,3961.025642,4070.769230
131,4406.153846,4524.615384,4481.025641,4462.564102,4601.538461,4223.589743,4426.153846,4235.384615,4392.307692,4550.256410,4271.282051,4681.025641,3958.461539,4066.666666
132,4404.102564,4523.589743,4485.128205,4467.692307,4603.076923,4220.512820,4430.769230,4240.000000,4398.461538,4551.794871,4268.717948,4684.615384,3958.974359,4066.153846
133,4401.538461,4516.410256,4484.615384,4464.102564,4602.564102,4216.923076,4429.743589,4240.000000,4395.897435,4547.692307,4269.743589,4688.205128,3953.846154,4062.051282
134,4404.102564,4510.256410,4480.512820,4459.487179,4600.000000,4222.564102,4431.282051,4240.512820,4397.435897,4548.717948,4272.820512,4689.230769,3955.897436,4064.102564
135,4409.230769,4514.358974,4483.076923,4461.538461,4601.025641,4226.153846,4434.358974,4243.076923,4404.102564,4553.846153,4274.871794,4691.794871,3966.666667,4067.692307
136,4411.794871,4523.589743,4486.153846,4462.564102,4604.102564,4224.102564,4431.282051,4245.128205,4409.230769,4555.897435,4282.051282,4692.820512,3968.205129,4066.666666
137,4411.282051,4527.179487,4486.666666,4461.538461,4602.051282,4224.102564,4422.564102,4242.051282,4408.717948,4554.358974,4287.692307,4693.333333,3963.589744,4070.256410
138,4415.897435,4528.205128,4491.794871,4465.128205,4603.076923,4225.641025,4425.128205,4241.025641,4404.615384,4556.410256,4289.743589,4696.923076,3970.769231,4080.000000
139,4422.051282,4536.410256,4496.923076,4470.769230,4609.230769,4227.692307,4433.846153,4245.641025,4409.230769,4560.000000,4293.333333,4702.564102,3981.538462,4083.589743
140,4417.948717,4539.487179,4491.794871,4468.717948,4607.692307,4226.666666,4431.282051,4246.153846,4412.307692,4555.897435,4294.358974,4700.000000,3975.384616,4080.000000
141,4410.256410,4535.897435,4483.076923,4462.051282,4601.538461,4224.615384,4424.615384,4240.000000,4403.076923,4547.179487,4284.615384,4690.256410,3960.512821,4074.871794
142,4407.179487,4534.871794,4481.025641,4458.974358,4602.051282,4222.564102,4422.564102,4237.435897,4398.461538,4544.102564,4271.282051,4684.615384,3957.435898,4068.717948
143,4407.179487,4535.897435,4481.538461,4455.897435,4603.076923,4218.461538,4421.025641,4239.487179,4402.051282,4545.128205,4266.666666,4684.615384,3962.564103,4068.205128
144,4409.743589,4538.461538,4480.512820,4455.897435,4600.000000,4217.435897,4418.461538,4241.538461,4400.512820,4546.153846,4269.743589,4687.179487,3961.538462,4073.333333
145,4414.358974,4545.641025,4480.000000,4464.102564,4600.512820,4219.487179,4419.487179,4243.589743,4398.974358,4549.743589,4270.769230,4690.769230,3957.435898,4075.384615
146,4415.384615,4547.179487,4480.000000,4466.153846,4605.641025,4222.051282,4420.512820,4244.615384,4403.076923,4549.230769,4272.307692,4689.743589,3962.051283,4074.871794
147,4413.333333,4544.615384,4477.948717,4457.948717,4607.179487,4220.000000,4416.923076,4241.538461,4401.538461,4545.641025,4273.846153,4684.615384,3970.256411,4075.384615
148,4413.846153,4546.666666,4477.948717,4458.461538,4604.102564,4218.461538,4414.871794,4241.025641,4402.051282,4546.153846,4269.743589,4684.102564,3970.256411,4079.487179
149,4416.923076,4546.666666,4482.051282,4460.000000,4601.538461,4219.487179,4416.410256,4242.051282,4403.589743,4546.153846,4271.282051,4689.743589,3965.128206,4081.538461
150,4421.025641,4545.128205,4488.205128,4453.333333,4603.589743,4222.564102,4420.000000,4243.076923,4400.512820,4543.589743,4280.000000,4695.384615,3967.179488,4082.564102
151,4418.974358,4547.692307,4487.179487,4454.358974,4605.128205,4222.564102,4424.102564,4244.615384,4401.538461,4543.589743,4277.948717,4697.435897,3969.743590,4083.589743
152,4414.358974,4545.641025,4483.076923,4460.512820,4605.128205,4219.487179,4424.615384,4248.205128,4406.153846,4544.102564,4270.256410,4692.307692,3963.076924,4082.051282
153,4415.897435,4539.487179,4483.589743,4461.025641,4605.641025,4223.589743,4424.615384,4252.307692,4407.692307,4540.000000,4271.794871,4691.282051,3954.871795,4079.487179
154,4411.282051,4531.282051,4481.538461,4455.897435,4601.025641,4221.538461,4422.564102,4248.717948,4401.538461,4530.769230,4267.692307,4691.282051,3951.794872,4076.410256
155,4402.564102,4526.666666,4480.000000,4451.282051,4598.461538,4213.846153,4416.410256,4241.538461,4395.897435,4527.179487,4263.076923,4686.666666,3952.307693,4075.384615
156,4409.230769,4531.282051,4485.128205,4450.256410,4607.692307,4222.564102,4420.512820,4245.128205,4401.538461,4537.435897,4274.358974,4689.230769,3955.384616,4077.948717
157,4416.410256,4534.358974,4488.717948,4453.333333,4610.769230,4232.820512,4429.743589,4254.358974,4406.666666,4545.641025,4278.974358,4695.897435,3955.384616,4079.487179
158,4409.230769,4530.256410,4487.692307,4456.410256,4601.538461,4227.179487,4424.615384,4252.820512,4401.025641,4541.538461,4269.743589,4692.820512,3948.717949,4077.435897
159,4410.256410,4531.794871,4489.230769,4455.897435,4598.461538,4220.512820,4413.333333,4247.179487,4395.897435,4540.000000,4269.743589,4691.794871,3952.307693,4077.435897
160,4414.871794,4534.871794,4490.769230,4451.282051,4603.076923,4219.487179,4411.282051,4244.615384,4401.025641,4545.641025,4280.000000,4696.410256,3962.051283,4078.974358
161,4408.717948,4530.769230,4484.615384,4446.666666,4601.538461,4214.358974,4408.205128,4242.564102,4405.128205,4546.153846,4281.025641,4695.897435,3957.948718,4080.512820
162,4406.153846,4529.743589,4480.512820,4446.153846,4597.435897,4211.282051,4402.051282,4237.435897,4398.974358,4540.512820,4269.743589,4689.230769,3952.820513,4080.000000
163,4413.333333,4536.923076,4485.128205,4448.717948,4598.461538,4213.846153,4403.589743,4234.358974,4392.820512,4541.025641,4263.589743,4689.743589,3961.025642,4079.487179
164,4416.410256,4541.538461,4489.230769,4453.333333,4601.538461,4211.794871,4405.128205,4236.410256,4394.358974,4543.076923,4269.743589,4691.282051,3964.102565,4081.025641
165,4410.769230,4536.923076,4484.615384,4453.846153,4600.512820,4207.692307,4399.487179,4238.461538,4392.820512,4537.435897,4276.923076,4686.666666,3957.435898,4079.487179
166,4408.205128,4532.307692,4482.564102,4450.256410,4596.410256,4209.230769,4396.410256,4237.948717,4388.717948,4535.384615,4272.820512,4684.102564,3962.564103,4077.948717
167,4411.282051,4535.897435,4482.051282,4450.256410,4598.461538,4211.794871,4401.025641,4237.948717,4392.820512,4544.615384,4269.743589,4683.076923,3970.256411,4080.000000
168,4411.282051,4538.461538,4472.307692,4451.794871,4603.589743,4210.769230,4405.641025,4237.948717,4396.923076,4550.769230,4270.769230,4677.435897,3962.564103,4077.948717
169,4407.692307,4532.820512,4468.717948,4447.692307,4601.538461,4209.743589,4405.641025,4239.487179,4396.410256,4547.179487,4272.307692,4674.871794,3958.974359,4073.333333
170,4410.769230,4530.769230,4479.487179,4445.641025,4598.461538,4211.794871,4407.692307,4242.564102,4400.512820,4547.692307,4275.897435,4682.564102,3964.615385,4075.384615
171,4414.871794,4534.871794,4481.538461,4451.282051,4601.025641,4211.794871,4409.230769,4243.076923,4400.000000,4546.666666,4266.666666,4682.564102,3962.564103,4077.948717
172,4409.743589,4532.820512,4473.846153,4454.358974,4602.051282,4212.820512,4406.153846,4237.948717,4393.333333,4534.358974,4254.871794,4676.410256,3956.923077,4071.282051
173,4407.179487,4529.743589,4476.923076,4452.820512,4600.000000,4217.435897,4408.717948,4236.923076,4393.333333,4531.794871,4262.051282,4678.461538,3956.923077,4067.692307
174,4407.692307,4530.769230,4481.538461,4452.307692,4600.000000,4215.897435,4414.871794,4239.487179,4396.410256,4542.564102,4268.717948,4680.512820,3955.384616,4070.256410
175,4407.692307,4529.743589,4480.512820,4450.256410,4599.487179,4212.307692,4414.871794,4243.589743,4400.000000,4544.615384,4270.256410,4682.051282,3956.923077,4072.307692
176,4412.820512,4531.794871,4483.589743,4448.717948,4600.000000,4218.974358,4416.410256,4252.307692,4409.743589,4543.589743,4283.076923,4690.256410,3965.128206,4075.897435
177,4416.410256,4537.435897,4484.102564,4454.871794,4603.589743,4222.564102,4415.897435,4250.256410,4409.743589,4550.769230,4282.564102,4695.384615,3966.153847,4078.974358
178,4416.923076,4542.564102,4484.102564,4464.102564,4606.153846,4218.974358,4411.282051,4242.564102,4402.564102,4553.333333,4272.820512,4694.871794,3964.615385,4080.000000
179,4423.589743,4547.179487,4493.846153,4467.692307,4607.179487,4221.025641,4416.923076,4247.179487,4408.717948,4550.769230,4283.076923,4699.487179,3972.307693,4086.153846
180,4432.820512,4547.692307,4503.589743,4464.102564,4607.179487,4226.666666,4427.692307,4256.410256,4416.923076,4552.820512,4294.871794,4710.256410,3982.564103,4096.923076
181,4432.307692,4543.076923,4503.589743,4460.512820,4605.128205,4226.153846,4425.128205,4259.487179,4413.333333,4552.820512,4290.769230,4714.871794,3986.153847,4099.487179
182,4425.641025,4546.153846,4503.076923,4462.051282,4604.102564,4222.564102,4418.974358,4258.974358,4411.282051,4554.871794,4281.538461,4708.717948,3983.076924,4092.307692
183,4423.589743,4547.692307,4503.589743,4465.641025,4603.076923,4222.564102,4419.487179,4254.358974,4410.769230,4556.923076,4277.435897,4700.000000,3974.871795,4087.692307
184,4425.641025,4539.487179,4501.538461,4464.102564,4604.615384,4223.589743,4420.000000,4252.307692,4406.153846,4550.769230,4281.025641,4700.000000,3968.205129,4087.692307
185,4425.641025,4537.435897,4504.615384,4462.564102,4606.666666,4224.615384,4420.000000,4253.333333,4405.641025,4546.666666,4284.615384,4700.512820,3971.794872,4089.230769
186,4423.589743,4542.051282,4506.153846,4462.051282,4604.102564,4225.641025,4418.974358,4247.179487,4408.205128,4551.282051,4282.564102,4699.487179,3975.384616,4091.282051
187,4427.179487,4549.743589,4504.102564,4461.538461,4603.076923,4227.179487,4418.974358,4247.692307,4411.794871,4553.333333,4284.102564,4702.564102,3978.461539,4093.333333
188,4428.717948,4549.743589,4502.564102,4462.564102,4606.666666,4225.641025,4416.923076,4251.794871,4414.358974,4550.256410,4285.641025,4704.615384,3976.923077,4091.794871
189,4422.051282,4541.538461,4497.435897,4463.076923,4604.102564,4220.512820,4412.820512,4246.153846,4411.282051,4549.743589,4283.076923,4700.000000,3970.256411,4088.205128
190,4423.589743,4542.564102,4495.897435,4463.076923,4598.461538,4222.051282,4415.384615,4246.153846,4411.282051,4553.846153,4285.128205,4699.487179,3976.410257,4089.230769
191,4428.205128,4547.692307,4495.897435,4461.025641,4600.512820,4222.051282,4418.461538,4250.769230,4410.769230,4557.435897,4285.128205,4700.512820,3984.615385,4089.230769
192,4422.051282,4540.512820,4490.769230,4454.871794,4602.564102,4217.948717,4412.820512,4245.128205,4403.589743,4551.794871,4279.487179,4695.384615,3975.897436,4084.102564
193,4414.871794,4532.307692,4487.179487,4448.205128,4598.461538,4216.410256,4406.153846,4241.538461,4398.461538,4543.076923,4278.461538,4689.743589,3961.538462,4076.410256
194,4412.307692,4532.307692,4490.769230,4449.743589,4596.923076,4215.897435,4406.153846,4244.615384,4399.487179,4540.512820,4276.410256,4689.743589,3958.461539,4072.820512
195,4409.743589,4529.230769,4493.846153,4453.333333,4599.487179,4215.897435,4406.153846,4240.512820,4394.871794,4538.461538,4268.717948,4689.230769,3957.435898,4070.256410
196,4406.666666,4528.205128,4491.794871,4453.333333,4598.461538,4215.897435,4408.717948,4237.435897,4387.692307,4533.846153,4268.205128,4685.128205,3953.846154,4068.717948
197,4409.743589,4530.256410,4493.333333,4454.871794,4598.974358,4215.384615,4411.794871,4238.974358,4390.769230,4535.897435,4277.948717,4686.666666,3953.846154,4070.769230
198,4412.820512,4528.205128,4496.410256,4454.871794,4599.487179,4210.769230,4407.692307,4235.384615,4394.871794,4534.358974,4278.461538,4688.717948,3957.435898,4072.307692
199,4411.282051,4528.717948,4494.871794,4451.282051,4594.358974,4209.230769,4403.589743,4234.871794,4393.333333,4526.153846,4269.743589,4685.128205,3960.512821,4070.769230
200,4410.769230,4530.256410,4495.384615,4449.743589,4592.820512,4214.871794,4410.256410,4241.538461,4397.948717,4532.307692,4267.692307,4689.743589,3957.948718,4072.820512
201,4413.846153,4528.717948,4500.512820,4453.846153,4598.461538,4220.000000,4420.512820,4249.230769,4407.179487,4548.717948,4271.794871,4698.461538,3961.538462,4077.948717
202,4418.974358,4529.230769,4504.102564,4457.435897,4600.000000,4225.641025,4425.128205,4254.871794,4409.743589,4552.820512,4278.974358,4697.435897,3970.769231,4082.051282
203,4416.923076,4530.256410,4502.051282,4456.923076,4597.435897,4225.641025,4423.589743,4253.846153,4404.102564,4545.128205,4285.641025,4695.384615,3970.256411,4081.538461
204,4411.794871,4527.692307,4498.461538,4457.435897,4597.948717,4218.974358,4419.487179,4247.179487,4400.000000,4540.000000,4282.564102,4697.435897,3967.692308,4077.948717
205,4411.794871,4532.307692,4494.871794,4455.897435,4599.487179,4218.974358,4418.461538,4243.076923,4396.923076,4540.512820,4275.897435,4692.307692,3967.179488,4073.846153
206,4417.435897,4539.487179,4495.897435,4456.923076,4602.051282,4224.102564,4417.948717,4240.000000,4397.435897,4544.615384,4279.487179,4690.256410,3966.666667,4076.410256
207,4423.589743,4538.461538,4498.461538,4464.102564,4603.589743,4221.025641,4415.384615,4236.410256,4402.051282,4548.205128,4289.743589,4698.974358,3972.307693,4083.589743
208,4420.512820,4533.333333,4494.871794,4463.076923,4600.000000,4215.384615,4409.743589,4235.384615,4399.487179,4545.128205,4287.692307,4701.538461,3976.923077,4083.076923
209,4418.461538,4531.794871,4494.358974,4457.948717,4597.948717,4214.358974,4409.230769,4237.948717,4395.897435,4541.538461,4280.000000,4698.461538,3977.948718,4080.512820
210,4422.564102,4537.435897,4497.948717,4461.025641,4600.512820,4214.871794,4416.410256,4240.512820,4402.564102,4546.153846,4290.769230,4704.102564,3981.538462,4082.564102
211,4423.589743,4541.538461,4497.435897,4464.615384,4603.589743,4218.974358,4419.487179,4241.538461,4407.692307,4550.769230,4302.564102,4707.692307,3980.512821,4085.128205
212,4419.487179,4538.974358,4494.871794,4461.025641,4602.051282,4224.102564,4416.923076,4241.538461,4405.641025,4543.076923,4286.153846,4700.512820,3971.794872,4081.538461
213,4416.410256,4531.794871,4494.358974,4455.897435,4598.974358,4221.538461,4417.948717,4240.512820,4402.051282,4531.794871,4267.179487,4691.794871,3969.230770,4072.820512
214,4412.820512,4528.717948,4491.282051,4455.384615,4601.025641,4217.948717,4420.512820,4238.461538,4396.923076,4532.820512,4274.358974,4690.256410,3965.128206,4067.692307
215,4408.205128,4533.333333,4490.256410,4458.974358,4600.000000,4220.000000,4418.461538,4236.923076,4389.230769,4535.384615,4284.102564,4690.769230,3954.358975,4067.692307
216,4411.794871,4540.512820,4496.923076,4461.538461,4598.974358,4220.512820,4419.487179,4236.923076,4388.205128,4531.282051,4283.076923,4691.282051,3957.435898,4071.794871
217,4419.487179,4542.564102,4500.512820,4458.974358,4602.051282,4222.051282,4422.051282,4233.333333,4389.743589,4531.794871,4285.128205,4692.307692,3970.256411,4074.871794
218,4414.871794,4535.897435,4496.410256,4457.948717,4602.564102,4223.589743,4417.435897,4223.589743,4386.666666,4531.282051,4282.051282,4688.205128,3965.128206,4071.282051
219,4403.589743,4529.230769,4488.717948,4455.384615,4597.948717,4217.435897,4409.743589,4216.410256,4384.102564,4525.128205,4270.256410,4677.435897,3949.743590,4062.564102
220,4401.025641,4526.153846,4482.051282,4450.256410,4595.897435,4213.333333,4408.717948,4221.538461,4383.589743,4525.641025,4268.717948,4672.820512,3948.205129,4055.897435
221,4406.666666,4526.153846,4486.666666,4452.307692,4599.487179,4217.435897,4413.846153,4235.897435,4390.256410,4534.358974,4278.974358,4683.076923,3962.051283,4059.487179
222,4413.846153,4530.769230,4496.410256,4456.923076,4602.564102,4220.000000,4418.974358,4247.179487,4404.615384,4542.051282,4286.666666,4692.820512,3972.307693,4071.282051
223,4414.871794,4532.307692,4493.846153,4454.358974,4601.025641,4215.897435,4420.512820,4244.615384,4409.230769,4544.615384,4285.641025,4691.794871,3966.153847,4073.846153
224,4409.230769,4527.692307,4482.564102,4453.333333,4596.410256,4212.820512,4415.897435,4233.333333,4395.384615,4538.461538,4281.538461,4685.128205,3958.974359,4062.564102
225,4410.256410,4531.282051,4482.564102,4460.512820,4596.410256,4214.358974,4411.282051,4228.205128,4387.179487,4533.846153,4285.128205,4684.102564,3967.692308,4066.153846
226,4418.974358,4543.589743,4495.897435,4469.230769,4604.102564,4218.974358,4417.948717,4232.820512,4395.384615,4541.025641,4296.410256,4694.358974,3981.538462,4083.076923
227,4424.615384,4545.641025,4503.076923,4471.282051,4607.179487,4224.615384,4422.564102,4237.435897,4400.000000,4547.692307,4302.564102,4701.538461,3982.051283,4084.102564
228,4424.102564,4535.384615,4498.974358,4468.205128,4602.564102,4225.128205,4418.461538,4240.512820,4398.461538,4547.692307,4299.487179,4700.000000,3977.948718,4078.974358
229,4419.487179,4529.230769,4496.923076,4462.051282,4594.871794,4216.923076,4416.923076,4242.564102,4402.564102,4548.205128,4295.897435,4697.948717,3974.871795,4080.000000
230,4413.846153,4528.717948,4499.487179,4460.512820,4595.384615,4213.846153,4420.512820,4246.153846,4406.153846,4549.743589,4287.179487,4697.948717,3971.282052,4075.897435
231,4414.358974,4528.717948,4500.000000,4459.487179,4598.974358,4219.487179,4420.000000,4250.256410,4400.000000,4548.205128,4282.051282,4698.461538,3971.794872,4071.282051
232,4415.897435,4527.692307,4498.461538,4456.923076,4593.333333,4219.487179,4419.487179,4250.769230,4394.358974,4545.641025,4288.717948,4697.435897,3971.282052,4074.871794
233,4417.435897,4530.769230,4497.948717,4460.000000,4592.307692,4216.410256,4421.538461,4249.743589,4401.025641,4544.615384,4297.435897,4697.948717,3969.743590,4078.461538
234,4420.512820,4535.384615,4496.923076,4460.512820,4596.410256,4220.512820,4422.051282,4247.179487,4407.692307,4546.153846,4297.435897,4701.538461,3972.307693,4078.974358
235,4420.512820,4537.435897,4495.384615,4458.461538,4595.897435,4220.512820,4419.487179,4246.153846,4406.666666,4548.717948,4289.743589,4699.487179,3978.461539,4080.512820
236,4416.923076,4533.846153,4493.846153,4458.974358,4594.871794,4216.923076,4418.974358,4248.717948,4406.666666,4552.307692,4287.692307,4694.358974,3978.461539,4080.000000
237,4411.794871,4528.205128,4490.256410,4455.897435,4593.333333,4217.435897,4419.487179,4248.205128,4406.666666,4550.256410,4292.307692,4692.820512,3973.333334,4075.384615
238,4406.153846,4526.666666,4484.615384,4451.282051,4588.717948,4216.923076,4417.435897,4242.051282,4400.000000,4538.974358,4295.897435,4689.743589,3968.717949,4067.692307
239,4406.666666,4529.743589,4480.512820,4452.307692,4588.717948,4214.871794,4414.871794,4241.538461,4393.846153,4536.410256,4291.282051,4682.564102,3966.666667,4064.102564
240,4414.358974,4536.923076,4481.538461,4450.769230,4596.923076,4220.000000,4416.923076,4246.666666,4396.410256,4546.666666,4288.205128,4685.128205,3970.769231,4069.743589
241,4414.358974,4541.025641,4484.102564,4449.743589,4598.974358,4223.076923,4418.461538,4244.102564,4398.974358,4549.743589,4290.769230,4692.307692,3970.256411,4072.307692
242,4404.102564,4536.410256,4481.538461,4449.230769,4593.333333,4216.410256,4412.307692,4235.384615,4390.769230,4536.410256,4285.128205,4684.102564,3955.897436,4063.076923
243,4400.512820,4529.230769,4478.974358,4440.512820,4590.769230,4209.743589,4405.641025,4231.282051,4383.076923,4529.230769,4276.923076,4671.794871,3948.205129,4055.384615
244,4408.717948,4533.333333,4480.512820,4441.025641,4595.897435,4210.256410,4405.128205,4234.358974,4389.230769,4535.897435,4277.435897,4676.410256,3958.461539,4060.512820
245,4412.820512,4546.153846,4485.641025,4450.769230,4601.025641,4212.307692,4407.179487,4238.461538,4395.897435,4534.358974,4282.564102,4687.179487,3967.692308,4070.256410
246,4410.769230,4545.641025,4489.743589,4450.256410,4597.948717,4209.743589,4406.666666,4236.923076,4389.743589,4528.205128,4283.076923,4690.256410,3965.641026,4075.384615
247,4413.846153,4541.538461,4489.230769,4446.666666,4597.948717,4208.717948,4406.666666,4240.512820,4387.179487,4532.820512,4285.128205,4690.256410,3965.641026,4078.461538
248,4417.435897,4547.692307,4487.692307,4452.820512,4598.974358,4211.282051,4412.307692,4248.205128,4395.384615,4537.435897,4282.564102,4691.794871,3969.230770,4080.000000
249,4416.923076,4549.743589,4492.820512,4454.358974,4597.435897,4215.897435,4415.897435,4249.743589,4398.461538,4534.871794,4278.974358,4690.256410,3967.692308,4078.974358
250,4421.025641,4545.128205,4498.974358,4451.282051,4601.025641,4217.948717,4416.410256,4252.820512,4400.512820,4541.025641,4288.205128,4690.769230,3965.641026,4081.025641
251,4425.641025,4547.179487,4496.923076,4451.794871,4604.615384,4221.025641,4413.846153,4257.435897,4405.128205,4545.641025,4287.692307,4695.384615,3968.717949,4085.641025
252,4423.076923,4546.666666,4494.871794,4448.205128,4599.487179,4217.948717,4409.743589,4252.307692,4399.487179,4538.974358,4275.897435,4694.871794,3968.717949,4084.615384
253,4418.974358,4538.974358,4493.333333,4444.615384,4592.307692,4210.769230,4406.666666,4245.641025,4390.769230,4533.846153,4281.538461,4689.743589,3961.538462,4080.512820
254,4417.435897,4537.435897,4491.282051,4448.205128,4594.871794,4210.256410,4407.179487,4248.205128,4389.230769,4532.820512,4289.743589,4689.230769,3957.435898,4078.974358
255,4419.487179,4538.974358,4492.820512,4452.307692,4602.051282,4217.435897,4412.820512,4252.307692,4393.333333,4532.820512,4277.948717,4692.307692,3957.948718,4076.923076
256,4424.102564,4542.051282,4492.820512,4455.384615,4602.051282,4224.102564,4418.974358,4256.410256,4401.538461,4532.820512,4272.820512,4694.871794,3956.410257,4080.512820
257,4422.564102,4543.589743,4488.205128,4454.871794,4598.461538,4220.512820,4416.410256,4253.846153,4401.538461,4529.743589,4276.923076,4692.307692,3952.307693,4081.538461
258,4416.410256,4536.410256,4481.538461,4444.615384,4598.461538,4213.846153,4408.205128,4247.179487,4390.769230,4527.692307,4275.384615,4685.128205,3951.282052,4074.358974
259,4414.871794,4533.846153,4480.000000,4440.000000,4600.000000,4215.384615,4408.717948,4248.205128,4391.282051,4533.333333,4281.538461,4682.564102,3951.794872,4073.333333
