,AF3,F7,F3,FC5,T7,P7,O1,O2,P8,T8,FC6,F4,F8,AF4
0,4401.538461,4585.641025,4524.615384,4277.435897,4517.948717,4205.641025,4430.256410,4208.205128,4226.153846,4531.282051,4207.179487,4650.256410,4021.025641,4044.102564
1,4400.000000,4581.538461,4524.615384,4275.384615,4517.948717,4204.102564,4428.717948,4204.102564,4227.179487,4533.846153,4217.948717,4648.717948,4022.564102,4046.666666
2,4388.205128,4575.897435,4517.948717,4268.205128,4524.102564,4203.076923,4422.564102,4194.871794,4221.538461,4525.641025,4220.512820,4641.538461,4012.307692,4041.025641
3,4386.153846,4578.974358,4512.307692,4271.794871,4523.076923,4204.102564,4424.615384,4197.948717,4224.615384,4530.769230,4223.076923,4642.564102,4009.743589,4033.846153
4,4385.128205,4580.512820,4508.205128,4273.333333,4520.512820,4204.102564,4425.641025,4200.512820,4225.128205,4537.948717,4223.076923,4646.666666,4017.435897,4032.307692
5,4382.051282,4580.512820,4508.205128,4266.153846,4523.589743,4202.564102,4420.512820,4195.897435,4220.512820,4531.794871,4211.794871,4646.666666,4016.923076,4033.333333
6,4385.128205,4584.615384,4512.307692,4261.538461,4522.564102,4201.025641,4420.000000,4197.435897,4224.615384,4532.820512,4208.717948,4648.717948,4015.897435,4035.897435
7,4390.769230,4588.205128,4518.974358,4268.717948,4520.000000,4203.076923,4422.564102,4205.641025,4232.820512,4540.000000,4221.538461,4654.871794,4024.615384,4042.051282
8,4395.384615,4589.230769,4524.615384,4281.538461,4526.153846,4208.205128,4424.102564,4210.256410,4232.307692,4541.025641,4229.743589,4662.051282,4031.282051,4048.717948
9,4401.538461,4594.358974,4525.641025,4288.717948,4532.307692,4211.282051,4427.179487,4210.769230,4228.205128,4542.051282,4234.358974,4669.230769,4032.307692,4053.333333
10,4405.128205,4595.897435,4525.641025,4284.615384,4525.641025,4207.179487,4424.615384,4209.230769,4230.769230,4541.538461,4233.846153,4670.769230,4035.384615,4054.358974
11,4397.948717,4585.641025,4521.538461,4277.948717,4517.948717,4201.538461,4416.923076,4203.076923,4230.256410,4533.333333,4218.974358,4661.025641,4037.948717,4049.743589
12,4394.358974,4583.589743,4526.153846,4283.076923,4521.538461,4205.128205,4419.487179,4198.974358,4224.102564,4533.846153,4217.435897,4657.435897,4035.897435,4049.230769
13,4405.128205,4595.384615,4537.948717,4290.256410,4534.358974,4213.846153,4430.256410,4204.102564,4226.666666,4545.641025,4235.897435,4667.179487,4034.871794,4056.923076
14,4408.717948,4598.974358,4541.025641,4289.743589,4538.461538,4216.410256,4435.384615,4208.717948,4231.794871,4542.564102,4238.974358,4669.230769,4037.948717,4060.000000
15,4400.512820,4590.769230,4534.871794,4292.820512,4530.256410,4214.358974,4434.358974,4206.153846,4229.230769,4531.282051,4225.128205,4661.025641,4037.435897,4056.923076
16,4394.358974,4587.179487,4526.666666,4295.897435,4527.179487,4214.358974,4428.717948,4200.512820,4221.538461,4531.282051,4220.512820,4655.897435,4032.820512,4050.769230
17,4391.282051,4586.666666,4523.589743,4289.743589,4529.230769,4210.256410,4425.641025,4201.538461,4220.512820,4533.846153,4217.948717,4652.820512,4028.205128,4043.589743
18,4387.179487,4581.025641,4523.589743,4280.512820,4525.128205,4206.153846,4429.743589,4206.153846,4227.179487,4530.769230,4212.307692,4652.307692,4023.589743,4040.512820
19,4387.692307,4581.025641,4523.076923,4279.487179,4523.076923,4206.666666,4426.666666,4200.000000,4227.179487,4527.692307,4217.435897,4654.871794,4028.717948,4043.589743
20,4391.794871,4587.692307,4523.589743,4282.564102,4527.179487,4209.230769,4418.461538,4191.794871,4220.512820,4528.205128,4226.153846,4655.384615,4042.564102,4049.230769
21,4391.794871,4588.717948,4524.102564,4285.641025,4526.153846,4209.743589,4416.923076,4190.769230,4216.923076,4529.743589,4229.230769,4652.820512,4040.000000,4049.743589
22,4391.282051,4589.743589,4522.051282,4287.692307,4520.512820,4208.205128,4422.564102,4191.282051,4218.974358,4532.820512,4224.615384,4652.820512,4023.076923,4046.666666
23,4392.307692,4594.871794,4522.564102,4285.641025,4525.641025,4209.743589,4426.666666,4193.846153,4223.589743,4534.358974,4221.538461,4655.384615,4023.589743,4048.717948
24,4388.717948,4593.846153,4520.512820,4281.538461,4532.307692,4212.307692,4426.153846,4195.384615,4222.564102,4531.794871,4223.589743,4654.358974,4033.846153,4051.794871
25,4380.512820,4589.743589,4510.256410,4280.000000,4526.666666,4209.743589,4422.051282,4191.794871,4214.871794,4527.692307,4220.000000,4650.769230,4027.179487,4048.717948
26,4375.897435,4585.641025,4504.615384,4281.538461,4516.923076,4201.025641,4419.487179,4190.256410,4209.230769,4521.538461,4215.897435,4651.282051,4012.307692,4046.153846
27,4377.435897,4581.025641,4509.743589,4277.948717,4515.384615,4197.948717,4419.487179,4193.846153,4210.769230,4522.051282,4216.923076,4654.358974,4010.256410,4044.615384
28,4376.923076,4583.076923,4510.256410,4272.307692,4522.051282,4204.102564,4415.384615,4193.333333,4214.358974,4525.128205,4216.923076,4652.820512,4018.974358,4040.512820
29,4372.307692,4587.179487,4508.205128,4278.461538,4526.153846,4206.666666,4415.897435,4189.743589,4217.435897,4521.025641,4210.769230,4649.230769,4025.128205,4040.512820
30,4373.846153,4587.179487,4514.358974,4288.717948,4527.692307,4207.692307,4422.564102,4189.743589,4216.923076,4520.000000,4207.692307,4649.230769,4026.666666,4042.564102
31,4378.461538,4592.820512,4523.589743,4287.692307,4526.666666,4210.769230,4428.205128,4196.410256,4216.923076,4531.282051,4211.794871,4653.333333,4026.666666,4042.564102
32,4375.897435,4597.435897,4523.076923,4282.564102,4523.076923,4208.205128,4428.205128,4198.974358,4218.461538,4533.333333,4214.358974,4654.358974,4018.974358,4042.051282
33,4367.692307,4588.717948,4514.358974,4283.076923,4518.974358,4201.538461,4422.051282,4190.769230,4211.282051,4521.025641,4211.282051,4648.205128,4012.820512,4036.410256
34,4366.153846,4586.666666,4509.230769,4286.153846,4520.000000,4201.538461,4418.461538,4188.205128,4208.205128,4518.974358,4211.794871,4648.717948,4018.461538,4033.846153
35,4369.743589,4594.358974,4510.769230,4284.102564,4521.025641,4202.564102,4421.538461,4195.384615,4222.564102,4524.615384,4221.538461,4655.384615,4026.666666,4042.051282
36,4367.692307,4592.307692,4509.230769,4277.948717,4514.871794,4197.435897,4418.461538,4193.846153,4224.615384,4523.589743,4214.358974,4648.205128,4018.974358,4043.589743
37,4357.435897,4576.410256,4502.051282,4269.230769,4509.743589,4192.307692,4408.717948,4185.641025,4208.205128,4514.358974,4189.230769,4630.256410,3996.923077,4027.692307
38,4356.410256,4574.871794,4502.051282,4272.307692,4513.846153,4195.384615,4412.307692,4186.153846,4206.153846,4513.333333,4189.230769,4630.769230,3995.384616,4022.564102
39,4370.256410,4594.358974,4514.871794,4286.666666,4520.512820,4205.128205,4424.102564,4194.358974,4218.461538,4527.692307,4215.384615,4649.743589,4020.000000,4041.025641
40,4376.923076,4603.589743,4524.615384,4292.307692,4522.564102,4210.256410,4428.205128,4200.512820,4222.564102,4536.410256,4232.307692,4658.461538,4028.205128,4053.333333
41,4368.717948,4596.923076,4519.487179,4285.641025,4521.538461,4204.615384,4426.666666,4202.564102,4226.666666,4535.897435,4223.076923,4653.333333,4011.282051,4047.692307
42,4358.461538,4593.846153,4508.205128,4275.384615,4517.435897,4198.974358,4420.512820,4198.461538,4227.692307,4534.358974,4201.025641,4646.666666,4006.153846,4038.974358
43,4350.256410,4593.846153,4504.102564,4267.692307,4512.820512,4198.461538,4413.333333,4191.794871,4217.435897,4528.205128,4191.794871,4640.512820,4010.256410,4035.897435
44,4345.128205,4589.743589,4501.025641,4263.076923,4509.230769,4195.897435,4411.794871,4190.769230,4206.666666,4515.897435,4194.871794,4635.897435,4000.512820,4035.384615
45,4342.564102,4588.717948,4498.461538,4260.000000,4506.153846,4190.256410,4412.820512,4192.307692,4203.589743,4513.846153,4201.538461,4634.358974,3984.615385,4031.282051
46,4340.000000,4587.692307,4501.025641,4260.000000,4508.717948,4191.282051,4413.846153,4193.333333,4206.153846,4518.974358,4204.615384,4636.410256,3981.025642,4028.205128
47,4340.000000,4586.666666,4504.102564,4265.128205,4512.820512,4194.358974,4415.384615,4191.282051,4209.743589,4517.435897,4195.897435,4636.923076,3987.692308,4027.692307
48,4340.512820,4588.205128,4505.641025,4270.256410,4509.230769,4192.820512,4414.358974,4190.769230,4209.230769,4519.487179,4182.051282,4636.410256,3992.820513,4030.256410
49,4337.948717,4591.282051,4506.666666,4273.333333,4508.205128,4191.794871,4415.897435,4194.358974,4212.820512,4527.179487,4190.256410,4638.461538,3997.435898,4036.923076
50,4337.948717,4594.871794,4506.153846,4276.410256,4518.461538,4198.974358,4418.461538,4195.897435,4219.487179,4528.205128,4216.410256,4644.615384,3999.487180,4041.025641
51,4343.076923,4597.435897,4510.256410,4280.000000,4526.153846,4208.205128,4417.948717,4195.897435,4217.435897,4528.205128,4224.615384,4649.743589,4003.076923,4043.589743
52,4348.717948,4602.051282,4523.589743,4290.769230,4527.692307,4214.358974,4423.076923,4203.589743,4218.461538,4539.487179,4213.846153,4652.820512,4013.846153,4048.205128
53,4345.641025,4605.128205,4523.076923,4297.948717,4528.205128,4213.333333,4430.769230,4207.692307,4224.102564,4543.589743,4205.128205,4653.846153,4021.538461,4049.743589
54,4332.820512,4600.000000,4511.794871,4287.692307,4527.692307,4209.230769,4428.205128,4198.461538,4215.384615,4528.205128,4202.051282,4649.230769,4010.769230,4043.589743
55,4330.256410,4598.461538,4517.948717,4280.000000,4530.769230,4212.307692,4430.769230,4204.102564,4219.487179,4527.692307,4210.769230,4649.230769,3998.461539,4045.128205
56,4336.410256,4603.076923,4526.153846,4288.205128,4532.307692,4215.897435,4436.923076,4215.897435,4235.897435,4540.000000,4222.564102,4654.358974,3995.384616,4050.769230
57,4327.179487,4594.358974,4512.307692,4290.769230,4523.076923,4207.692307,4428.205128,4202.051282,4223.076923,4528.205128,4214.358974,4648.205128,3981.538462,4041.025641
58,4311.794871,4580.000000,4501.025641,4278.974358,4518.974358,4202.051282,4421.025641,4193.846153,4205.128205,4513.333333,4199.487179,4640.512820,3970.769231,4031.794871
59,4312.307692,4587.179487,4506.666666,4273.846153,4525.128205,4204.102564,4429.743589,4209.230769,4220.000000,4526.666666,4199.487179,4642.051282,3981.025642,4037.435897
60,4318.461538,4597.948717,4511.794871,4277.435897,4521.538461,4205.641025,4435.384615,4218.974358,4234.358974,4536.923076,4211.794871,4647.692307,3987.692308,4042.051282
61,4315.384615,4587.692307,4508.717948,4273.333333,4511.794871,4203.589743,4429.743589,4217.948717,4227.692307,4526.666666,4215.384615,4649.743589,3981.538462,4036.923076
62,4309.230769,4574.358974,4506.666666,4266.666666,4513.333333,4199.487179,4432.820512,4216.923076,4226.666666,4524.102564,4211.282051,4647.179487,3984.102565,4034.871794
63,4309.230769,4571.282051,4508.717948,4269.230769,4518.974358,4201.025641,4436.923076,4213.333333,4229.230769,4531.794871,4211.282051,4649.230769,3990.769231,4037.948717
64,4309.743589,4564.102564,4508.205128,4273.333333,4515.897435,4202.564102,4431.794871,4210.769230,4223.589743,4531.794871,4214.871794,4651.282051,3988.717949,4035.897435
65,4307.692307,4560.000000,4509.230769,4273.846153,4514.871794,4198.974358,4433.846153,4212.820512,4222.051282,4531.282051,4212.820512,4648.717948,3987.692308,4030.256410
66,4304.615384,4571.282051,4515.384615,4282.564102,4522.564102,4202.564102,4446.153846,4212.820512,4227.179487,4532.820512,4207.179487,4648.717948,3992.820513,4031.282051
67,4305.128205,4574.871794,4515.897435,4284.102564,4524.615384,4205.641025,4448.205128,4212.307692,4224.102564,4527.179487,4203.076923,4649.230769,3996.410257,4033.333333
68,4305.128205,4562.051282,4507.692307,4269.230769,4516.410256,4200.512820,4438.461538,4209.230769,4214.358974,4522.564102,4202.564102,4647.179487,3997.435898,4030.256410
69,4300.000000,4558.461538,4505.128205,4270.256410,4513.846153,4200.000000,4437.435897,4205.128205,4212.307692,4527.179487,4210.256410,4646.153846,3997.435898,4026.666666
70,4295.384615,4562.051282,4506.153846,4277.948717,4518.974358,4204.615384,4436.923076,4202.051282,4213.333333,4529.230769,4209.743589,4639.487179,3991.794872,4022.564102
71,4300.512820,4562.051282,4506.666666,4269.230769,4517.435897,4202.564102,4432.820512,4203.076923,4220.000000,4535.897435,4199.487179,4635.897435,3992.307693,4027.179487
72,4310.769230,4564.615384,4510.256410,4267.692307,4517.435897,4203.589743,4435.384615,4210.256410,4228.717948,4545.128205,4204.102564,4647.179487,4006.153846,4038.974358
73,4304.102564,4564.102564,4508.717948,4277.948717,4518.974358,4204.615384,4433.846153,4207.692307,4221.025641,4534.358974,4211.794871,4646.153846,4007.179487,4036.923076
74,4295.384615,4556.923076,4504.102564,4272.307692,4517.948717,4201.538461,4429.743589,4204.102564,4219.487179,4528.717948,4208.205128,4635.384615,3997.948718,4029.230769
75,4302.564102,4560.000000,4508.717948,4268.205128,4521.538461,4207.179487,4436.923076,4217.435897,4234.871794,4546.666666,4211.282051,4644.102564,4002.051282,4034.871794
76,4310.769230,4572.307692,4510.256410,4277.435897,4525.128205,4210.256410,4441.025641,4224.102564,4236.410256,4548.205128,4217.435897,4654.358974,4008.205128,4042.051282
77,4306.666666,4574.871794,4507.179487,4278.974358,4522.564102,4206.153846,4432.307692,4210.256410,4223.589743,4533.333333,4213.333333,4645.128205,4005.641025,4037.948717
78,4298.461538,4567.179487,4507.179487,4272.820512,4515.384615,4197.948717,4423.076923,4202.564102,4217.435897,4529.743589,4208.717948,4635.384615,4005.641025,4031.282051
79,4294.358974,4562.051282,4505.128205,4266.153846,4509.230769,4191.282051,4415.897435,4203.076923,4215.384615,4522.564102,4206.666666,4632.820512,4004.102564,4025.641025
80,4301.025641,4565.641025,4504.102564,4263.076923,4509.230769,4197.948717,4417.948717,4203.589743,4217.435897,4522.564102,4207.692307,4637.435897,4003.076923,4031.794871
81,4315.384615,4574.871794,4510.256410,4277.435897,4521.538461,4210.769230,4429.230769,4210.256410,4227.692307,4538.974358,4216.410256,4649.230769,4012.307692,4047.179487
82,4313.846153,4574.358974,4510.256410,4287.179487,4527.179487,4207.692307,4423.076923,4206.666666,4224.615384,4537.435897,4216.923076,4650.256410,4013.846153,4045.128205
83,4305.128205,4567.179487,4503.589743,4277.948717,4517.435897,4197.435897,4414.358974,4193.846153,4215.384615,4522.564102,4208.205128,4641.025641,4006.153846,4035.897435
84,4312.820512,4572.307692,4512.820512,4278.461538,4513.846153,4201.025641,4428.205128,4199.487179,4220.512820,4528.205128,4215.384615,4644.102564,4008.205128,4046.153846
85,4317.435897,4581.538461,4521.025641,4284.615384,4518.974358,4204.615384,4435.897435,4209.230769,4226.666666,4535.384615,4226.153846,4649.743589,4006.153846,4050.769230
86,4308.205128,4571.282051,4511.794871,4273.846153,4518.461538,4200.512820,4425.128205,4203.076923,4223.589743,4529.743589,4214.871794,4644.102564,3996.410257,4037.948717
87,4305.128205,4561.538461,4508.205128,4263.589743,4514.871794,4197.435897,4426.153846,4201.538461,4220.512820,4530.769230,4202.051282,4642.564102,4003.589743,4036.923076
88,4304.615384,4565.128205,4512.820512,4262.051282,4513.333333,4197.435897,4428.717948,4204.615384,4221.538461,4534.358974,4209.743589,4645.641025,4011.794871,4042.051282
89,4293.846153,4556.923076,4506.153846,4256.923076,4508.717948,4194.358974,4415.384615,4195.897435,4215.384615,4525.641025,4214.358974,4634.871794,3994.871795,4031.282051
90,4289.230769,4542.051282,4498.974358,4255.897435,4501.025641,4185.641025,4407.692307,4190.256410,4207.692307,4517.948717,4201.538461,4627.692307,3979.487180,4022.051282
91,4297.948717,4542.051282,4504.102564,4262.051282,4500.000000,4182.051282,4413.846153,4197.948717,4213.846153,4524.615384,4203.589743,4636.410256,3990.769231,4029.743589
92,4307.692307,4549.743589,4507.692307,4265.128205,4503.589743,4185.641025,4416.923076,4201.538461,4222.051282,4534.358974,4217.948717,4642.564102,4008.205128,4039.487179
93,4315.897435,4551.794871,4504.615384,4266.666666,4504.615384,4191.282051,4416.923076,4198.974358,4218.461538,4531.282051,4207.179487,4636.923076,4012.307692,4040.512820
94,4318.461538,4555.384615,4504.615384,4272.307692,4507.692307,4195.897435,4421.025641,4201.538461,4217.948717,4529.230769,4200.000000,4633.333333,4009.743589,4037.948717
95,4322.051282,4562.051282,4508.205128,4277.435897,4514.358974,4203.589743,4425.128205,4207.692307,4224.615384,4540.512820,4224.102564,4641.025641,4014.871794,4041.538461
96,4332.307692,4563.076923,4510.769230,4276.410256,4523.076923,4209.743589,4426.666666,4211.282051,4227.179487,4549.230769,4238.461538,4649.230769,4025.128205,4049.230769
97,4335.384615,4558.461538,4512.307692,4274.358974,4526.153846,4206.153846,4426.666666,4213.846153,4231.282051,4546.666666,4225.641025,4648.205128,4028.205128,4052.307692
98,4338.461538,4562.564102,4520.000000,4284.102564,4521.538461,4205.128205,4431.794871,4216.410256,4236.923076,4546.153846,4220.512820,4650.769230,4030.769230,4054.871794
99,4345.641025,4571.794871,4522.564102,4293.333333,4522.051282,4209.743589,4435.897435,4213.333333,4230.769230,4546.666666,4227.692307,4658.461538,4028.717948,4058.974358
100,4340.512820,4569.743589,4512.307692,4287.692307,4524.615384,4206.666666,4430.256410,4199.487179,4221.538461,4542.051282,4220.512820,4651.282051,4018.974358,4054.358974
101,4331.282051,4561.025641,4505.641025,4275.897435,4517.948717,4200.000000,4424.102564,4191.794871,4220.000000,4541.538461,4212.820512,4638.461538,4015.897435,4045.641025
102,4336.410256,4561.025641,4507.179487,4277.435897,4509.743589,4201.025641,4425.641025,4200.512820,4220.512820,4543.076923,4218.974358,4637.948717,4021.538461,4045.641025
103,4342.051282,4564.102564,4508.717948,4287.179487,4515.384615,4202.564102,4426.666666,4208.205128,4225.641025,4540.000000,4221.538461,4643.076923,4023.589743,4052.307692
104,4338.974358,4562.051282,4510.256410,4281.025641,4518.974358,4198.461538,4428.717948,4206.666666,4233.333333,4538.461538,4212.307692,4643.589743,4016.410256,4053.333333
105,4334.358974,4556.923076,4510.256410,4270.769230,4514.358974,4198.461538,4430.256410,4202.051282,4225.128205,4537.435897,4209.230769,4643.589743,4004.102564,4047.179487
106,4331.794871,4552.307692,4508.205128,4276.923076,4514.871794,4200.000000,4425.641025,4196.923076,4211.794871,4534.871794,4212.820512,4643.076923,3997.948718,4043.589743
107,4332.307692,4551.282051,4508.717948,4283.076923,4515.897435,4195.897435,4422.051282,4193.846153,4209.230769,4532.820512,4209.743589,4639.487179,4001.025641,4044.615384
108,4327.179487,4550.256410,4505.128205,4272.307692,4510.769230,4193.333333,4416.410256,4191.794871,4209.230769,4523.589743,4207.179487,4635.384615,4001.025641,4037.948717
109,4317.948717,4547.179487,4499.487179,4262.564102,4507.692307,4193.846153,4410.769230,4190.769230,4208.717948,4514.358974,4208.205128,4632.307692,4001.538461,4026.666666
110,4322.051282,4549.230769,4503.589743,4268.717948,4509.743589,4192.820512,4414.358974,4196.923076,4213.333333,4523.589743,4205.128205,4632.820512,4008.205128,4031.794871
111,4329.743589,4550.769230,4504.615384,4272.307692,4506.666666,4190.769230,4416.923076,4198.461538,4210.256410,4529.743589,4197.948717,4631.282051,4009.743589,4038.461538
112,4325.641025,4546.153846,4495.384615,4266.666666,4502.564102,4189.743589,4410.256410,4190.256410,4201.538461,4517.435897,4198.461538,4626.666666,4006.153846,4032.307692
113,4320.512820,4546.153846,4490.256410,4268.205128,4503.589743,4187.179487,4407.179487,4188.717948,4202.564102,4515.384615,4212.307692,4625.641025,4007.179487,4031.794871
114,4324.102564,4552.820512,4493.333333,4274.871794,4503.589743,4185.641025,4412.820512,4196.923076,4213.333333,4530.769230,4216.410256,4631.282051,4017.435897,4041.025641
115,4328.205128,4552.820512,4496.410256,4274.358974,4502.051282,4188.717948,4415.897435,4201.538461,4215.384615,4533.333333,4208.205128,4634.358974,4027.692307,4041.538461
116,4322.564102,4543.076923,4491.794871,4267.179487,4501.025641,4187.179487,4407.692307,4194.358974,4202.564102,4518.974358,4204.102564,4628.205128,4021.025641,4034.871794
117,4320.000000,4539.487179,4490.769230,4270.256410,4504.102564,4184.102564,4403.076923,4186.666666,4195.897435,4515.384615,4206.666666,4627.692307,4010.769230,4035.897435
118,4326.153846,4547.692307,4500.000000,4276.923076,4507.692307,4190.256410,4411.282051,4189.230769,4206.153846,4525.641025,4206.666666,4636.410256,4021.025641,4040.000000
119,4329.743589,4556.410256,4508.205128,4278.461538,4508.717948,4193.333333,4414.358974,4194.871794,4211.282051,4532.820512,4208.717948,4641.538461,4038.974358,4043.076923
120,4338.974358,4568.205128,4508.717948,4280.512820,4509.230769,4191.794871,4414.358974,4196.923076,4212.307692,4540.512820,4223.076923,4647.179487,4046.666666,4053.333333
121,4348.205128,4574.871794,4509.743589,4281.025641,4511.282051,4192.820512,4423.076923,4203.076923,4223.076923,4549.230769,4233.333333,4653.846153,4044.102564,4060.512820
122,4338.974358,4563.589743,4510.769230,4274.358974,4507.692307,4190.769230,4426.153846,4209.230769,4226.153846,4544.102564,4225.128205,4649.743589,4034.358974,4052.820512
123,4328.205128,4556.410256,4506.666666,4270.769230,4500.512820,4186.666666,4418.461538,4202.564102,4214.871794,4531.794871,4214.871794,4640.512820,4030.769230,4044.102564
124,4329.743589,4564.615384,4503.589743,4271.794871,4499.487179,4190.769230,4413.846153,4192.820512,4208.717948,4529.743589,4211.282051,4636.923076,4034.871794,4045.128205
125,4326.666666,4563.076923,4500.512820,4271.282051,4501.538461,4192.307692,4414.871794,4189.743589,4208.205128,4529.230769,4204.615384,4632.820512,4032.820512,4042.564102
126,4324.102564,4557.435897,4497.948717,4271.282051,4503.589743,4188.717948,4420.000000,4192.820512,4209.230769,4525.128205,4204.102564,4629.230769,4031.282051,4038.461538
127,4325.128205,4559.487179,4495.897435,4266.666666,4502.051282,4186.666666,4421.025641,4192.307692,4209.230769,4523.076923,4205.641025,4631.794871,4034.358974,4038.974358
128,4317.435897,4551.794871,4490.256410,4258.974358,4498.461538,4187.179487,4414.358974,4186.666666,4205.128205,4517.948717,4198.461538,4629.743589,4028.205128,4034.871794
129,4314.358974,4550.256410,4490.769230,4262.051282,4501.538461,4188.717948,4415.897435,4188.717948,4203.076923,4513.846153,4200.000000,4627.692307,4027.179487,4028.717948
130,4324.615384,4563.076923,4503.076923,4269.743589,4507.692307,4191.282051,4423.589743,4194.871794,4209.230769,4523.589743,4208.717948,4631.794871,4040.512820,4031.794871
131,4326.153846,4561.025641,4507.179487,4270.256410,4506.153846,4189.230769,4421.025641,4193.846153,4209.230769,4527.179487,4206.666666,4633.333333,4041.538461,4036.410256
132,4315.897435,4547.692307,4496.410256,4273.846153,4501.538461,4186.153846,4416.410256,4190.769230,4202.564102,4515.384615,4202.051282,4632.307692,4032.307692,4033.846153
133,4316.923076,4547.179487,4491.282051,4273.333333,4500.000000,4188.717948,4417.435897,4194.358974,4206.666666,4514.358974,4200.512820,4632.307692,4035.384615,4033.333333
134,4320.000000,4546.666666,4492.820512,4263.076923,4501.025641,4188.717948,4413.846153,4195.384615,4212.307692,4521.538461,4192.307692,4628.717948,4037.948717,4034.871794
135,4315.897435,4543.076923,4493.846153,4258.974358,4503.589743,4185.641025,4410.769230,4189.230769,4208.717948,4517.435897,4188.717948,4625.128205,4035.384615,4034.871794
136,4318.461538,4548.717948,4493.333333,4266.153846,4505.128205,4189.230769,4417.948717,4189.743589,4205.641025,4514.358974,4202.051282,4633.846153,4037.948717,4036.923076
137,4323.076923,4551.794871,4493.333333,4270.769230,4501.538461,4190.769230,4423.076923,4193.333333,4210.256410,4516.923076,4211.282051,4637.948717,4032.307692,4037.948717
138,4320.512820,4547.179487,4497.948717,4268.205128,4499.487179,4187.179487,4424.102564,4194.871794,4215.384615,4516.923076,4205.641025,4634.871794,4025.128205,4036.410256
139,4318.974358,4546.666666,4507.179487,4271.282051,4504.102564,4188.205128,4426.153846,4200.000000,4216.923076,4523.589743,4202.564102,4640.512820,4032.307692,4039.487179
140,4318.974358,4548.717948,4505.641025,4273.333333,4510.256410,4192.307692,4425.128205,4202.051282,4216.923076,4532.820512,4206.153846,4644.102564,4035.384615,4042.051282
141,4315.384615,4544.615384,4494.358974,4264.102564,4507.692307,4193.846153,4420.512820,4194.871794,4210.769230,4527.692307,4197.948717,4634.871794,4023.589743,4035.384615
142,4314.358974,4545.641025,4491.282051,4257.948717,4502.564102,4192.307692,4417.948717,4191.794871,4207.692307,4514.871794,4191.794871,4628.717948,4012.820512,4029.743589
143,4316.410256,4555.897435,4493.846153,4263.589743,4507.179487,4190.769230,4419.487179,4199.487179,4215.384615,4513.333333,4203.589743,4632.820512,4012.820512,4032.820512
144,4315.384615,4555.384615,4495.384615,4267.692307,4511.282051,4193.333333,4422.564102,4204.102564,4221.538461,4520.512820,4205.128205,4638.461538,4018.461538,4037.435897
145,4318.974358,4552.820512,4503.076923,4270.769230,4509.743589,4197.435897,4426.666666,4205.128205,4219.487179,4522.051282,4193.846153,4640.512820,4024.102564,4039.487179
146,4323.589743,4556.923076,4508.205128,4271.794871,4510.769230,4196.410256,4428.205128,4206.153846,4221.025641,4522.051282,4196.923076,4638.974358,4020.512820,4037.948717
147,4320.000000,4555.384615,4498.974358,4262.051282,4512.307692,4193.333333,4424.102564,4200.000000,4221.538461,4527.692307,4207.692307,4636.410256,4011.794871,4032.307692
148,4313.333333,4547.692307,4490.256410,4257.948717,4509.743589,4191.794871,4420.000000,4191.794871,4212.307692,4525.641025,4209.230769,4636.410256,4008.717948,4025.641025
149,4309.230769,4545.641025,4490.769230,4262.051282,4504.615384,4189.743589,4417.435897,4190.256410,4208.717948,4516.410256,4200.512820,4632.307692,4005.128205,4019.487179
150,4309.743589,4545.128205,4490.256410,4257.948717,4501.538461,4189.743589,4415.897435,4192.820512,4212.820512,4514.871794,4186.666666,4629.743589,4001.538461,4018.461538
151,4312.307692,4548.717948,4493.333333,4253.333333,4504.615384,4191.794871,4416.410256,4192.307692,4210.769230,4515.897435,4184.615384,4635.384615,4002.564102,4024.615384
152,4315.384615,4560.512820,4502.051282,4256.923076,4513.333333,4198.974358,4422.051282,4194.358974,4210.769230,4516.410256,4201.025641,4643.076923,4008.717948,4031.794871
153,4316.923076,4563.589743,4506.153846,4263.589743,4516.410256,4207.692307,4425.128205,4197.435897,4214.358974,4518.974358,4214.358974,4645.641025,4010.256410,4032.820512
154,4321.025641,4560.512820,4505.128205,4266.666666,4514.871794,4204.102564,4421.538461,4195.384615,4214.871794,4519.487179,4210.769230,4645.128205,4011.282051,4033.333333
155,4325.128205,4563.076923,4507.179487,4268.205128,4513.846153,4194.871794,4421.025641,4195.897435,4219.487179,4519.487179,4201.538461,4647.179487,4017.948717,4038.461538
156,4310.769230,4566.666666,4509.743589,4267.692307,4512.820512,4196.410256,4420.512820,4200.000000,4217.948717,4518.461538,4197.435897,4648.717948,4017.948717,4041.025641
157,4275.384615,4561.538461,4503.076923,4265.128205,4510.769230,4197.435897,4411.282051,4195.384615,4201.025641,4507.179487,4196.410256,4644.102564,4010.769230,4031.282051
158,4238.974358,4555.897435,4496.410256,4261.538461,4506.666666,4191.282051,4408.205128,4188.717948,4193.333333,4497.948717,4198.461538,4642.051282,4008.205128,4022.051282
159,4218.974358,4552.307692,4497.435897,4251.794871,4503.076923,4186.666666,4412.307692,4190.256410,4203.589743,4503.589743,4196.923076,4643.589743,4006.153846,4022.051282
160,4204.102564,4549.743589,4495.384615,4243.076923,4500.000000,4186.666666,4410.769230,4189.743589,4210.256410,4511.282051,4189.230769,4638.974358,4003.589743,4024.615384
161,4189.743589,4556.410256,4495.384615,4251.282051,4500.512820,4188.205128,4411.282051,4188.717948,4210.256410,4510.256410,4191.282051,4638.461538,4010.256410,4028.205128
162,4178.974358,4560.512820,4503.589743,4262.564102,4506.153846,4191.794871,4420.000000,4193.846153,4212.307692,4510.256410,4200.000000,4646.153846,4013.333333,4030.769230
163,4169.230769,4556.410256,4507.692307,4262.564102,4512.820512,4196.923076,4425.641025,4204.102564,4214.358974,4522.051282,4204.102564,4648.205128,4007.692307,4031.794871
164,4158.974358,4557.948717,4503.589743,4260.512820,4512.820512,4197.435897,4424.102564,4206.666666,4213.846153,4526.153846,4211.282051,4646.153846,4008.205128,4030.769230
165,4148.205128,4561.025641,4503.076923,4261.025641,4509.230769,4194.871794,4422.051282,4199.487179,4212.820512,4518.974358,4213.846153,4646.153846,4011.282051,4029.230769
166,4140.000000,4560.000000,4504.102564,4264.102564,4513.846153,4200.000000,4426.153846,4200.512820,4216.923076,4523.589743,4201.025641,4647.692307,4015.384615,4031.794871
167,4136.410256,4566.153846,4504.615384,4269.743589,4521.025641,4207.692307,4429.230769,4207.179487,4225.128205,4532.307692,4196.410256,4651.282051,4025.128205,4040.000000
168,4132.820512,4572.820512,4506.153846,4269.230769,4521.538461,4210.256410,4429.230769,4209.230769,4227.692307,4532.307692,4207.692307,4655.384615,4028.205128,4044.102564
169,4122.051282,4565.641025,4506.666666,4266.153846,4519.487179,4204.615384,4429.230769,4205.641025,4225.128205,4534.871794,4213.846153,4655.384615,4021.538461,4041.025641
170,4111.794871,4563.076923,4507.692307,4268.717948,4512.820512,4196.923076,4427.179487,4200.512820,4218.974358,4534.871794,4210.769230,4650.256410,4022.051282,4037.435897
171,4108.717948,4573.333333,4505.641025,4268.717948,4510.769230,4196.923076,4424.615384,4200.000000,4218.461538,4528.717948,4208.717948,4648.205128,4031.794871,4037.948717
172,4108.205128,4577.435897,4509.743589,4268.717948,4523.589743,4207.692307,4428.717948,4207.692307,4228.717948,4533.333333,4208.205128,4655.384615,4038.974358,4044.102564
173,4105.128205,4569.743589,4522.051282,4274.358974,4531.794871,4211.794871,4431.794871,4210.769230,4235.897435,4540.000000,4205.128205,4661.025641,4036.923076,4049.743589
174,4095.384615,4570.769230,4521.025641,4275.384615,4518.974358,4203.589743,4425.641025,4206.153846,4229.230769,4537.435897,4213.333333,4656.410256,4033.333333,4047.692307
175,4089.230769,4582.051282,4509.743589,4275.384615,4512.820512,4202.051282,4425.641025,4209.230769,4226.153846,4538.974358,4232.307692,4656.410256,4033.846153,4051.282051
176,4089.743589,4582.051282,4508.717948,4280.000000,4524.102564,4207.692307,4433.333333,4215.384615,4235.384615,4547.179487,4236.410256,4661.538461,4032.307692,4059.487179
177,4081.025641,4572.820512,4510.256410,4276.410256,4524.615384,4206.153846,4428.717948,4212.307692,4240.512820,4550.256410,4223.589743,4657.948717,4025.128205,4056.410256
178,4070.256410,4573.846153,4506.153846,4268.205128,4517.435897,4203.076923,4423.589743,4211.282051,4238.461538,4546.666666,4220.512820,4651.794871,4017.948717,4048.717948
179,4068.717948,4581.538461,4506.666666,4270.769230,4521.538461,4205.641025,4431.282051,4218.974358,4238.974358,4543.589743,4225.641025,4654.358974,4016.410256,4049.743589
180,4062.564102,4574.871794,4506.666666,4272.820512,4523.076923,4204.102564,4428.717948,4215.384615,4233.333333,4538.974358,4220.512820,4654.871794,4011.282051,4049.230769
181,4051.282051,4561.025641,4502.051282,4267.692307,4513.846153,4197.435897,4414.358974,4203.076923,4223.589743,4531.794871,4210.769230,4644.615384,4008.717948,4040.000000
182,4052.307692,4564.615384,4504.102564,4267.179487,4512.820512,4197.435897,4417.435897,4204.102564,4222.051282,4529.230769,4206.666666,4642.051282,4018.461538,4041.025641
183,4052.820512,4573.333333,4509.230769,4266.666666,4520.000000,4200.000000,4427.179487,4207.692307,4229.230769,4534.358974,4210.769230,4650.256410,4023.589743,4047.692307
184,4041.538461,4569.230769,4507.179487,4266.153846,4516.410256,4197.435897,4420.512820,4201.025641,4225.128205,4531.282051,4215.897435,4650.769230,4012.820512,4045.128205
185,4032.820512,4563.076923,4504.615384,4271.282051,4508.205128,4193.333333,4413.846153,4196.410256,4213.333333,4521.538461,4213.333333,4644.102564,4006.666666,4039.487179
186,4028.205128,4560.000000,4506.153846,4272.820512,4507.692307,4192.307692,4415.384615,4195.384615,4211.794871,4519.487179,4207.179487,4643.076923,4011.282051,4039.487179
187,4022.564102,4557.435897,4503.076923,4267.179487,4513.846153,4193.333333,4412.307692,4192.307692,4212.820512,4517.948717,4202.051282,4643.589743,4011.794871,4041.538461
188,4023.589743,4560.512820,4499.487179,4265.128205,4514.358974,4195.897435,4410.769230,4193.846153,4210.256410,4517.948717,4205.128205,4645.128205,4012.307692,4044.102564
189,4021.538461,4562.564102,4500.000000,4260.000000,4512.820512,4195.384615,4413.846153,4195.384615,4212.820512,4524.102564,4207.692307,4649.743589,4011.794871,4045.128205
190,4010.769230,4559.487179,4496.410256,4250.769230,4514.358974,4194.871794,4411.794871,4194.871794,4216.923076,4525.641025,4208.205128,4646.153846,4003.589743,4037.435897
191,4007.692307,4560.000000,4491.282051,4257.435897,4513.333333,4194.358974,4412.307692,4196.410256,4215.897435,4523.589743,4202.564102,4642.051282,4008.205128,4033.846153
192,4012.307692,4562.051282,4493.333333,4272.820512,4513.333333,4195.384615,4415.897435,4195.384615,4214.358974,4527.692307,4193.846153,4643.076923,4021.025641,4041.025641
193,4006.666666,4558.461538,4493.333333,4271.794871,4515.897435,4195.897435,4412.307692,4190.256410,4213.333333,4529.230769,4202.051282,4639.487179,4016.923076,4042.564102
194,4000.512820,4557.435897,4490.769230,4265.128205,4518.461538,4195.897435,4412.820512,4191.794871,4213.846153,4525.641025,4216.410256,4635.897435,4014.358974,4040.000000
195,4001.025641,4559.487179,4493.846153,4266.153846,4516.923076,4196.923076,4420.000000,4196.923076,4215.897435,4524.615384,4207.692307,4636.923076,4024.102564,4041.538461
196,3995.897436,4553.846153,4492.820512,4261.025641,4510.256410,4192.820512,4414.358974,4191.282051,4207.179487,4516.923076,4192.307692,4632.820512,4016.923076,4033.846153
197,3988.205129,4543.589743,4487.692307,4244.615384,4503.589743,4185.128205,4405.128205,4185.128205,4203.076923,4513.846153,4191.794871,4626.666666,4006.153846,4025.641025
198,3989.743590,4543.589743,4490.769230,4246.153846,4504.615384,4185.128205,4410.256410,4195.384615,4214.871794,4526.666666,4192.307692,4629.230769,4015.897435,4032.307692
199,3990.256411,4546.666666,4494.871794,4257.948717,4511.282051,4192.307692,4414.358974,4201.025641,4216.410256,4529.743589,4198.974358,4636.410256,4021.538461,4036.410256
200,3977.435898,4542.564102,4490.769230,4251.282051,4507.692307,4191.282051,4409.743589,4192.820512,4205.128205,4516.410256,4205.128205,4631.282051,4011.794871,4026.153846
201,3970.256411,4544.102564,4488.205128,4242.564102,4505.128205,4187.179487,4407.692307,4188.205128,4203.589743,4511.794871,4192.820512,4620.000000,4005.128205,4021.025641
202,3975.384616,4546.666666,4489.230769,4249.743589,4508.205128,4186.666666,4409.743589,4192.820512,4209.230769,4516.410256,4189.743589,4617.948717,3998.974359,4027.179487
203,3974.358975,4536.923076,4488.205128,4254.871794,4506.153846,4186.153846,4411.794871,4194.358974,4208.717948,4515.897435,4196.410256,4625.641025,3984.102565,4027.179487
204,3971.282052,4534.871794,4487.692307,4250.256410,4503.589743,4187.692307,4412.307692,4193.846153,4206.666666,4519.487179,4190.769230,4629.743589,3984.615385,4024.102564
205,3975.384616,4544.615384,4489.230769,4249.743589,4505.641025,4189.230769,4411.794871,4193.846153,4206.666666,4527.179487,4187.692307,4628.717948,4000.512820,4025.128205
206,3976.410257,4546.153846,4490.256410,4254.871794,4506.153846,4188.717948,4411.282051,4196.923076,4212.307692,4525.641025,4198.974358,4630.769230,4007.179487,4030.256410
207,3974.871795,4538.974358,4489.743589,4262.564102,4506.153846,4190.256410,4413.333333,4201.538461,4218.461538,4524.102564,4202.051282,4631.794871,4011.794871,4033.846153
208,3983.589744,4543.076923,4492.820512,4272.307692,4516.410256,4197.435897,4418.974358,4205.128205,4224.102564,4535.897435,4204.615384,4636.923076,4031.282051,4039.487179
209,3990.769231,4552.820512,4494.871794,4273.846153,4521.025641,4201.538461,4423.589743,4208.717948,4226.666666,4544.102564,4215.384615,4642.564102,4040.512820,4046.666666
210,3987.692308,4552.820512,4492.307692,4268.717948,4513.846153,4196.923076,4418.461538,4206.666666,4219.487179,4537.948717,4209.743589,4637.435897,4032.820512,4044.102564
211,3980.512821,4547.692307,4489.230769,4260.000000,4508.717948,4190.256410,4409.230769,4195.384615,4208.717948,4529.230769,4194.358974,4630.769230,4028.717948,4037.435897
212,3977.948718,4547.692307,4487.692307,4250.256410,4510.769230,4189.743589,4408.717948,4188.205128,4207.692307,4523.076923,4193.846153,4632.307692,4025.641025,4036.410256
213,3985.128206,4550.769230,4493.846153,4258.974358,4517.435897,4196.923076,4417.948717,4197.948717,4218.461538,4524.615384,4208.717948,4643.076923,4027.692307,4044.102564
214,3989.230770,4554.358974,4505.128205,4274.358974,4516.923076,4196.410256,4421.538461,4205.641025,4222.051282,4533.846153,4217.435897,4650.769230,4037.948717,4049.230769
215,3986.666667,4555.384615,4506.153846,4271.282051,4513.846153,4192.307692,4416.923076,4196.410256,4213.846153,4532.307692,4207.692307,4646.666666,4032.307692,4043.589743
216,3984.102565,4553.333333,4498.461538,4265.128205,4515.897435,4194.871794,4417.435897,4189.230769,4207.692307,4522.564102,4204.102564,4638.974358,4015.384615,4038.974358
217,3982.564103,4550.769230,4496.410256,4270.769230,4517.948717,4198.974358,4421.538461,4191.282051,4208.717948,4522.564102,4206.666666,4638.461538,4017.948717,4041.538461
218,3977.948718,4547.692307,4494.358974,4266.153846,4515.897435,4195.897435,4422.051282,4193.846153,4211.282051,4526.153846,4193.846153,4640.000000,4032.820512,4043.076923
219,3975.384616,4544.615384,4494.871794,4256.923076,4513.333333,4190.769230,4416.923076,4193.333333,4214.871794,4526.666666,4186.666666,4639.487179,4035.897435,4040.512820
220,3976.410257,4548.205128,4504.102564,4264.615384,4513.846153,4193.333333,4417.948717,4197.435897,4222.564102,4534.358974,4214.358974,4647.179487,4035.897435,4043.076923
221,3975.897436,4550.256410,4502.051282,4266.666666,4514.871794,4195.897435,4421.025641,4199.487179,4220.512820,4535.897435,4233.846153,4649.743589,4038.461538,4046.666666
222,3975.384616,4543.076923,4489.230769,4254.871794,4511.282051,4190.769230,4419.487179,4192.820512,4210.256410,4526.153846,4209.743589,4640.000000,4040.000000,4042.051282
223,3973.846154,4540.512820,4492.307692,4255.897435,4508.205128,4188.205128,4417.948717,4191.794871,4210.769230,4526.153846,4187.179487,4635.897435,4038.974358,4038.461538
224,3972.307693,4547.692307,4498.461538,4264.102564,4511.794871,4193.846153,4416.923076,4195.384615,4217.435897,4527.179487,4193.333333,4637.435897,4037.948717,4037.948717
225,3971.282052,4543.589743,4491.282051,4263.589743,4514.871794,4194.871794,4414.871794,4193.333333,4216.923076,4520.512820,4204.615384,4635.897435,4038.461538,4035.384615
226,3970.769231,4532.820512,4486.666666,4259.487179,4510.256410,4190.256410,4415.897435,4191.282051,4210.769230,4522.051282,4206.666666,4634.871794,4035.897435,4034.871794
227,3969.743590,4535.897435,4491.282051,4255.897435,4508.205128,4189.743589,4418.974358,4196.923076,4212.307692,4528.205128,4210.769230,4639.487179,4036.410256,4038.461538
228,3972.820513,4543.589743,4491.794871,4256.410256,4510.769230,4191.282051,4420.512820,4202.051282,4220.512820,4531.282051,4209.230769,4645.128205,4047.179487,4042.051282
229,3972.307693,4537.435897,4489.743589,4258.461538,4514.358974,4191.282051,4417.948717,4194.871794,4215.897435,4526.153846,4190.769230,4641.538461,4047.692307,4039.487179
230,3964.102565,4533.846153,4491.282051,4257.435897,4512.820512,4189.230769,4414.358974,4188.205128,4206.153846,4518.461538,4187.692307,4635.897435,4032.820512,4034.871794
231,3966.666667,4542.051282,4492.307692,4258.974358,4506.666666,4185.641025,4414.871794,4198.461538,4215.897435,4521.538461,4208.205128,4639.487179,4029.230769,4036.410256
232,3973.846154,4542.564102,4494.358974,4257.435897,4509.230769,4188.205128,4422.564102,4207.692307,4227.692307,4530.256410,4212.820512,4644.102564,4035.384615,4042.564102
233,3965.641026,4534.358974,4487.692307,4246.153846,4512.307692,4189.230769,4417.435897,4194.871794,4212.307692,4522.051282,4187.179487,4631.282051,4030.769230,4035.384615
234,3952.307693,4528.205128,4475.384615,4242.051282,4502.051282,4180.512820,4406.666666,4176.923076,4195.384615,4507.179487,4170.769230,4619.487179,4024.615384,4021.025641
235,3955.897436,4526.153846,4479.487179,4250.769230,4495.384615,4176.923076,4411.282051,4181.025641,4201.538461,4509.743589,4181.538461,4627.692307,4024.102564,4021.538461
236,3968.205129,4531.282051,4491.794871,4254.358974,4502.051282,4183.589743,4413.846153,4189.230769,4210.769230,4515.897435,4193.846153,4633.333333,4025.641025,4030.256410
237,3967.179488,4533.333333,4489.743589,4253.846153,4509.743589,4189.230769,4410.769230,4187.179487,4212.307692,4517.948717,4193.333333,4624.102564,4030.256410,4030.256410
238,3963.076924,4526.666666,4483.076923,4253.846153,4509.230769,4188.205128,4413.333333,4188.717948,4213.333333,4520.512820,4192.307692,4621.025641,4031.794871,4028.717948
239,3967.692308,4525.128205,4488.205128,4250.256410,4507.179487,4184.102564,4414.871794,4192.307692,4210.256410,4520.000000,4194.358974,4626.666666,4028.717948,4030.256410
240,3968.717949,4531.282051,4489.743589,4243.589743,4508.205128,4186.153846,4410.256410,4186.666666,4208.717948,4515.897435,4194.358974,4625.641025,4024.102564,4029.230769
241,3957.435898,4525.641025,4478.974358,4238.461538,4508.205128,4187.179487,4406.153846,4180.512820,4208.205128,4509.230769,4189.230769,4618.974358,4011.282051,4024.615384
242,3953.333334,4518.461538,4472.307692,4238.461538,4506.666666,4183.589743,4407.179487,4180.000000,4205.128205,4509.743589,4181.538461,4616.923076,4003.076923,4021.025641
243,3962.051283,4527.179487,4482.564102,4244.615384,4507.179487,4185.641025,4408.717948,4179.487179,4204.615384,4515.384615,4184.102564,4620.512820,4010.256410,4021.538461
244,3970.256411,4538.461538,4491.282051,4249.743589,4514.358974,4193.846153,4414.358974,4184.615384,4211.282051,4516.923076,4200.000000,4627.692307,4017.948717,4028.717948
245,3980.000000,4545.128205,4491.282051,4255.384615,4524.102564,4201.025641,4423.589743,4198.461538,4220.000000,4521.538461,4212.820512,4637.435897,4024.615384,4037.948717
246,3993.846154,4545.641025,4501.025641,4263.076923,4525.641025,4203.076923,4429.230769,4207.692307,4227.692307,4533.333333,4218.461538,4647.179487,4033.846153,4044.102564
247,3995.384616,4537.435897,4507.179487,4262.564102,4521.538461,4200.000000,4428.717948,4208.205128,4230.256410,4536.410256,4211.282051,4649.743589,4034.871794,4042.051282
248,3985.128206,4527.179487,4496.410256,4255.384615,4522.051282,4197.948717,4424.615384,4205.641025,4226.666666,4526.153846,4200.512820,4641.025641,4031.282051,4034.871794
249,3974.871795,4520.512820,4489.743589,4243.076923,4523.076923,4197.435897,4417.435897,4196.410256,4216.923076,4517.948717,4202.564102,4631.794871,4023.589743,4027.692307
250,3971.794872,4516.410256,4490.256410,4234.358974,4515.897435,4190.256410,4411.794871,4187.692307,4207.179487,4516.923076,4205.641025,4629.743589,4009.743589,4022.564102
251,3978.461539,4521.025641,4489.743589,4247.179487,4514.871794,4188.717948,4416.923076,4191.794871,4213.333333,4524.102564,4201.538461,4631.794871,4009.230769,4027.179487
252,3990.256411,4528.717948,4498.974358,4263.589743,4517.948717,4195.897435,4422.564102,4196.923076,4224.102564,4528.205128,4195.897435,4639.487179,4016.923076,4036.923076
253,3995.384616,4522.564102,4506.153846,4260.512820,4516.923076,4196.923076,4421.025641,4193.333333,4217.435897,4521.538461,4198.974358,4644.615384,4015.384615,4038.974358
254,3985.128206,4508.717948,4494.358974,4244.615384,4515.897435,4191.794871,4413.846153,4187.692307,4204.102564,4513.333333,4197.948717,4636.410256,4009.743589,4029.743589
255,3972.307693,4497.435897,4483.076923,4232.820512,4511.282051,4186.666666,4406.153846,4184.615384,4197.435897,4504.615384,4180.512820,4622.051282,4002.564102,4018.461538
256,3975.384616,4495.897435,4487.179487,4236.923076,4509.230769,4188.205128,4412.307692,4191.282051,4205.641025,4508.205128,4178.461538,4621.025641,4000.000000,4018.461538
257,3986.666667,4504.102564,4494.358974,4247.179487,4512.307692,4192.307692,4424.615384,4203.076923,4220.000000,4522.051282,4199.487179,4632.820512,4008.205128,4029.230769
258,3989.230770,4507.179487,4493.846153,4248.717948,4513.333333,4190.256410,4418.461538,4202.564102,4218.461538,4518.974358,4197.435897,4635.384615,4013.333333,4029.743589
259,3982.051283,4498.461538,4487.692307,4241.538461,4514.358974,4189.230769,4409.230769,4192.820512,4210.256410,4505.128205,4176.410256,4629.743589,4009.743589,4019.487179
