,AF3,F7,F3,FC5,T7,P7,O1,O2,P8,T8,FC6,F4,F8,AF4
0,4394.358974,4545.128205,4514.871794,4270.769230,4444.615384,4135.897435,4433.846153,4198.461538,4222.564102,4455.384615,4190.256410,4629.230769,3985.128206,4027.692307
1,4400.000000,4553.333333,4522.564102,4275.897435,4443.076923,4136.410256,4440.512820,4197.435897,4221.025641,4470.769230,4190.256410,4633.846153,3991.794872,4038.461538
2,4398.974358,4555.897435,4526.153846,4277.435897,4443.076923,4137.435897,4440.512820,4198.461538,4225.128205,4487.692307,4189.743589,4636.923076,3998.461539,4038.461538
3,4395.897435,4559.487179,4526.153846,4279.487179,4445.641025,4136.923076,4436.410256,4200.512820,4234.358974,4476.923076,4196.410256,4640.512820,3996.410257,4032.820512
4,4398.974358,4565.128205,4525.128205,4285.128205,4451.282051,4140.512820,4435.384615,4202.564102,4231.282051,4467.179487,4197.948717,4637.948717,3993.333334,4038.974358
5,4408.205128,4568.205128,4525.128205,4288.205128,4455.384615,4146.153846,4439.487179,4202.051282,4228.205128,4474.358974,4200.512820,4634.871794,4001.025641,4047.179487
6,4401.025641,4562.051282,4516.410256,4276.923076,4450.256410,4142.051282,4436.923076,4197.435897,4224.615384,4471.282051,4192.307692,4628.205128,4001.025641,4033.846153
7,4378.461538,4550.256410,4504.102564,4260.000000,4441.025641,4132.820512,4425.128205,4188.205128,4212.307692,4463.589743,4167.692307,4616.410256,3982.564103,4013.846153
8,4377.948717,4549.743589,4506.666666,4262.051282,4441.538461,4134.871794,4421.025641,4184.615384,4210.256410,4471.794871,4163.076923,4614.358974,3974.871795,4017.948717
9,4395.384615,4557.435897,4522.051282,4278.461538,4450.769230,4142.564102,4431.794871,4195.897435,4224.102564,4483.076923,4190.256410,4624.102564,3988.205129,4036.923076
10,4398.974358,4555.897435,4528.205128,4284.615384,4453.846153,4141.538461,4438.461538,4202.051282,4231.282051,4481.025641,4202.051282,4631.794871,3994.871795,4043.076923
11,4393.846153,4553.333333,4518.461538,4275.897435,4447.692307,4137.435897,4430.769230,4195.897435,4221.538461,4473.333333,4192.307692,4627.179487,3988.717949,4033.333333
12,4398.461538,4559.487179,4514.871794,4273.846153,4445.128205,4138.974358,4430.256410,4196.410256,4220.000000,4477.435897,4193.333333,4626.666666,3992.307693,4032.307692
13,4406.153846,4563.589743,4523.076923,4280.512820,4447.692307,4137.948717,4442.051282,4205.641025,4231.282051,4486.153846,4199.487179,4634.871794,4004.102564,4042.564102
14,4400.512820,4556.923076,4518.974358,4274.871794,4443.589743,4132.820512,4441.538461,4208.717948,4232.307692,4484.102564,4187.179487,4633.846153,3997.948718,4034.358974
15,4390.256410,4550.769230,4509.230769,4262.564102,4438.461538,4127.692307,4436.410256,4210.769230,4230.256410,4482.564102,4178.461538,4623.076923,3983.589744,4018.974358
16,4391.794871,4555.384615,4516.410256,4265.641025,4441.538461,4129.743589,4441.025641,4214.358974,4237.435897,4495.384615,4195.384615,4628.717948,3990.769231,4033.846153
17,4397.435897,4554.358974,4523.589743,4272.820512,4442.564102,4132.307692,4433.846153,4208.205128,4235.384615,4491.282051,4203.076923,4636.410256,4004.615384,4047.692307
18,4390.769230,4542.564102,4512.307692,4267.179487,4440.000000,4127.179487,4418.461538,4196.410256,4218.461538,4469.230769,4186.153846,4624.615384,3993.333334,4031.794871
19,4382.051282,4537.948717,4502.564102,4262.564102,4440.000000,4126.153846,4418.461538,4187.179487,4206.153846,4464.615384,4180.000000,4616.923076,3972.820513,4015.384615
20,4380.000000,4542.051282,4504.102564,4264.615384,4441.538461,4135.897435,4426.153846,4181.025641,4201.025641,4466.666666,4184.615384,4619.487179,3971.282052,4018.461538
21,4380.512820,4545.641025,4508.205128,4265.641025,4445.641025,4142.051282,4429.230769,4184.615384,4203.589743,4463.589743,4174.358974,4618.461538,3977.948718,4027.179487
22,4386.153846,4550.769230,4509.743589,4265.641025,4450.769230,4138.974358,4432.820512,4196.923076,4218.461538,4461.025641,4169.743589,4621.025641,3980.000000,4031.282051
23,4392.820512,4555.384615,4512.820512,4264.615384,4449.230769,4137.948717,4433.333333,4204.102564,4229.743589,4461.025641,4183.076923,4628.717948,3985.128206,4029.743589
24,4393.333333,4551.794871,4515.897435,4266.153846,4445.641025,4140.000000,4425.641025,4201.538461,4228.205128,4470.769230,4185.641025,4629.230769,3990.769231,4030.256410
25,4393.846153,4549.743589,4520.512820,4273.846153,4448.717948,4137.948717,4417.435897,4204.102564,4227.692307,4490.256410,4187.692307,4633.846153,3996.410257,4042.051282
26,4402.564102,4554.358974,4530.769230,4283.076923,4446.153846,4136.410256,4420.512820,4214.358974,4233.333333,4501.025641,4205.128205,4650.769230,4008.205128,4050.769230
27,4408.205128,4557.435897,4535.384615,4283.589743,4439.487179,4135.384615,4432.820512,4218.974358,4238.974358,4495.384615,4207.179487,4653.846153,4009.230769,4043.076923
28,4400.000000,4551.282051,4531.282051,4277.435897,4441.025641,4135.384615,4442.051282,4214.871794,4237.948717,4482.564102,4183.589743,4640.000000,3990.769231,4038.461538
29,4393.846153,4544.102564,4523.589743,4274.871794,4445.641025,4136.410256,4445.128205,4210.256410,4225.128205,4467.692307,4167.179487,4628.205128,3979.487180,4045.128205
30,4396.923076,4550.256410,4517.948717,4278.461538,4447.179487,4140.000000,4445.128205,4202.564102,4213.333333,4466.666666,4173.846153,4623.076923,3986.666667,4046.153846
31,4390.769230,4554.358974,4516.410256,4276.923076,4447.179487,4141.538461,4435.897435,4188.717948,4215.384615,4473.846153,4180.512820,4618.461538,3988.205129,4031.794871
32,4381.025641,4547.692307,4518.461538,4271.794871,4447.692307,4137.435897,4424.615384,4188.205128,4223.076923,4474.871794,4184.102564,4621.025641,3983.076924,4022.051282
33,4389.230769,4546.666666,4522.564102,4275.384615,4449.230769,4137.435897,4426.153846,4204.102564,4228.717948,4485.641025,4194.358974,4631.282051,3994.871795,4033.846153
34,4396.410256,4548.205128,4524.102564,4279.487179,4448.205128,4142.051282,4431.794871,4214.358974,4233.333333,4498.461538,4191.794871,4632.820512,4008.717948,4045.128205
35,4391.794871,4539.487179,4524.615384,4275.384615,4444.615384,4141.025641,4435.897435,4211.794871,4237.948717,4487.692307,4185.128205,4631.282051,4006.666666,4046.153846
36,4392.820512,4534.871794,4525.641025,4273.333333,4442.564102,4135.897435,4438.974358,4212.307692,4240.000000,4474.358974,4196.923076,4634.871794,3999.487180,4043.589743
37,4400.512820,4543.589743,4532.307692,4277.948717,4444.102564,4136.923076,4435.897435,4215.897435,4235.897435,4484.102564,4204.615384,4636.923076,3997.435898,4042.564102
38,4408.205128,4549.743589,4545.641025,4285.641025,4443.589743,4137.435897,4433.846153,4215.897435,4231.282051,4493.333333,4197.948717,4638.461538,3999.487180,4052.820512
39,4409.743589,4553.333333,4549.230769,4289.743589,4437.948717,4130.256410,4435.897435,4216.410256,4234.358974,4486.153846,4198.461538,4642.051282,3998.974359,4060.512820
40,4400.512820,4555.384615,4537.948717,4283.589743,4435.384615,4128.717948,4434.871794,4215.384615,4233.333333,4479.487179,4201.025641,4641.025641,3992.307693,4046.153846
41,4393.333333,4551.794871,4530.256410,4281.025641,4440.000000,4133.333333,4436.923076,4213.333333,4230.256410,4477.948717,4192.820512,4633.846153,3987.179488,4029.743589
42,4391.282051,4542.051282,4529.743589,4281.538461,4441.538461,4132.820512,4444.102564,4213.846153,4232.820512,4477.435897,4184.102564,4630.256410,3991.282052,4034.871794
43,4387.692307,4532.820512,4525.641025,4271.794871,4439.487179,4131.794871,4445.641025,4213.846153,4230.256410,4475.897435,4181.025641,4631.794871,3996.410257,4042.051282
44,4386.666666,4534.358974,4522.051282,4261.025641,4441.025641,4136.923076,4442.564102,4208.205128,4224.102564,4470.256410,4184.102564,4630.256410,3997.948718,4035.384615
45,4386.153846,4537.435897,4521.538461,4265.641025,4447.179487,4140.512820,4437.435897,4198.974358,4215.384615,4464.102564,4182.564102,4623.589743,3989.230770,4025.641025
46,4383.589743,4534.358974,4518.974358,4275.384615,4455.384615,4141.025641,4434.871794,4197.435897,4211.794871,4467.179487,4182.051282,4621.538461,3978.974359,4026.153846
47,4390.769230,4537.948717,4518.461538,4281.025641,4460.000000,4147.692307,4440.000000,4204.615384,4228.205128,4481.538461,4193.846153,4629.743589,3992.307693,4041.025641
48,4393.846153,4546.666666,4518.974358,4281.025641,4458.461538,4153.846153,4444.102564,4206.153846,4238.461538,4486.153846,4193.846153,4631.794871,4010.256410,4046.666666
49,4386.153846,4550.769230,4517.435897,4280.000000,4458.461538,4149.230769,4440.512820,4201.538461,4224.102564,4477.435897,4186.153846,4627.179487,4009.230769,4041.025641
50,4386.153846,4558.461538,4521.538461,4285.128205,4457.435897,4141.538461,4435.897435,4204.102564,4221.025641,4480.000000,4197.435897,4631.282051,4003.076923,4040.512820
51,4395.897435,4565.128205,4530.769230,4290.256410,4450.769230,4135.897435,4432.820512,4207.179487,4228.205128,4484.615384,4208.205128,4637.435897,4008.205128,4045.641025
52,4409.743589,4562.564102,4542.051282,4293.846153,4444.102564,4132.820512,4439.487179,4214.871794,4232.307692,4485.128205,4206.153846,4647.692307,4022.051282,4061.538461
53,4418.461538,4557.948717,4552.820512,4298.974358,4440.512820,4132.307692,4454.358974,4231.794871,4252.307692,4500.000000,4213.333333,4660.000000,4029.743589,4076.410256
54,4412.820512,4553.846153,4548.717948,4294.358974,4441.538461,4136.410256,4460.512820,4237.948717,4263.589743,4509.743589,4222.564102,4656.410256,4027.179487,4066.666666
55,4397.948717,4545.128205,4534.358974,4274.358974,4444.615384,4138.974358,4459.487179,4225.641025,4243.076923,4493.846153,4206.666666,4642.051282,4016.923076,4050.256410
56,4387.179487,4530.256410,4522.051282,4260.000000,4440.000000,4135.384615,4457.435897,4209.743589,4223.076923,4480.000000,4184.102564,4632.307692,4004.615384,4046.153846
57,4382.051282,4522.051282,4518.974358,4266.666666,4443.589743,4139.487179,4453.333333,4207.179487,4225.128205,4482.051282,4186.666666,4628.717948,3998.461539,4038.974358
58,4378.974358,4527.179487,4522.564102,4277.435897,4455.897435,4150.256410,4447.692307,4212.307692,4231.282051,4482.051282,4201.538461,4629.743589,4000.512820,4029.230769
59,4378.461538,4536.923076,4521.025641,4275.897435,4454.358974,4148.205128,4441.538461,4208.717948,4224.615384,4476.410256,4200.000000,4630.256410,3999.487180,4031.794871
60,4384.102564,4547.179487,4519.487179,4277.948717,4449.230769,4140.000000,4441.025641,4203.076923,4215.897435,4477.435897,4196.410256,4632.307692,3998.461539,4042.051282
61,4404.102564,4557.948717,4534.871794,4294.358974,4457.948717,4147.179487,4452.307692,4217.948717,4231.282051,4488.205128,4207.179487,4644.102564,4011.794871,4057.435897
62,4416.923076,4563.589743,4548.205128,4303.076923,4464.102564,4158.974358,4463.076923,4233.846153,4252.307692,4492.820512,4201.538461,4653.333333,4025.128205,4066.666666
63,4415.384615,4566.153846,4546.153846,4297.435897,4460.512820,4153.333333,4460.000000,4230.256410,4247.692307,4493.846153,4196.410256,4655.384615,4024.102564,4067.179487
64,4413.333333,4570.769230,4547.179487,4297.948717,4452.820512,4143.589743,4457.948717,4230.256410,4246.666666,4505.128205,4217.948717,4658.461538,4025.128205,4069.230769
65,4407.692307,4562.051282,4544.102564,4297.948717,4448.205128,4140.512820,4453.846153,4235.384615,4254.358974,4505.128205,4221.538461,4655.897435,4024.102564,4062.051282
66,4393.333333,4540.000000,4530.769230,4284.615384,4451.282051,4136.923076,4441.538461,4228.205128,4241.025641,4492.307692,4201.025641,4645.128205,4011.794871,4046.153846
67,4386.153846,4531.794871,4528.205128,4275.384615,4455.897435,4138.461538,4444.615384,4219.487179,4229.743589,4486.666666,4198.974358,4640.000000,4000.000000,4040.000000
68,4392.307692,4543.076923,4532.820512,4280.000000,4457.948717,4149.743589,4461.538461,4219.487179,4235.897435,4476.923076,4198.974358,4639.487179,3999.487180,4046.153846
69,4395.897435,4549.230769,4532.820512,4282.564102,4454.871794,4148.717948,4460.000000,4218.461538,4228.205128,4468.717948,4182.564102,4636.923076,4001.538461,4048.717948
70,4392.820512,4544.102564,4531.794871,4281.025641,4449.743589,4140.000000,4448.717948,4210.769230,4214.871794,4473.333333,4179.487179,4634.871794,3994.871795,4043.076923
71,4392.307692,4543.589743,4530.769230,4287.179487,4451.282051,4144.102564,4453.846153,4209.743589,4223.589743,4477.435897,4187.692307,4634.871794,3987.692308,4037.435897
72,4389.743589,4547.179487,4527.179487,4287.692307,4453.846153,4146.666666,4456.923076,4216.410256,4232.307692,4477.948717,4186.153846,4631.282051,3984.615385,4039.487179
73,4379.487179,4540.000000,4521.538461,4280.000000,4449.743589,4137.948717,4446.666666,4218.974358,4226.153846,4478.974358,4183.076923,4623.076923,3981.538462,4037.435897
74,4368.717948,4529.230769,4515.384615,4275.897435,4444.102564,4135.897435,4441.025641,4210.769230,4225.128205,4474.358974,4180.000000,4616.410256,3982.564103,4023.589743
75,4366.153846,4530.256410,4512.307692,4268.717948,4444.615384,4140.000000,4442.051282,4209.230769,4233.333333,4472.820512,4174.358974,4614.358974,3987.692308,4020.000000
76,4368.205128,4542.564102,4511.282051,4266.666666,4444.615384,4137.948717,4443.076923,4211.794871,4227.179487,4474.871794,4172.820512,4613.846153,3984.615385,4027.179487
77,4371.794871,4553.846153,4512.307692,4275.384615,4446.666666,4134.358974,4443.076923,4205.128205,4212.820512,4474.871794,4171.282051,4612.820512,3973.333334,4022.051282
78,4374.871794,4554.871794,4515.897435,4281.538461,4451.282051,4140.512820,4444.615384,4204.615384,4221.025641,4474.358974,4174.871794,4614.871794,3975.897436,4017.435897
79,4375.897435,4551.282051,4517.435897,4276.410256,4456.410256,4148.717948,4445.641025,4212.820512,4230.256410,4473.333333,4179.487179,4617.948717,3985.641026,4025.128205
80,4385.128205,4557.948717,4519.487179,4274.871794,4460.512820,4151.794871,4447.179487,4217.435897,4223.589743,4477.948717,4181.025641,4623.589743,3990.769231,4034.871794
81,4397.948717,4568.205128,4527.179487,4276.923076,4458.974358,4152.307692,4452.820512,4222.051282,4230.256410,4488.205128,4181.025641,4636.410256,4000.512820,4042.564102
82,4398.461538,4572.307692,4531.282051,4275.384615,4456.923076,4151.282051,4455.384615,4227.692307,4245.128205,4492.307692,4188.205128,4644.615384,4011.282051,4047.179487
83,4392.820512,4569.230769,4528.717948,4275.384615,4457.948717,4148.717948,4451.794871,4225.128205,4235.897435,4490.256410,4197.948717,4638.974358,4009.743589,4043.076923
84,4392.820512,4566.666666,4528.205128,4276.923076,4453.333333,4147.179487,4453.333333,4223.589743,4223.589743,4490.769230,4201.538461,4633.333333,4007.179487,4041.538461
85,4395.384615,4571.282051,4532.307692,4272.820512,4445.641025,4144.102564,4460.512820,4231.282051,4234.358974,4488.717948,4201.025641,4640.000000,4010.256410,4046.153846
86,4393.846153,4572.820512,4533.846153,4265.128205,4448.717948,4143.076923,4463.076923,4233.333333,4244.615384,4487.179487,4201.538461,4645.641025,4006.666666,4045.128205
87,4394.358974,4560.000000,4531.282051,4264.102564,4451.282051,4143.076923,4460.512820,4226.666666,4243.589743,4490.769230,4199.487179,4644.615384,3999.487180,4041.025641
88,4398.974358,4552.820512,4531.282051,4265.641025,4448.717948,4143.076923,4455.897435,4221.025641,4233.846153,4486.153846,4189.230769,4643.589743,4000.512820,4044.102564
89,4398.461538,4563.076923,4530.769230,4265.128205,4448.717948,4140.512820,4447.179487,4212.820512,4216.923076,4472.820512,4183.076923,4641.538461,3998.974359,4045.641025
90,4397.435897,4570.769230,4533.333333,4273.333333,4450.256410,4141.538461,4442.564102,4209.230769,4211.794871,4471.282051,4188.205128,4640.000000,3995.897436,4040.000000
91,4403.589743,4569.743589,4538.461538,4283.076923,4450.256410,4144.615384,4443.589743,4212.820512,4222.564102,4474.358974,4189.743589,4641.538461,3996.410257,4038.461538
92,4403.589743,4567.692307,4534.358974,4277.948717,4450.769230,4141.538461,4442.564102,4210.256410,4227.692307,4473.846153,4187.179487,4642.051282,3998.974359,4045.641025
93,4392.307692,4562.051282,4526.666666,4266.666666,4453.333333,4142.564102,4441.538461,4205.128205,4227.179487,4486.666666,4187.692307,4636.923076,4004.102564,4048.717948
94,4388.205128,4553.846153,4524.615384,4263.076923,4456.923076,4149.743589,4449.230769,4211.794871,4230.256410,4490.769230,4188.205128,4632.820512,4002.564102,4038.461538
95,4388.717948,4553.333333,4521.025641,4263.589743,4460.512820,4152.307692,4457.435897,4220.512820,4230.256410,4475.384615,4185.641025,4634.871794,3996.410257,4029.230769
96,4387.179487,4560.512820,4519.487179,4266.153846,4459.487179,4147.692307,4457.435897,4219.487179,4226.153846,4478.974358,4185.641025,4637.948717,4002.051282,4033.846153
97,4388.717948,4565.641025,4526.666666,4271.794871,4456.923076,4146.666666,4452.307692,4216.923076,4229.230769,4489.230769,4186.666666,4635.897435,4006.153846,4037.435897
98,4390.769230,4567.179487,4527.692307,4275.384615,4450.256410,4143.589743,4446.666666,4215.897435,4234.358974,4481.538461,4187.179487,4634.358974,3998.461539,4030.256410
99,4396.923076,4572.307692,4527.692307,4278.461538,4444.102564,4136.410256,4445.128205,4215.897435,4233.846153,4484.615384,4197.948717,4641.025641,4005.128205,4037.435897
100,4407.692307,4575.897435,4536.923076,4280.512820,4447.179487,4137.948717,4442.564102,4217.435897,4227.692307,4494.871794,4206.666666,4647.692307,4018.974358,4054.871794
101,4410.769230,4571.282051,4537.435897,4276.923076,4444.615384,4137.435897,4434.871794,4214.358974,4224.615384,4484.615384,4194.358974,4648.205128,4010.769230,4053.846153
102,4406.153846,4568.205128,4529.743589,4272.820512,4440.512820,4133.333333,4432.307692,4212.307692,4228.205128,4473.846153,4178.974358,4647.179487,4000.512820,4043.589743
103,4406.666666,4571.282051,4532.307692,4277.435897,4452.820512,4143.589743,4443.076923,4216.410256,4233.333333,4485.641025,4187.179487,4647.692307,4010.769230,4048.205128
104,4407.692307,4574.871794,4536.410256,4282.564102,4467.692307,4155.384615,4453.333333,4218.974358,4234.358974,4502.051282,4204.102564,4645.641025,4018.974358,4054.871794
105,4397.435897,4570.769230,4528.717948,4278.461538,4466.153846,4156.923076,4448.205128,4209.230769,4224.102564,4494.358974,4197.435897,4635.384615,4006.666666,4043.589743
106,4385.128205,4564.615384,4518.974358,4273.333333,4460.512820,4152.820512,4441.025641,4199.487179,4209.230769,4469.230769,4178.974358,4626.153846,3992.307693,4030.256410
107,4393.333333,4572.820512,4530.256410,4283.076923,4463.076923,4152.820512,4449.230769,4208.717948,4215.897435,4469.230769,4181.025641,4636.410256,4000.512820,4033.846153
108,4413.333333,4585.128205,4547.179487,4297.948717,4466.153846,4156.923076,4460.512820,4223.589743,4234.358974,4493.333333,4196.923076,4656.410256,4017.948717,4043.076923
109,4416.923076,4577.948717,4546.666666,4294.358974,4461.538461,4152.820512,4461.538461,4223.076923,4241.025641,4504.615384,4207.179487,4660.512820,4018.974358,4051.282051
110,4408.205128,4566.666666,4540.000000,4281.025641,4449.743589,4141.538461,4455.897435,4218.461538,4242.051282,4501.025641,4210.769230,4653.333333,4016.410256,4063.589743
111,4406.153846,4565.641025,4540.000000,4278.461538,4442.051282,4134.358974,4450.256410,4219.487179,4237.948717,4499.487179,4211.282051,4655.897435,4022.564102,4066.666666
112,4407.179487,4562.051282,4539.487179,4279.487179,4443.589743,4135.897435,4446.153846,4218.974358,4229.743589,4500.512820,4209.743589,4659.487179,4026.153846,4060.512820
113,4399.487179,4555.897435,4533.333333,4269.743589,4445.641025,4136.923076,4445.641025,4217.435897,4230.769230,4501.025641,4206.666666,4651.794871,4015.384615,4054.358974
114,4389.743589,4556.923076,4526.666666,4262.051282,4449.230769,4141.025641,4446.666666,4217.948717,4234.871794,4492.307692,4204.102564,4643.076923,4005.128205,4041.538461
115,4388.717948,4559.487179,4526.153846,4269.743589,4452.820512,4144.615384,4445.128205,4214.871794,4228.717948,4484.615384,4200.000000,4644.102564,4009.230769,4034.871794
116,4393.846153,4563.076923,4530.256410,4282.051282,4453.846153,4145.128205,4443.589743,4207.692307,4227.692307,4493.846153,4192.820512,4646.666666,4012.307692,4047.179487
117,4396.410256,4568.205128,4533.333333,4286.153846,4457.435897,4149.743589,4442.051282,4202.051282,4229.230769,4495.897435,4184.102564,4641.538461,4003.076923,4049.230769
118,4391.794871,4564.615384,4530.256410,4282.051282,4459.487179,4148.205128,4440.512820,4199.487179,4219.487179,4472.307692,4179.487179,4635.384615,3993.333334,4035.384615
119,4386.153846,4554.358974,4526.153846,4276.923076,4455.384615,4144.102564,4442.051282,4204.615384,4215.897435,4463.589743,4185.641025,4635.897435,3989.230770,4030.769230
120,4383.076923,4550.769230,4525.641025,4276.923076,4453.333333,4144.102564,4444.615384,4210.769230,4221.025641,4488.205128,4192.820512,4638.461538,3989.743590,4034.871794
121,4390.769230,4560.000000,4528.717948,4281.538461,4454.871794,4145.641025,4444.615384,4206.666666,4221.025641,4500.000000,4190.769230,4640.512820,4001.025641,4039.487179
122,4404.615384,4569.230769,4532.307692,4284.615384,4455.897435,4147.692307,4445.128205,4205.641025,4221.538461,4487.692307,4183.076923,4645.641025,4012.820512,4052.820512
123,4409.743589,4570.256410,4533.333333,4283.076923,4456.923076,4149.230769,4448.717948,4208.205128,4226.666666,4486.153846,4187.179487,4651.282051,4009.743589,4064.102564
124,4410.256410,4568.717948,4538.461538,4281.538461,4455.897435,4149.743589,4449.743589,4207.692307,4229.230769,4494.358974,4205.641025,4654.871794,4010.769230,4064.102564
125,4411.794871,4569.743589,4540.512820,4280.000000,4456.410256,4146.666666,4444.615384,4208.717948,4232.820512,4494.358974,4212.307692,4657.435897,4022.051282,4061.538461
126,4410.769230,4573.333333,4536.410256,4280.000000,4460.512820,4148.717948,4444.102564,4214.358974,4237.435897,4496.923076,4208.205128,4659.487179,4021.538461,4060.000000
127,4407.179487,4573.846153,4540.512820,4281.538461,4460.000000,4152.307692,4451.282051,4218.461538,4239.487179,4507.692307,4210.256410,4661.538461,4016.923076,4062.564102
128,4400.000000,4565.128205,4541.025641,4277.435897,4455.897435,4148.205128,4448.205128,4218.974358,4236.410256,4504.615384,4211.282051,4658.461538,4012.820512,4058.974358
129,4391.794871,4555.384615,4534.358974,4273.846153,4455.384615,4141.538461,4438.974358,4215.384615,4234.871794,4492.820512,4201.025641,4652.307692,4002.564102,4049.230769
130,4397.948717,4562.051282,4540.000000,4282.564102,4458.974358,4147.692307,4447.692307,4212.820512,4237.435897,4495.384615,4195.384615,4656.923076,4000.512820,4050.256410
131,4411.282051,4571.794871,4552.307692,4295.897435,4462.564102,4159.487179,4462.051282,4215.384615,4232.307692,4500.000000,4204.102564,4664.615384,4013.333333,4062.051282
132,4407.179487,4571.282051,4549.230769,4294.358974,4460.512820,4155.897435,4456.410256,4211.282051,4223.076923,4492.820512,4202.051282,4657.948717,4014.871794,4065.641025
133,4396.410256,4564.615384,4537.948717,4282.051282,4457.435897,4148.205128,4445.128205,4201.538461,4220.000000,4491.794871,4186.666666,4647.179487,4002.051282,4055.384615
134,4394.871794,4563.589743,4530.256410,4275.897435,4458.461538,4147.692307,4442.051282,4196.410256,4216.410256,4492.820512,4184.615384,4641.025641,3995.384616,4043.589743
135,4397.435897,4567.179487,4527.179487,4282.564102,4460.512820,4149.743589,4445.128205,4201.538461,4218.461538,4483.076923,4197.435897,4640.512820,4001.025641,4043.589743
136,4407.179487,4575.897435,4537.948717,4296.410256,4464.102564,4156.410256,4456.410256,4215.384615,4231.282051,4489.743589,4206.153846,4652.307692,4015.384615,4062.051282
137,4415.384615,4583.076923,4546.153846,4302.051282,4462.051282,4154.358974,4458.974358,4221.538461,4234.871794,4509.230769,4200.000000,4661.025641,4018.974358,4070.256410
138,4404.102564,4575.384615,4542.051282,4294.358974,4450.769230,4141.538461,4446.153846,4215.384615,4225.641025,4502.564102,4193.846153,4650.256410,4004.615384,4055.897435
139,4397.948717,4569.743589,4543.076923,4289.230769,4445.128205,4137.948717,4446.666666,4218.461538,4232.307692,4492.820512,4204.615384,4647.179487,3999.487180,4050.769230
140,4407.179487,4573.846153,4547.692307,4292.820512,4453.846153,4149.230769,4458.974358,4229.743589,4248.205128,4509.743589,4216.410256,4657.948717,4008.717948,4062.051282
141,4404.615384,4570.256410,4542.051282,4292.307692,4461.025641,4155.897435,4461.538461,4227.179487,4244.102564,4518.974358,4209.743589,4655.897435,4009.230769,4062.564102
142,4391.282051,4555.897435,4531.794871,4283.589743,4457.948717,4150.769230,4454.358974,4213.333333,4223.076923,4500.512820,4197.948717,4638.974358,4001.538461,4052.820512
143,4390.256410,4550.769230,4526.666666,4274.871794,4453.846153,4148.205128,4451.282051,4206.666666,4216.410256,4488.205128,4192.307692,4634.358974,4004.102564,4047.692307
144,4397.948717,4554.871794,4530.769230,4277.435897,4459.487179,4153.333333,4455.384615,4214.358974,4229.743589,4499.487179,4192.307692,4647.692307,4012.307692,4050.256410
145,4398.974358,4556.410256,4535.384615,4287.692307,4467.179487,4155.897435,4456.410256,4217.435897,4234.358974,4508.717948,4201.538461,4655.384615,4015.384615,4055.384615
146,4392.307692,4558.461538,4531.282051,4289.230769,4466.153846,4154.871794,4445.641025,4209.230769,4221.538461,4500.000000,4208.205128,4647.179487,4012.820512,4049.743589
147,4389.230769,4557.435897,4527.179487,4282.051282,4457.948717,4153.333333,4438.974358,4206.153846,4222.051282,4491.794871,4198.974358,4642.051282,4006.153846,4040.000000
148,4391.794871,4555.384615,4531.794871,4278.974358,4456.410256,4149.743589,4450.769230,4214.871794,4234.871794,4496.923076,4193.846153,4648.205128,4006.153846,4051.794871
149,4396.410256,4562.564102,4538.974358,4284.615384,4460.000000,4147.179487,4460.000000,4227.692307,4241.538461,4511.794871,4212.820512,4653.846153,4021.025641,4069.743589
150,4402.564102,4570.769230,4543.589743,4288.717948,4459.487179,4150.256410,4457.948717,4236.923076,4247.179487,4522.564102,4232.820512,4658.974358,4036.923076,4068.205128
151,4411.282051,4568.717948,4547.692307,4294.358974,4458.461538,4153.333333,4458.461538,4240.000000,4258.461538,4524.102564,4228.717948,4667.179487,4038.974358,4067.692307
152,4416.923076,4564.615384,4549.743589,4300.000000,4461.025641,4153.846153,4463.589743,4239.487179,4261.025641,4523.076923,4215.897435,4669.230769,4032.307692,4077.948717
153,4409.230769,4562.051282,4547.692307,4289.743589,4456.923076,4149.230769,4461.025641,4232.820512,4248.205128,4521.025641,4213.333333,4658.461538,4024.102564,4071.794871
154,4396.410256,4554.871794,4543.076923,4277.435897,4450.256410,4143.589743,4453.846153,4218.974358,4235.897435,4510.256410,4212.820512,4647.692307,4018.974358,4060.000000
155,4397.948717,4552.307692,4543.589743,4286.153846,4453.846153,4148.717948,4458.461538,4217.435897,4240.512820,4506.666666,4212.307692,4654.358974,4021.025641,4067.692307
156,4401.025641,4551.794871,4541.025641,4292.307692,4461.538461,4157.948717,4466.153846,4230.769230,4255.384615,4518.461538,4217.948717,4660.512820,4025.641025,4072.820512
157,4388.717948,4547.179487,4531.794871,4280.512820,4461.025641,4155.897435,4463.589743,4234.358974,4254.871794,4521.025641,4216.923076,4650.769230,4023.589743,4062.051282
158,4377.435897,4544.102564,4528.205128,4274.358974,4458.461538,4151.794871,4459.487179,4225.128205,4240.512820,4511.794871,4202.051282,4643.076923,4016.410256,4055.897435
159,4381.538461,4545.128205,4531.794871,4282.051282,4459.487179,4153.333333,4460.000000,4218.974358,4235.384615,4509.743589,4201.025641,4648.205128,4016.410256,4056.923076
160,4394.871794,4552.307692,4536.923076,4288.717948,4464.615384,4154.871794,4460.512820,4221.025641,4242.051282,4510.256410,4216.923076,4654.871794,4022.564102,4061.025641
161,4404.615384,4566.666666,4543.076923,4295.897435,4467.179487,4155.384615,4458.974358,4221.025641,4244.615384,4499.487179,4219.487179,4657.948717,4025.641025,4065.641025
162,4406.153846,4572.307692,4546.153846,4298.974358,4467.179487,4156.923076,4458.974358,4221.538461,4237.435897,4497.948717,4211.794871,4657.435897,4022.564102,4065.641025
163,4408.205128,4568.205128,4544.615384,4295.384615,4466.666666,4156.923076,4463.589743,4228.205128,4237.948717,4515.384615,4218.974358,4656.410256,4022.051282,4068.717948
164,4413.846153,4569.230769,4543.589743,4295.897435,4463.589743,4154.358974,4471.282051,4231.794871,4244.615384,4521.025641,4225.128205,4660.000000,4030.769230,4078.974358
165,4412.307692,4573.846153,4542.051282,4296.923076,4462.051282,4158.461538,4476.410256,4225.128205,4238.974358,4509.230769,4211.282051,4661.025641,4032.820512,4078.461538
166,4402.051282,4569.230769,4540.512820,4294.358974,4465.641025,4162.564102,4472.307692,4217.948717,4229.743589,4502.564102,4209.743589,4656.923076,4025.128205,4068.717948
167,4395.897435,4557.948717,4542.564102,4291.794871,4464.102564,4156.923076,4463.076923,4213.846153,4226.153846,4502.564102,4217.948717,4653.846153,4021.025641,4065.641025
168,4402.051282,4555.384615,4541.538461,4291.794871,4457.435897,4152.307692,4457.948717,4210.769230,4221.538461,4501.538461,4216.923076,4655.384615,4022.051282,4069.743589
169,4413.333333,4565.641025,4543.076923,4296.410256,4460.000000,4156.923076,4460.512820,4215.897435,4225.641025,4504.102564,4224.102564,4661.025641,4024.102564,4072.820512
170,4414.871794,4570.769230,4549.743589,4296.923076,4466.153846,4160.512820,4464.615384,4227.692307,4244.615384,4506.153846,4236.923076,4665.641025,4028.205128,4074.871794
171,4408.205128,4562.564102,4545.641025,4289.230769,4464.102564,4157.948717,4460.512820,4230.256410,4249.230769,4515.384615,4231.282051,4662.051282,4030.769230,4076.923076
172,4407.179487,4556.923076,4536.410256,4287.179487,4461.025641,4155.897435,4454.358974,4221.538461,4236.410256,4526.666666,4216.410256,4658.974358,4032.820512,4073.333333
173,4410.256410,4562.564102,4541.538461,4295.384615,4457.435897,4152.820512,4454.871794,4215.384615,4229.743589,4514.871794,4215.384615,4661.025641,4034.358974,4066.666666
174,4407.179487,4566.666666,4545.128205,4295.384615,4454.871794,4151.794871,4454.358974,4213.846153,4227.179487,4498.461538,4217.948717,4653.846153,4024.615384,4069.743589
175,4402.564102,4567.179487,4535.897435,4290.769230,4460.000000,4154.358974,4453.333333,4208.205128,4222.051282,4502.564102,4214.871794,4644.102564,4016.410256,4076.923076
176,4403.076923,4567.179487,4531.282051,4288.717948,4461.025641,4154.871794,4454.871794,4202.564102,4214.358974,4501.025641,4213.846153,4646.153846,4018.974358,4069.743589
177,4401.025641,4560.000000,4532.820512,4283.076923,4458.974358,4154.871794,4448.717948,4199.487179,4209.230769,4489.230769,4211.794871,4647.179487,4013.846153,4052.820512
178,4393.846153,4552.307692,4529.743589,4284.102564,4466.153846,4155.384615,4443.589743,4195.897435,4207.692307,4492.820512,4200.512820,4642.564102,4005.641025,4047.692307
179,4393.846153,4559.487179,4533.333333,4296.410256,4470.256410,4155.384615,4453.846153,4205.641025,4211.794871,4499.487179,4198.974358,4646.153846,4015.384615,4062.564102
180,4403.076923,4575.897435,4545.641025,4301.538461,4465.128205,4161.025641,4463.076923,4218.974358,4220.512820,4497.948717,4219.487179,4656.923076,4026.666666,4078.461538
181,4411.282051,4582.564102,4550.769230,4301.538461,4468.205128,4164.102564,4458.974358,4222.564102,4225.641025,4498.461538,4233.333333,4664.102564,4029.743589,4076.923076
182,4420.000000,4585.128205,4558.974358,4311.282051,4472.820512,4160.512820,4458.974358,4228.717948,4232.820512,4510.256410,4233.846153,4675.384615,4041.025641,4078.461538
183,4429.743589,4586.666666,4569.743589,4314.871794,4472.820512,4161.025641,4467.179487,4239.487179,4241.538461,4530.256410,4236.410256,4687.692307,4054.871794,4094.358974
184,4431.794871,4582.051282,4569.743589,4302.564102,4467.179487,4162.051282,4471.794871,4238.974358,4246.666666,4541.025641,4234.871794,4684.102564,4055.897435,4097.948717
185,4421.538461,4575.897435,4560.000000,4295.384615,4462.564102,4160.512820,4473.333333,4235.897435,4250.256410,4531.794871,4233.333333,4670.769230,4050.769230,4086.666666
186,4411.794871,4571.282051,4551.794871,4294.871794,4467.179487,4164.102564,4473.846153,4238.974358,4247.179487,4520.512820,4237.948717,4662.564102,4044.102564,4076.923076
187,4409.743589,4570.256410,4549.230769,4285.641025,4472.820512,4170.256410,4475.897435,4236.410256,4236.410256,4515.897435,4226.666666,4661.025641,4034.871794,4068.717948
188,4407.692307,4578.461538,4548.717948,4277.435897,4469.230769,4168.717948,4476.410256,4235.384615,4229.743589,4507.692307,4214.358974,4660.512820,4030.769230,4064.102564
189,4405.128205,4584.102564,4548.717948,4286.153846,4465.641025,4164.615384,4476.410256,4242.564102,4232.820512,4508.205128,4223.076923,4661.025641,4033.846153,4070.256410
190,4405.641025,4581.538461,4548.717948,4295.384615,4469.230769,4165.128205,4476.410256,4241.538461,4229.743589,4516.410256,4228.205128,4661.538461,4028.205128,4071.282051
191,4408.717948,4586.153846,4546.666666,4292.820512,4466.666666,4166.153846,4471.282051,4230.256410,4216.410256,4506.666666,4211.794871,4662.564102,4016.410256,4059.487179
192,4410.769230,4590.256410,4544.102564,4291.794871,4460.000000,4157.948717,4461.025641,4227.692307,4213.846153,4489.743589,4196.410256,4662.051282,4012.820512,4056.923076
193,4414.871794,4592.820512,4545.641025,4293.846153,4462.051282,4153.846153,4455.897435,4233.333333,4222.564102,4495.384615,4209.743589,4661.538461,4021.538461,4069.230769
194,4423.076923,4602.051282,4551.282051,4295.384615,4472.307692,4164.615384,4466.153846,4233.333333,4230.256410,4512.820512,4230.769230,4665.128205,4035.384615,4080.512820
195,4430.256410,4608.205128,4551.794871,4295.897435,4475.384615,4169.230769,4473.333333,4232.307692,4229.743589,4515.897435,4233.846153,4671.282051,4045.128205,4080.000000
196,4432.820512,4605.128205,4551.282051,4294.871794,4467.179487,4163.076923,4472.307692,4236.923076,4230.256410,4511.794871,4227.179487,4675.384615,4049.743589,4073.846153
197,4429.743589,4604.102564,4549.743589,4294.871794,4462.564102,4161.025641,4475.384615,4240.000000,4235.384615,4511.794871,4228.205128,4674.871794,4053.333333,4075.384615
198,4423.589743,4605.128205,4546.666666,4288.717948,4463.589743,4164.102564,4471.794871,4232.307692,4228.205128,4513.846153,4234.871794,4670.256410,4056.410256,4087.692307
199,4421.538461,4601.538461,4542.051282,4278.974358,4463.076923,4163.589743,4459.487179,4223.589743,4213.846153,4517.948717,4238.461538,4669.230769,4056.410256,4093.846153
200,4418.461538,4594.358974,4535.384615,4275.897435,4463.076923,4160.000000,4456.923076,4227.692307,4215.384615,4517.435897,4236.923076,4670.769230,4057.435897,4080.000000
201,4410.769230,4588.717948,4535.897435,4282.051282,4463.589743,4157.948717,4462.564102,4230.769230,4220.000000,4505.641025,4230.769230,4665.641025,4053.333333,4064.615384
202,4414.358974,4594.871794,4543.589743,4289.230769,4463.589743,4158.974358,4461.538461,4227.692307,4213.333333,4502.051282,4226.153846,4663.076923,4045.641025,4071.794871
203,4430.256410,4603.076923,4551.794871,4295.897435,4461.538461,4157.435897,4458.974358,4235.384615,4218.974358,4509.230769,4228.717948,4673.333333,4056.410256,4089.230769
204,4440.000000,4603.589743,4561.538461,4303.589743,4459.487179,4153.846153,4461.025641,4246.153846,4231.282051,4506.153846,4238.461538,4686.666666,4069.230769,4095.897435
205,4445.641025,4610.769230,4572.307692,4309.743589,4462.564102,4156.923076,4470.769230,4242.051282,4227.179487,4503.589743,4245.128205,4695.897435,4062.051282,4094.871794
206,4447.179487,4622.051282,4573.333333,4309.743589,4467.179487,4161.025641,4476.410256,4235.897435,4222.564102,4513.333333,4238.461538,4698.974358,4053.333333,4097.435897
207,4436.410256,4618.974358,4561.025641,4302.051282,4470.256410,4165.641025,4469.230769,4234.871794,4220.000000,4514.358974,4230.256410,4689.743589,4055.897435,4098.461538
208,4423.589743,4611.794871,4549.743589,4296.923076,4474.871794,4169.743589,4467.179487,4233.846153,4215.897435,4506.666666,4228.205128,4673.846153,4056.410256,4092.820512
209,4415.384615,4610.256410,4544.615384,4294.358974,4477.435897,4170.256410,4473.333333,4238.461538,4223.076923,4509.743589,4222.564102,4664.615384,4050.769230,4085.641025
210,4403.076923,4601.025641,4536.923076,4286.666666,4473.846153,4170.769230,4473.846153,4241.538461,4231.794871,4514.358974,4216.410256,4657.435897,4046.153846,4077.948717
211,4395.897435,4592.307692,4532.820512,4284.102564,4472.307692,4169.743589,4471.282051,4235.897435,4226.153846,4506.153846,4220.512820,4650.256410,4041.538461,4060.000000
212,4403.076923,4594.871794,4541.025641,4291.282051,4471.794871,4166.153846,4470.256410,4229.743589,4216.410256,4497.948717,4228.205128,4655.897435,4040.000000,4052.307692
213,4416.923076,4601.538461,4550.256410,4300.512820,4467.179487,4167.179487,4471.794871,4234.358974,4224.102564,4512.820512,4228.717948,4668.205128,4048.205128,4074.871794
214,4424.615384,4607.692307,4554.871794,4305.128205,4466.153846,4169.743589,4473.846153,4244.615384,4233.333333,4530.256410,4229.230769,4672.307692,4056.410256,4096.410256
215,4428.205128,4610.256410,4557.948717,4309.230769,4467.692307,4163.076923,4474.358974,4241.025641,4225.128205,4522.564102,4234.871794,4674.358974,4054.871794,4097.435897
216,4430.769230,4611.794871,4557.948717,4315.384615,4467.692307,4160.512820,4474.871794,4236.923076,4219.487179,4504.615384,4229.743589,4679.487179,4048.205128,4092.820512
217,4430.256410,4615.384615,4561.538461,4316.410256,4467.179487,4165.641025,4477.435897,4244.615384,4230.769230,4504.615384,4214.358974,4682.564102,4047.692307,4087.179487
218,4429.743589,4614.358974,4563.589743,4309.743589,4462.564102,4161.025641,4477.948717,4244.615384,4228.717948,4509.230769,4211.794871,4679.487179,4047.692307,4086.666666
219,4430.256410,4604.102564,4559.487179,4307.692307,4459.487179,4156.923076,4477.948717,4236.923076,4213.846153,4503.076923,4224.102564,4677.948717,4045.128205,4094.358974
220,4429.743589,4601.538461,4561.538461,4312.307692,4467.179487,4166.666666,4476.923076,4237.435897,4219.487179,4506.153846,4232.820512,4681.538461,4047.179487,4096.923076
221,4428.717948,4604.615384,4562.564102,4309.743589,4470.769230,4170.769230,4475.384615,4237.435897,4223.589743,4511.794871,4231.794871,4680.000000,4049.230769,4089.743589
222,4425.641025,4598.461538,4552.307692,4305.128205,4468.717948,4165.128205,4472.820512,4228.717948,4212.307692,4507.179487,4223.076923,4672.820512,4047.179487,4085.641025
223,4422.051282,4594.871794,4546.153846,4304.615384,4473.846153,4168.205128,4465.128205,4220.512820,4212.820512,4506.153846,4220.000000,4669.230769,4046.666666,4085.128205
224,4423.076923,4599.487179,4550.256410,4305.641025,4478.974358,4172.820512,4459.487179,4218.974358,4217.948717,4510.256410,4226.666666,4670.256410,4050.769230,4087.692307
225,4429.743589,4607.179487,4555.897435,4309.230769,4476.923076,4171.282051,4468.205128,4227.692307,4216.410256,4517.948717,4225.128205,4675.384615,4057.948717,4092.820512
226,4433.846153,4615.897435,4562.564102,4313.333333,4476.923076,4170.769230,4476.923076,4235.384615,4219.487179,4525.641025,4224.615384,4683.589743,4064.102564,4093.333333
227,4430.256410,4613.333333,4562.051282,4311.282051,4478.974358,4170.769230,4474.871794,4230.769230,4222.051282,4517.435897,4236.410256,4684.615384,4058.974358,4091.794871
228,4426.666666,4603.589743,4553.333333,4308.717948,4479.487179,4171.282051,4474.358974,4230.769230,4218.974358,4505.128205,4240.000000,4678.461538,4051.794871,4092.307692
229,4428.205128,4606.666666,4553.333333,4311.282051,4475.897435,4171.794871,4476.410256,4238.461538,4217.948717,4512.307692,4231.794871,4678.461538,4054.871794,4094.358974
230,4429.230769,4609.743589,4557.435897,4312.307692,4472.307692,4169.230769,4474.871794,4243.589743,4216.410256,4515.384615,4228.205128,4678.974358,4053.846153,4095.897435
231,4426.666666,4604.615384,4556.410256,4311.794871,4474.871794,4168.205128,4474.871794,4247.179487,4221.025641,4511.794871,4230.256410,4675.384615,4045.641025,4093.333333
232,4427.692307,4607.692307,4558.461538,4314.871794,4476.923076,4169.230769,4476.410256,4250.769230,4232.820512,4519.487179,4236.410256,4678.461538,4044.102564,4092.820512
233,4429.230769,4609.230769,4563.589743,4315.897435,4467.692307,4163.589743,4474.871794,4247.179487,4223.589743,4515.897435,4241.538461,4681.538461,4043.589743,4092.307692
234,4427.179487,4599.487179,4559.487179,4313.846153,4457.948717,4157.435897,4472.820512,4235.897435,4207.179487,4503.076923,4223.589743,4674.871794,4034.358974,4087.179487
235,4426.153846,4595.897435,4557.948717,4314.871794,4466.153846,4164.102564,4473.846153,4229.743589,4209.743589,4503.589743,4209.743589,4670.256410,4030.256410,4086.666666
236,4424.102564,4597.435897,4560.512820,4316.410256,4475.897435,4170.769230,4474.871794,4232.307692,4213.846153,4505.128205,4224.615384,4672.307692,4040.000000,4090.769230
237,4420.000000,4593.846153,4551.794871,4311.794871,4473.333333,4169.230769,4473.333333,4231.282051,4209.743589,4506.153846,4234.358974,4669.230769,4040.512820,4083.589743
238,4415.897435,4588.717948,4544.615384,4309.230769,4474.358974,4169.743589,4472.307692,4225.128205,4207.692307,4516.410256,4228.717948,4663.589743,4027.179487,4071.794871
239,4414.358974,4588.717948,4547.179487,4311.794871,4480.512820,4171.794871,4471.794871,4226.153846,4211.282051,4513.846153,4226.666666,4662.564102,4028.205128,4076.410256
240,4414.358974,4592.307692,4545.641025,4312.820512,4478.974358,4169.743589,4463.589743,4229.230769,4214.358974,4504.102564,4218.461538,4661.025641,4038.974358,4083.076923
241,4413.333333,4595.384615,4544.615384,4313.333333,4477.435897,4169.230769,4457.435897,4222.051282,4210.769230,4507.692307,4203.076923,4661.025641,4034.871794,4079.487179
242,4417.435897,4592.307692,4551.282051,4310.769230,4475.384615,4169.743589,4466.666666,4223.076923,4207.692307,4513.333333,4212.820512,4664.615384,4031.794871,4077.948717
243,4422.051282,4587.692307,4554.871794,4310.256410,4470.256410,4170.769230,4476.923076,4232.307692,4210.256410,4509.230769,4236.410256,4670.769230,4038.461538,4081.025641
244,4418.974358,4586.153846,4553.846153,4313.333333,4472.307692,4171.282051,4472.820512,4227.692307,4208.717948,4498.974358,4228.205128,4670.256410,4032.307692,4084.615384
245,4411.794871,4581.538461,4547.692307,4302.564102,4471.794871,4168.205128,4463.076923,4211.282051,4195.384615,4486.666666,4201.025641,4656.923076,4012.820512,4077.948717
246,4407.179487,4575.384615,4535.897435,4292.820512,4463.589743,4166.153846,4458.461538,4204.615384,4179.487179,4481.538461,4196.923076,4646.666666,4005.641025,4064.102564
247,4405.128205,4575.384615,4534.358974,4303.589743,4465.128205,4169.230769,4462.051282,4208.717948,4175.897435,4485.128205,4203.589743,4647.179487,4010.769230,4065.128205
248,4404.102564,4580.000000,4540.512820,4310.769230,4472.820512,4171.282051,4471.282051,4212.820512,4189.743589,4490.256410,4199.487179,4648.205128,4014.871794,4074.871794
249,4409.230769,4582.564102,4545.128205,4306.153846,4473.333333,4169.230769,4475.384615,4223.076923,4208.205128,4499.487179,4207.692307,4655.897435,4021.538461,4074.358974
250,4416.410256,4585.128205,4550.769230,4315.384615,4471.282051,4170.256410,4475.897435,4238.461538,4221.025641,4514.358974,4230.769230,4672.307692,4038.461538,4076.410256
251,4416.923076,4582.564102,4553.333333,4323.589743,4473.333333,4171.282051,4476.410256,4244.102564,4228.717948,4524.615384,4236.410256,4671.794871,4046.666666,4084.615384
252,4409.230769,4577.948717,4548.205128,4313.333333,4475.384615,4169.743589,4469.230769,4229.743589,4220.000000,4524.102564,4221.538461,4656.410256,4033.846153,4081.538461
253,4406.666666,4582.564102,4547.179487,4308.205128,4470.769230,4168.205128,4460.512820,4214.871794,4198.461538,4516.410256,4210.256410,4653.846153,4025.641025,4077.435897
254,4408.205128,4580.000000,4547.179487,4311.794871,4463.076923,4166.666666,4460.000000,4214.871794,4188.205128,4502.564102,4209.743589,4653.333333,4026.666666,4074.358974
255,4405.641025,4566.153846,4539.487179,4309.743589,4465.641025,4167.179487,4459.487179,4215.897435,4190.769230,4488.205128,4210.769230,4645.641025,4017.435897,4066.666666
256,4409.743589,4568.717948,4541.025641,4309.230769,4475.897435,4171.282051,4457.948717,4215.384615,4198.974358,4488.717948,4212.820512,4651.282051,4008.205128,4072.307692
257,4415.384615,4580.000000,4550.769230,4312.820512,4477.435897,4172.307692,4465.641025,4224.102564,4201.538461,4503.589743,4218.974358,4664.102564,4011.794871,4086.153846
258,4413.333333,4575.384615,4549.230769,4311.282051,4469.230769,4168.205128,4475.897435,4233.846153,4200.512820,4507.179487,4217.948717,4662.051282,4014.871794,4081.025641
259,4409.743589,4568.205128,4545.128205,4308.717948,4464.615384,4166.666666,4473.333333,4228.717948,4202.051282,4495.384615,4207.179487,4654.358974,4011.282051,4067.179487
