,AF3,F7,F3,FC5,T7,P7,O1,O2,P8,T8,FC6,F4,F8,AF4
0,4438.461538,4523.076923,4513.846153,4258.974358,4484.102564,4215.897435,4580.000000,4184.615384,4226.666666,4501.538461,4196.923076,4616.923076,3960.000000,4065.641025
1,4430.769230,4524.102564,4517.435897,4261.538461,4482.564102,4218.974358,4578.974358,4183.589743,4225.128205,4508.717948,4198.461538,4621.538461,3959.487180,4062.051282
2,4436.923076,4530.769230,4518.974358,4270.256410,4473.846153,4215.897435,4578.974358,4181.025641,4213.846153,4508.205128,4203.076923,4626.153846,3956.410257,4067.692307
3,4444.102564,4535.897435,4516.410256,4272.820512,4473.846153,4212.820512,4581.538461,4181.538461,4213.333333,4503.589743,4203.076923,4626.666666,3957.948718,4075.897435
4,4437.948717,4528.205128,4513.333333,4266.153846,4478.461538,4212.820512,4580.000000,4186.153846,4222.051282,4507.692307,4204.102564,4624.102564,3962.051283,4071.794871
5,4432.820512,4517.435897,4510.769230,4257.435897,4477.948717,4211.794871,4577.435897,4185.641025,4228.205128,4513.846153,4199.487179,4622.051282,3961.538462,4063.589743
6,4440.000000,4526.153846,4510.769230,4263.589743,4482.051282,4216.923076,4581.538461,4187.179487,4232.307692,4513.846153,4203.589743,4629.230769,3962.051283,4067.692307
7,4448.205128,4543.076923,4522.564102,4279.487179,4490.256410,4225.128205,4588.205128,4195.897435,4233.846153,4516.410256,4218.461538,4640.000000,3969.743590,4080.000000
8,4442.564102,4538.974358,4527.692307,4276.923076,4488.717948,4224.102564,4588.205128,4192.820512,4227.179487,4519.487179,4212.307692,4636.923076,3971.282052,4080.512820
9,4433.333333,4523.076923,4518.461538,4263.589743,4480.000000,4216.410256,4583.076923,4178.974358,4217.435897,4511.794871,4198.974358,4625.641025,3961.538462,4069.743589
10,4434.358974,4522.564102,4518.461538,4264.102564,4477.948717,4214.871794,4585.128205,4179.487179,4217.435897,4505.641025,4208.717948,4622.564102,3950.256411,4065.128205
11,4431.794871,4523.589743,4520.512820,4263.076923,4481.025641,4215.384615,4588.205128,4183.589743,4223.076923,4503.076923,4209.230769,4621.025641,3945.128206,4059.487179
12,4421.538461,4511.794871,4510.769230,4249.743589,4476.923076,4210.769230,4586.666666,4176.923076,4215.897435,4498.974358,4194.871794,4614.358974,3941.025642,4046.153846
13,4423.589743,4512.307692,4507.179487,4253.846153,4472.307692,4211.282051,4588.205128,4176.923076,4209.743589,4501.025641,4195.897435,4615.897435,3938.974359,4050.256410
14,4430.769230,4525.128205,4514.871794,4263.589743,4475.897435,4215.384615,4590.769230,4184.615384,4216.923076,4510.256410,4193.333333,4618.461538,3943.076924,4062.051282
15,4429.230769,4526.666666,4516.923076,4261.538461,4483.076923,4216.410256,4587.692307,4181.025641,4216.410256,4506.153846,4184.102564,4613.846153,3942.051283,4054.358974
16,4425.128205,4518.974358,4512.820512,4260.000000,4485.641025,4216.923076,4585.128205,4174.358974,4204.102564,4493.846153,4190.769230,4612.820512,3933.846154,4048.717948
17,4421.025641,4514.871794,4509.743589,4255.897435,4476.410256,4209.743589,4585.128205,4170.769230,4206.153846,4491.794871,4195.897435,4613.333333,3925.641026,4052.820512
18,4421.025641,4516.410256,4507.692307,4251.282051,4469.743589,4200.000000,4585.128205,4168.205128,4212.820512,4497.435897,4187.179487,4611.282051,3925.641026,4051.282051
19,4422.564102,4522.564102,4510.256410,4258.974358,4474.358974,4205.128205,4590.769230,4174.358974,4206.666666,4498.461538,4182.051282,4612.820512,3927.179488,4049.230769
20,4418.461538,4524.102564,4510.769230,4264.615384,4475.897435,4216.410256,4596.410256,4183.589743,4206.153846,4501.025641,4188.205128,4615.384615,3924.615385,4055.384615
21,4413.333333,4515.384615,4504.615384,4253.333333,4474.358974,4212.307692,4593.333333,4186.666666,4214.871794,4503.589743,4196.923076,4613.846153,3927.179488,4059.487179
22,4412.307692,4510.256410,4504.615384,4246.666666,4473.846153,4202.051282,4585.641025,4182.564102,4212.307692,4497.948717,4202.564102,4611.282051,3935.897436,4057.948717
23,4419.487179,4514.871794,4509.230769,4252.307692,4472.820512,4201.538461,4587.179487,4182.051282,4208.717948,4494.871794,4198.974358,4613.333333,3944.102565,4059.487179
24,4427.692307,4523.076923,4507.692307,4254.871794,4474.871794,4205.128205,4597.948717,4183.589743,4220.000000,4499.487179,4191.794871,4619.487179,3940.000000,4061.538461
25,4421.025641,4520.512820,4505.641025,4255.897435,4474.871794,4205.128205,4599.487179,4174.358974,4218.461538,4492.307692,4186.153846,4616.410256,3925.641026,4055.384615
26,4409.230769,4508.717948,4504.615384,4259.487179,4473.333333,4201.025641,4592.307692,4165.128205,4201.538461,4484.102564,4182.051282,4604.615384,3917.435898,4049.743589
27,4413.846153,4507.179487,4506.153846,4261.025641,4473.333333,4203.589743,4595.384615,4171.282051,4201.025641,4491.794871,4189.230769,4607.179487,3925.641026,4054.871794
28,4424.102564,4514.871794,4509.743589,4260.512820,4474.358974,4208.205128,4603.076923,4182.564102,4211.794871,4494.358974,4197.948717,4617.435897,3931.794872,4061.538461
29,4425.128205,4522.051282,4514.358974,4261.025641,4473.846153,4207.179487,4601.538461,4185.128205,4215.384615,4488.717948,4198.461538,4618.461538,3928.717949,4066.153846
30,4427.179487,4524.102564,4520.512820,4261.538461,4475.384615,4207.692307,4599.487179,4187.179487,4218.974358,4496.410256,4202.564102,4620.000000,3932.307693,4066.666666
31,4430.256410,4523.589743,4523.589743,4262.564102,4478.461538,4215.384615,4604.102564,4187.692307,4225.641025,4504.102564,4201.538461,4626.666666,3938.974359,4064.102564
32,4430.769230,4523.076923,4522.564102,4266.153846,4478.461538,4216.923076,4611.282051,4187.692307,4222.051282,4502.051282,4192.307692,4628.205128,3945.641026,4068.205128
33,4427.179487,4521.538461,4520.000000,4264.102564,4476.410256,4212.820512,4616.923076,4191.282051,4215.897435,4499.487179,4194.358974,4623.076923,3950.256411,4073.333333
34,4421.025641,4521.538461,4515.897435,4259.487179,4474.358974,4214.871794,4615.384615,4190.256410,4216.410256,4496.410256,4203.589743,4617.435897,3947.692308,4068.205128
35,4424.102564,4521.538461,4509.230769,4258.461538,4481.025641,4218.461538,4612.307692,4184.615384,4215.897435,4492.307692,4202.564102,4614.871794,3942.051283,4062.051282
36,4426.666666,4521.538461,4513.333333,4262.051282,4486.666666,4216.923076,4615.897435,4186.153846,4219.487179,4497.948717,4195.897435,4617.435897,3936.923077,4056.923076
37,4420.512820,4521.538461,4517.948717,4263.076923,4480.512820,4216.410256,4618.461538,4192.307692,4230.256410,4509.230769,4186.666666,4617.435897,3936.923077,4056.410256
38,4418.461538,4519.487179,4512.307692,4259.487179,4473.846153,4215.384615,4617.948717,4197.435897,4234.871794,4508.717948,4184.615384,4616.923076,3946.153847,4069.230769
39,4427.692307,4518.974358,4515.897435,4260.512820,4475.897435,4214.871794,4623.076923,4197.435897,4226.153846,4497.948717,4198.461538,4624.102564,3956.410257,4075.384615
40,4430.769230,4524.615384,4523.589743,4266.153846,4477.435897,4216.923076,4628.717948,4189.230769,4215.897435,4495.897435,4209.743589,4627.179487,3958.974359,4067.179487
41,4418.974358,4519.487179,4518.974358,4259.487179,4474.358974,4213.333333,4627.179487,4183.076923,4212.307692,4498.974358,4199.487179,4618.974358,3954.871795,4065.641025
42,4414.871794,4508.717948,4513.333333,4253.333333,4474.871794,4210.769230,4626.153846,4184.102564,4214.358974,4499.487179,4187.179487,4613.846153,3950.256411,4065.128205
43,4418.974358,4515.897435,4511.794871,4255.384615,4474.871794,4211.282051,4626.153846,4183.076923,4215.897435,4499.487179,4192.820512,4615.384615,3948.205129,4057.948717
44,4416.410256,4520.512820,4511.794871,4251.794871,4472.820512,4205.641025,4620.000000,4181.538461,4217.948717,4502.564102,4201.538461,4616.923076,3947.692308,4059.487179
45,4414.358974,4511.282051,4515.897435,4251.794871,4472.820512,4205.641025,4615.384615,4183.589743,4221.025641,4511.282051,4198.461538,4616.410256,3947.692308,4069.230769
46,4422.051282,4513.846153,4517.435897,4256.923076,4471.282051,4208.717948,4619.487179,4183.589743,4224.102564,4517.435897,4194.358974,4616.923076,3953.333334,4066.153846
47,4426.153846,4523.589743,4518.974358,4258.461538,4471.282051,4204.615384,4627.692307,4187.692307,4232.307692,4515.897435,4206.153846,4620.000000,3957.948718,4064.102564
48,4416.923076,4513.846153,4520.000000,4256.410256,4474.871794,4206.153846,4633.846153,4191.282051,4233.846153,4508.717948,4208.717948,4620.000000,3949.230770,4065.641025
49,4408.205128,4503.076923,4512.307692,4251.282051,4472.820512,4210.256410,4633.846153,4183.589743,4213.846153,4503.076923,4190.256410,4614.871794,3937.435898,4056.923076
50,4412.307692,4513.333333,4508.717948,4253.333333,4466.666666,4205.641025,4632.307692,4177.948717,4203.076923,4501.538461,4185.128205,4613.333333,3937.948718,4054.358974
51,4418.974358,4523.589743,4515.384615,4261.025641,4470.769230,4208.717948,4635.897435,4182.051282,4218.461538,4505.128205,4195.897435,4615.897435,3942.051283,4067.179487
52,4418.974358,4524.102564,4517.948717,4261.538461,4477.948717,4216.923076,4640.000000,4188.205128,4227.692307,4509.230769,4203.589743,4620.000000,3947.179488,4073.846153
53,4424.615384,4529.743589,4523.076923,4261.538461,4476.923076,4215.384615,4642.564102,4194.871794,4225.641025,4506.666666,4212.820512,4627.692307,3955.384616,4075.897435
54,4431.282051,4536.410256,4530.256410,4269.743589,4476.410256,4214.871794,4641.538461,4195.384615,4228.717948,4508.205128,4220.000000,4629.230769,3954.871795,4075.897435
55,4420.512820,4524.102564,4522.051282,4262.564102,4476.923076,4210.769230,4634.871794,4186.666666,4224.615384,4507.692307,4207.692307,4618.974358,3943.589744,4066.666666
56,4408.205128,4504.102564,4511.282051,4244.102564,4471.282051,4199.487179,4634.358974,4183.076923,4212.820512,4501.538461,4198.974358,4613.846153,3940.000000,4062.564102
57,4409.743589,4504.102564,4513.846153,4246.666666,4467.692307,4201.025641,4642.051282,4185.641025,4211.282051,4503.076923,4200.512820,4615.897435,3951.282052,4068.717948
58,4418.461538,4520.000000,4521.025641,4255.384615,4477.435897,4212.307692,4647.692307,4190.256410,4222.051282,4506.666666,4195.384615,4620.000000,3963.589744,4070.256410
59,4426.153846,4522.051282,4524.615384,4250.769230,4484.615384,4218.461538,4647.692307,4195.384615,4228.205128,4507.692307,4201.025641,4624.615384,3971.282052,4073.846153
60,4422.564102,4510.769230,4522.564102,4246.153846,4483.076923,4217.435897,4646.666666,4194.871794,4223.589743,4505.641025,4210.769230,4622.051282,3971.794872,4073.846153
61,4415.897435,4513.333333,4525.128205,4254.871794,4486.666666,4216.410256,4647.692307,4194.358974,4222.051282,4504.615384,4204.102564,4617.435897,3975.897436,4065.641025
62,4416.410256,4521.538461,4527.179487,4261.538461,4485.641025,4217.435897,4649.743589,4200.000000,4231.794871,4508.717948,4199.487179,4621.025641,3988.205129,4069.743589
63,4415.384615,4512.820512,4522.564102,4251.282051,4475.897435,4216.410256,4648.205128,4200.512820,4232.307692,4509.743589,4203.076923,4620.512820,3989.743590,4077.435897
64,4410.769230,4498.461538,4520.000000,4242.564102,4478.974358,4212.307692,4648.205128,4197.948717,4226.666666,4505.128205,4198.461538,4615.897435,3982.051283,4073.333333
65,4412.307692,4501.538461,4525.128205,4246.153846,4491.282051,4214.871794,4658.461538,4200.512820,4233.333333,4504.102564,4194.871794,4621.538461,3988.717949,4071.282051
66,4415.897435,4513.846153,4528.717948,4249.230769,4490.769230,4225.128205,4669.230769,4201.538461,4238.461538,4507.692307,4203.076923,4625.641025,3998.974359,4075.897435
67,4416.923076,4523.076923,4524.102564,4253.846153,4488.205128,4227.692307,4672.307692,4201.025641,4228.205128,4502.564102,4201.025641,4621.025641,3996.410257,4076.923076
68,4415.384615,4524.615384,4522.564102,4261.025641,4492.820512,4226.153846,4671.794871,4200.512820,4221.538461,4497.948717,4192.307692,4618.974358,3989.230770,4073.846153
69,4410.256410,4520.000000,4524.102564,4262.564102,4492.820512,4228.717948,4672.820512,4198.974358,4226.666666,4497.948717,4195.384615,4621.025641,3988.205129,4073.846153
70,4410.256410,4520.000000,4523.589743,4262.564102,4491.794871,4226.153846,4673.846153,4201.538461,4231.282051,4497.948717,4202.051282,4623.076923,3990.256411,4074.358974
71,4414.358974,4522.051282,4522.564102,4265.128205,4492.820512,4222.051282,4674.871794,4206.666666,4233.846153,4504.615384,4201.025641,4625.128205,3989.743590,4076.410256
72,4412.820512,4517.948717,4525.641025,4261.538461,4491.794871,4223.589743,4670.769230,4202.051282,4231.794871,4504.102564,4197.435897,4623.076923,3985.641026,4077.948717
73,4406.666666,4510.769230,4523.589743,4252.820512,4491.794871,4221.025641,4664.615384,4192.820512,4224.102564,4498.974358,4199.487179,4618.974358,3983.076924,4072.307692
74,4397.435897,4503.076923,4513.846153,4247.179487,4487.692307,4212.820512,4663.589743,4191.282051,4221.025641,4501.538461,4194.871794,4616.410256,3981.538462,4065.128205
75,4394.358974,4502.564102,4514.358974,4245.641025,4482.564102,4214.871794,4665.128205,4191.794871,4225.128205,4501.025641,4192.307692,4615.384615,3976.923077,4068.717948
76,4407.179487,4514.358974,4524.615384,4255.897435,4488.205128,4219.487179,4663.589743,4191.794871,4227.692307,4498.974358,4200.000000,4624.102564,3980.000000,4084.102564
77,4414.358974,4520.000000,4530.256410,4264.615384,4489.230769,4215.897435,4661.538461,4189.743589,4223.076923,4498.974358,4203.589743,4632.307692,3987.179488,4090.256410
78,4406.153846,4512.820512,4527.692307,4256.410256,4482.564102,4214.871794,4661.025641,4190.769230,4223.589743,4501.025641,4200.000000,4629.230769,3985.641026,4082.564102
79,4402.051282,4511.794871,4528.205128,4253.333333,4485.641025,4216.923076,4660.512820,4196.923076,4231.794871,4502.051282,4199.487179,4627.179487,3980.512821,4076.410256
80,4402.051282,4510.769230,4527.692307,4261.025641,4492.820512,4218.461538,4660.512820,4195.897435,4232.307692,4500.000000,4202.564102,4628.205128,3973.333334,4071.794871
81,4396.410256,4508.717948,4522.564102,4262.051282,4490.256410,4217.948717,4656.923076,4186.153846,4226.153846,4489.743589,4203.076923,4624.615384,3966.666667,4070.256410
82,4394.871794,4514.358974,4524.615384,4258.974358,4487.692307,4217.435897,4651.282051,4184.102564,4222.564102,4487.692307,4200.512820,4624.615384,3966.666667,4073.333333
83,4397.435897,4515.897435,4530.769230,4257.435897,4492.820512,4217.435897,4650.256410,4190.256410,4223.076923,4494.358974,4187.692307,4627.179487,3969.230770,4075.897435
84,4392.307692,4505.641025,4527.179487,4252.307692,4487.692307,4214.358974,4648.717948,4184.615384,4217.435897,4489.743589,4178.461538,4622.564102,3965.128206,4072.307692
85,4389.230769,4500.512820,4522.564102,4249.230769,4477.435897,4212.307692,4648.205128,4182.051282,4218.461538,4487.692307,4192.307692,4624.615384,3968.205129,4071.794871
86,4395.384615,4502.051282,4526.666666,4248.717948,4482.564102,4217.435897,4653.846153,4193.846153,4229.743589,4498.461538,4214.871794,4634.358974,3982.051283,4075.384615
87,4400.000000,4500.512820,4530.769230,4247.692307,4489.230769,4215.897435,4657.948717,4203.076923,4237.435897,4508.205128,4216.410256,4635.897435,3986.153847,4075.384615
88,4396.410256,4497.948717,4529.743589,4250.769230,4481.025641,4208.717948,4656.410256,4205.128205,4238.974358,4512.307692,4203.076923,4632.307692,3978.974359,4077.948717
89,4384.615384,4490.769230,4522.051282,4248.717948,4474.871794,4208.717948,4653.333333,4201.025641,4233.333333,4505.128205,4199.487179,4626.666666,3969.743590,4076.410256
90,4378.461538,4489.230769,4514.871794,4244.615384,4478.974358,4208.205128,4648.717948,4192.820512,4225.641025,4492.307692,4196.410256,4618.974358,3962.051283,4069.230769
91,4384.102564,4500.000000,4514.358974,4248.205128,4479.487179,4205.128205,4642.564102,4186.153846,4226.153846,4489.743589,4192.307692,4618.974358,3966.153847,4068.717948
92,4386.666666,4507.692307,4514.871794,4247.692307,4476.410256,4210.769230,4642.051282,4183.589743,4226.153846,4494.871794,4196.410256,4620.512820,3972.820513,4070.769230
93,4380.000000,4506.666666,4510.256410,4245.128205,4480.512820,4216.923076,4642.564102,4185.128205,4221.025641,4495.384615,4195.384615,4614.871794,3964.615385,4068.717948
94,4382.564102,4505.128205,4507.692307,4252.307692,4488.717948,4214.871794,4641.538461,4188.717948,4220.512820,4500.000000,4190.256410,4614.358974,3960.000000,4071.794871
95,4390.256410,4507.692307,4515.897435,4257.435897,4489.743589,4213.846153,4643.589743,4190.769230,4223.589743,4502.564102,4195.384615,4619.487179,3968.717949,4078.461538
96,4383.589743,4509.230769,4518.974358,4250.769230,4485.641025,4218.974358,4642.564102,4186.666666,4218.461538,4497.948717,4195.897435,4617.948717,3968.205129,4075.384615
97,4371.282051,4502.051282,4511.282051,4245.128205,4483.076923,4216.410256,4636.410256,4184.615384,4212.820512,4497.435897,4186.666666,4615.384615,3960.000000,4064.615384
98,4371.282051,4492.820512,4509.230769,4244.615384,4480.000000,4206.666666,4632.307692,4185.641025,4217.435897,4497.435897,4187.692307,4616.923076,3960.512821,4064.102564
99,4380.000000,4496.410256,4517.948717,4244.615384,4475.897435,4203.589743,4631.794871,4183.589743,4220.512820,4491.794871,4186.666666,4617.435897,3958.461539,4073.333333
100,4381.538461,4500.512820,4519.487179,4247.179487,4474.871794,4206.666666,4632.307692,4182.564102,4217.435897,4488.205128,4177.435897,4617.435897,3953.846154,4074.358974
101,4374.358974,4492.820512,4516.923076,4248.205128,4475.384615,4203.589743,4631.794871,4184.102564,4214.358974,4492.820512,4180.512820,4617.435897,3957.435898,4068.717948
102,4373.333333,4493.846153,4522.051282,4247.692307,4478.461538,4203.589743,4631.282051,4184.615384,4216.923076,4500.000000,4187.179487,4615.384615,3964.615385,4069.743589
103,4378.974358,4504.615384,4521.538461,4245.128205,4487.692307,4213.333333,4632.820512,4185.641025,4222.564102,4499.487179,4189.230769,4617.435897,3968.717949,4074.358974
104,4384.102564,4509.230769,4520.000000,4249.230769,4491.794871,4218.461538,4634.871794,4187.692307,4222.564102,4494.358974,4194.871794,4623.076923,3971.282052,4078.974358
105,4379.487179,4505.641025,4521.025641,4257.435897,4483.589743,4211.282051,4631.282051,4182.564102,4212.307692,4491.794871,4190.256410,4620.512820,3967.692308,4080.512820
106,4370.256410,4501.025641,4518.974358,4255.384615,4474.871794,4203.076923,4626.153846,4174.358974,4207.692307,4487.179487,4175.384615,4614.871794,3962.051283,4076.410256
107,4368.205128,4501.538461,4520.000000,4251.282051,4478.974358,4206.153846,4629.743589,4178.974358,4216.923076,4483.589743,4170.769230,4615.897435,3966.153847,4073.333333
108,4373.333333,4505.641025,4522.051282,4255.897435,4490.256410,4217.948717,4635.897435,4186.153846,4222.564102,4490.256410,4183.076923,4619.487179,3973.846154,4072.820512
109,4378.461538,4510.256410,4520.000000,4255.897435,4491.282051,4218.461538,4635.384615,4188.205128,4224.102564,4503.076923,4197.948717,4621.538461,3979.487180,4077.948717
110,4376.923076,4512.307692,4520.512820,4245.128205,4486.666666,4211.794871,4631.794871,4191.282051,4229.230769,4503.589743,4204.102564,4626.153846,3981.538462,4083.076923
111,4375.384615,4513.846153,4524.615384,4251.794871,4488.205128,4215.897435,4631.282051,4189.230769,4224.615384,4493.333333,4201.538461,4629.230769,3977.948718,4083.076923
112,4379.487179,4517.948717,4527.692307,4271.282051,4491.794871,4220.512820,4634.358974,4183.076923,4218.461538,4493.846153,4198.974358,4631.794871,3977.435898,4083.589743
113,4382.564102,4518.461538,4526.666666,4268.205128,4486.153846,4210.769230,4633.333333,4184.102564,4222.564102,4503.076923,4198.461538,4631.794871,3978.461539,4084.615384
114,4377.435897,4516.923076,4524.102564,4258.974358,4480.512820,4207.179487,4632.307692,4187.179487,4224.615384,4498.461538,4194.358974,4627.692307,3972.820513,4082.564102
115,4371.794871,4513.846153,4523.076923,4258.974358,4479.487179,4212.820512,4632.307692,4183.076923,4216.923076,4487.692307,4193.333333,4624.615384,3966.666667,4083.589743
116,4371.794871,4511.794871,4527.179487,4255.384615,4478.974358,4210.256410,4631.282051,4181.025641,4214.358974,4488.205128,4200.000000,4627.179487,3965.641026,4087.179487
117,4374.871794,4515.384615,4530.769230,4251.282051,4484.102564,4209.230769,4634.358974,4188.205128,4221.025641,4492.307692,4202.564102,4630.256410,3963.076924,4088.205128
118,4379.487179,4522.051282,4535.384615,4260.512820,4486.666666,4213.846153,4641.025641,4195.897435,4227.692307,4498.461538,4202.051282,4634.358974,3968.205129,4092.307692
119,4377.435897,4519.487179,4535.897435,4264.102564,4479.487179,4211.794871,4639.487179,4193.846153,4225.128205,4498.974358,4202.051282,4635.384615,3977.435898,4093.846153
120,4367.692307,4508.205128,4527.179487,4254.871794,4477.948717,4207.179487,4631.282051,4183.076923,4214.871794,4487.692307,4200.512820,4628.205128,3966.666667,4086.666666
121,4362.564102,4503.076923,4520.000000,4246.666666,4481.538461,4207.179487,4628.205128,4175.897435,4209.743589,4483.076923,4197.948717,4616.410256,3948.717949,4079.487179
122,4366.153846,4506.153846,4519.487179,4244.615384,4482.564102,4207.179487,4630.769230,4180.512820,4218.974358,4492.307692,4197.435897,4613.333333,3950.769231,4075.384615
123,4373.846153,4516.923076,4527.179487,4255.384615,4483.076923,4211.794871,4634.871794,4192.307692,4230.256410,4498.974358,4201.025641,4621.025641,3962.051283,4076.923076
124,4375.897435,4524.615384,4532.307692,4268.205128,4482.564102,4216.923076,4634.871794,4193.333333,4223.589743,4491.282051,4205.128205,4626.666666,3963.076924,4073.846153
125,4372.307692,4521.025641,4528.205128,4265.128205,4481.025641,4210.256410,4632.307692,4184.102564,4211.794871,4484.102564,4201.538461,4622.564102,3954.871795,4061.538461
126,4373.333333,4516.923076,4526.153846,4258.974358,4486.153846,4212.820512,4634.358974,4185.641025,4217.948717,4490.256410,4200.512820,4621.025641,3954.358975,4063.076923
127,4371.282051,4514.871794,4528.205128,4256.410256,4485.641025,4218.461538,4631.794871,4189.230769,4223.076923,4493.846153,4201.538461,4622.051282,3958.974359,4068.717948
128,4363.589743,4512.307692,4524.615384,4248.717948,4476.410256,4206.666666,4625.128205,4182.564102,4212.820512,4485.128205,4198.461538,4617.948717,3953.846154,4060.512820
129,4366.153846,4510.769230,4524.102564,4247.692307,4476.923076,4201.025641,4631.282051,4183.076923,4212.307692,4487.692307,4203.589743,4622.051282,3948.205129,4057.435897
130,4372.307692,4511.282051,4530.256410,4257.948717,4480.000000,4209.743589,4637.435897,4195.384615,4224.102564,4497.435897,4201.025641,4634.358974,3951.794872,4062.564102
131,4356.923076,4503.589743,4522.564102,4250.256410,4471.282051,4202.051282,4625.128205,4187.692307,4217.948717,4483.076923,4176.410256,4625.128205,3943.076924,4048.717948
132,4338.974358,4490.769230,4506.153846,4233.846153,4462.564102,4186.666666,4611.794871,4170.256410,4199.487179,4463.076923,4169.230769,4607.692307,3924.615385,4033.333333
133,4347.179487,4494.871794,4507.692307,4235.897435,4468.205128,4193.333333,4615.384615,4175.384615,4204.615384,4466.666666,4185.128205,4612.307692,3931.282052,4043.589743
134,4359.487179,4509.230769,4518.974358,4244.102564,4476.923076,4204.615384,4625.128205,4189.743589,4222.051282,4481.538461,4191.794871,4624.102564,3949.230770,4056.923076
135,4358.461538,4511.282051,4523.076923,4247.179487,4476.410256,4206.153846,4631.282051,4191.282051,4218.974358,4485.641025,4192.307692,4623.076923,3945.128206,4052.820512
136,4355.384615,4505.641025,4523.076923,4251.794871,4476.410256,4206.666666,4632.820512,4188.717948,4213.846153,4482.051282,4190.769230,4618.974358,3940.000000,4049.743589
137,4350.769230,4507.179487,4518.974358,4251.794871,4476.923076,4204.615384,4628.205128,4187.692307,4217.948717,4475.897435,4185.128205,4617.435897,3945.128206,4055.384615
138,4351.794871,4511.794871,4511.794871,4247.179487,4472.820512,4200.000000,4623.076923,4183.076923,4215.384615,4473.846153,4191.794871,4615.384615,3945.128206,4058.974358
139,4363.589743,4518.461538,4513.333333,4249.230769,4473.333333,4202.051282,4628.717948,4184.615384,4213.846153,4478.461538,4205.641025,4614.871794,3944.615385,4060.000000
140,4363.076923,4524.102564,4515.897435,4252.307692,4482.564102,4208.717948,4633.333333,4191.794871,4216.923076,4477.435897,4203.076923,4614.358974,3946.153847,4059.487179
141,4350.256410,4517.948717,4514.358974,4248.717948,4486.153846,4211.282051,4625.128205,4192.307692,4218.461538,4472.820512,4187.179487,4613.333333,3942.564103,4056.410256
142,4350.256410,4510.256410,4514.358974,4250.256410,4481.025641,4207.692307,4618.974358,4187.179487,4220.000000,4477.948717,4185.641025,4613.846153,3938.974359,4060.000000
143,4358.974358,4514.358974,4515.897435,4254.358974,4474.358974,4202.051282,4623.076923,4188.205128,4218.974358,4482.564102,4202.564102,4617.435897,3947.179488,4072.820512
144,4362.564102,4524.102564,4520.512820,4255.384615,4475.384615,4202.051282,4627.179487,4196.923076,4216.923076,4481.538461,4207.179487,4623.589743,3957.435898,4077.435897
145,4369.743589,4526.666666,4529.743589,4253.333333,4485.641025,4211.282051,4629.743589,4203.589743,4230.769230,4488.717948,4203.076923,4632.307692,3961.025642,4075.897435
146,4374.871794,4524.615384,4531.282051,4251.282051,4489.743589,4217.948717,4632.820512,4201.025641,4240.000000,4495.384615,4206.666666,4634.358974,3956.923077,4082.051282
147,4367.179487,4519.487179,4521.025641,4249.743589,4478.974358,4209.230769,4630.256410,4190.256410,4225.641025,4483.589743,4196.923076,4623.589743,3948.717949,4083.589743
148,4357.948717,4510.769230,4516.923076,4247.692307,4471.794871,4198.461538,4627.179487,4181.025641,4208.717948,4471.282051,4181.025641,4615.897435,3940.000000,4069.743589
149,4354.871794,4506.153846,4517.948717,4244.102564,4475.384615,4200.512820,4631.794871,4183.076923,4205.641025,4472.307692,4190.256410,4616.923076,3937.948718,4060.000000
150,4356.923076,4506.153846,4521.025641,4247.692307,4475.897435,4202.051282,4634.871794,4188.205128,4210.769230,4481.025641,4205.128205,4618.974358,3943.589744,4062.564102
151,4357.435897,4508.205128,4525.128205,4252.820512,4476.923076,4201.025641,4633.333333,4187.179487,4215.384615,4484.102564,4198.974358,4617.948717,3941.538462,4060.000000
152,4352.820512,4507.179487,4516.410256,4240.000000,4475.897435,4202.051282,4630.256410,4182.051282,4217.435897,4480.000000,4180.512820,4610.256410,3933.333334,4051.794871
153,4348.717948,4502.051282,4505.641025,4231.282051,4469.743589,4199.487179,4630.769230,4182.051282,4213.333333,4480.512820,4173.333333,4606.666666,3930.256411,4052.307692
154,4355.897435,4503.076923,4513.333333,4245.128205,4472.307692,4197.435897,4633.333333,4183.076923,4203.589743,4480.512820,4188.717948,4615.384615,3929.743590,4060.512820
155,4361.025641,4508.717948,4522.051282,4251.282051,4476.923076,4201.025641,4632.307692,4179.487179,4202.051282,4477.435897,4199.487179,4620.000000,3931.794872,4061.538461
156,4355.384615,4504.615384,4514.871794,4242.051282,4471.794871,4198.974358,4630.769230,4176.923076,4208.717948,4480.512820,4193.333333,4616.410256,3935.897436,4058.461538
157,4359.487179,4507.692307,4518.974358,4246.153846,4473.846153,4199.487179,4637.435897,4185.641025,4216.923076,4494.871794,4204.615384,4626.153846,3948.717949,4069.230769
158,4371.794871,4522.564102,4531.282051,4253.846153,4486.153846,4209.230769,4643.076923,4195.384615,4222.051282,4504.102564,4220.512820,4635.897435,3962.564103,4082.051282
159,4373.846153,4520.512820,4523.589743,4243.076923,4485.128205,4210.769230,4636.923076,4190.769230,4220.512820,4494.871794,4206.666666,4627.692307,3962.564103,4076.410256
160,4374.871794,4513.846153,4517.948717,4237.948717,4483.589743,4211.282051,4636.923076,4190.256410,4223.076923,4496.410256,4197.435897,4625.128205,3965.641026,4076.410256
161,4381.025641,4520.512820,4526.153846,4247.692307,4489.743589,4216.410256,4644.615384,4201.538461,4231.794871,4516.410256,4213.846153,4635.384615,3983.076924,4089.230769
162,4383.076923,4518.461538,4527.179487,4251.794871,4485.641025,4211.282051,4638.974358,4201.025641,4228.205128,4519.487179,4224.615384,4637.435897,3990.256411,4084.615384
163,4387.179487,4511.794871,4522.564102,4249.230769,4480.512820,4207.179487,4633.846153,4192.307692,4223.589743,4505.128205,4218.461538,4630.769230,3983.589744,4074.358974
164,4394.871794,4516.410256,4529.230769,4247.692307,4487.179487,4214.358974,4637.435897,4195.897435,4228.717948,4500.000000,4206.666666,4630.769230,3985.128206,4079.487179
165,4394.871794,4520.000000,4532.820512,4247.179487,4492.820512,4216.923076,4636.410256,4201.538461,4223.076923,4502.051282,4197.948717,4631.282051,3986.153847,4080.000000
166,4394.871794,4518.461538,4529.230769,4251.282051,4490.256410,4214.871794,4635.897435,4199.487179,4219.487179,4504.102564,4204.615384,4632.307692,3988.205129,4074.871794
167,4401.538461,4517.948717,4528.205128,4257.948717,4492.307692,4218.974358,4638.974358,4200.000000,4228.205128,4502.564102,4210.256410,4635.384615,3994.358975,4076.410256
168,4398.974358,4509.743589,4524.615384,4252.307692,4490.769230,4216.410256,4631.282051,4193.333333,4224.102564,4492.820512,4196.410256,4627.692307,3983.589744,4072.820512
169,4392.307692,4506.666666,4520.512820,4245.128205,4486.153846,4210.769230,4622.564102,4180.000000,4215.897435,4492.307692,4189.743589,4622.564102,3967.692308,4071.794871
170,4402.564102,4521.538461,4532.820512,4255.897435,4491.794871,4215.897435,4627.179487,4184.615384,4224.615384,4504.102564,4204.102564,4636.410256,3976.410257,4086.666666
171,4413.846153,4529.743589,4543.076923,4265.128205,4495.897435,4220.512820,4634.871794,4197.948717,4228.205128,4504.102564,4208.717948,4647.692307,3989.743590,4093.846153
172,4404.102564,4518.974358,4531.794871,4257.435897,4492.820512,4217.435897,4632.820512,4193.846153,4220.000000,4495.897435,4193.846153,4638.974358,3983.589744,4078.461538
173,4394.871794,4513.333333,4520.512820,4249.230769,4490.769230,4214.358974,4624.102564,4181.538461,4215.897435,4493.333333,4193.333333,4629.743589,3971.794872,4073.333333
174,4396.923076,4514.358974,4526.153846,4248.717948,4491.282051,4213.846153,4618.974358,4180.000000,4213.846153,4492.307692,4202.051282,4631.794871,3965.641026,4083.076923
175,4399.487179,4512.307692,4534.871794,4252.820512,4490.256410,4215.384615,4624.102564,4184.615384,4217.435897,4491.282051,4196.410256,4636.923076,3961.538462,4082.564102
176,4394.871794,4511.794871,4531.794871,4251.794871,4489.230769,4214.358974,4624.102564,4185.128205,4221.025641,4491.282051,4187.692307,4634.358974,3957.435898,4074.358974
177,4389.230769,4509.230769,4524.102564,4243.589743,4490.256410,4208.205128,4616.923076,4177.948717,4211.282051,4488.717948,4187.179487,4628.205128,3953.333334,4071.282051
178,4391.282051,4509.743589,4524.102564,4245.128205,4489.230769,4207.179487,4617.948717,4177.948717,4205.641025,4492.307692,4193.333333,4629.230769,3957.948718,4069.743589
179,4394.871794,4516.410256,4527.692307,4252.307692,4488.717948,4212.307692,4622.564102,4189.743589,4218.461538,4498.974358,4201.025641,4634.871794,3963.589744,4069.743589
180,4389.743589,4514.358974,4527.179487,4248.717948,4491.794871,4215.384615,4622.051282,4198.461538,4231.282051,4500.000000,4205.641025,4639.487179,3962.564103,4078.974358
181,4384.615384,4510.256410,4524.102564,4250.769230,4492.307692,4215.384615,4625.641025,4198.461538,4235.384615,4498.461538,4201.025641,4638.461538,3963.076924,4084.102564
182,4388.717948,4515.384615,4528.205128,4261.025641,4490.769230,4215.384615,4634.358974,4202.051282,4237.435897,4507.179487,4201.025641,4639.487179,3966.666667,4081.025641
183,4387.692307,4521.538461,4531.794871,4258.461538,4491.282051,4216.923076,4634.871794,4206.153846,4231.282051,4512.820512,4204.615384,4642.051282,3964.102565,4078.461538
184,4377.435897,4514.358974,4526.153846,4252.307692,4492.307692,4215.384615,4626.666666,4196.923076,4220.000000,4499.487179,4198.974358,4638.974358,3956.410257,4071.282051
185,4371.794871,4510.256410,4521.538461,4255.897435,4492.307692,4214.871794,4624.615384,4186.153846,4220.000000,4490.769230,4196.410256,4631.794871,3948.717949,4065.641025
186,4373.846153,4514.358974,4526.153846,4261.025641,4491.282051,4216.410256,4625.641025,4189.230769,4226.666666,4503.076923,4202.051282,4630.769230,3950.256411,4071.282051
187,4374.358974,4515.384615,4528.717948,4260.512820,4488.717948,4212.820512,4619.487179,4192.307692,4223.589743,4506.666666,4199.487179,4632.820512,3954.358975,4075.897435
188,4368.205128,4508.717948,4522.051282,4253.333333,4488.717948,4206.153846,4615.384615,4185.641025,4214.871794,4491.794871,4186.666666,4629.743589,3949.230770,4066.666666
189,4363.076923,4507.692307,4521.538461,4246.153846,4490.256410,4209.743589,4624.615384,4187.692307,4214.871794,4485.641025,4187.179487,4629.743589,3946.153847,4065.128205
190,4367.179487,4519.487179,4530.769230,4248.717948,4491.282051,4219.487179,4633.333333,4198.974358,4221.025641,4495.384615,4201.025641,4635.897435,3950.769231,4075.384615
191,4370.256410,4524.615384,4534.871794,4259.487179,4498.974358,4218.461538,4632.820512,4201.538461,4223.589743,4497.948717,4207.179487,4641.025641,3946.666667,4076.923076
192,4365.641025,4518.461538,4534.358974,4264.615384,4503.589743,4215.384615,4634.358974,4198.461538,4225.128205,4494.871794,4202.051282,4640.512820,3937.948718,4075.384615
193,4357.948717,4509.230769,4531.282051,4254.358974,4494.358974,4216.410256,4632.820512,4192.820512,4221.538461,4492.820512,4190.769230,4633.333333,3935.897436,4077.948717
194,4354.358974,4509.743589,4525.641025,4245.641025,4486.666666,4213.846153,4630.256410,4188.717948,4213.333333,4489.230769,4187.692307,4630.769230,3932.307693,4073.333333
195,4355.897435,4518.974358,4526.666666,4253.846153,4492.820512,4215.384615,4637.435897,4197.435897,4216.410256,4489.230769,4195.384615,4633.846153,3929.743590,4065.641025
196,4356.410256,4516.410256,4531.282051,4257.435897,4497.435897,4220.000000,4644.102564,4202.051282,4220.512820,4490.256410,4199.487179,4633.846153,3936.410257,4070.769230
197,4352.820512,4507.692307,4527.692307,4248.205128,4492.820512,4215.384615,4635.897435,4196.923076,4213.846153,4489.230769,4198.974358,4632.820512,3941.538462,4077.948717
198,4347.179487,4507.179487,4521.025641,4245.641025,4488.205128,4210.769230,4627.692307,4198.461538,4214.871794,4490.256410,4200.512820,4631.794871,3937.435898,4071.794871
199,4341.538461,4508.717948,4522.051282,4254.871794,4494.358974,4214.358974,4634.358974,4203.589743,4226.666666,4497.948717,4201.538461,4632.820512,3934.358975,4068.717948
200,4342.564102,4508.717948,4529.230769,4262.564102,4500.512820,4218.461538,4641.538461,4205.128205,4227.179487,4504.102564,4199.487179,4640.000000,3940.512821,4074.358974
201,4349.230769,4511.282051,4533.333333,4257.435897,4500.512820,4217.948717,4641.538461,4203.076923,4218.461538,4497.435897,4202.564102,4644.615384,3945.641026,4071.794871
202,4347.692307,4510.256410,4528.717948,4246.666666,4497.948717,4215.384615,4637.948717,4200.000000,4222.051282,4490.769230,4207.179487,4638.974358,3943.076924,4063.076923
203,4337.948717,4506.666666,4520.000000,4245.128205,4495.384615,4210.256410,4635.384615,4202.051282,4227.692307,4492.307692,4206.666666,4633.846153,3938.461539,4060.512820
204,4332.820512,4503.076923,4521.025641,4247.692307,4490.256410,4209.230769,4632.307692,4203.076923,4220.000000,4489.743589,4202.051282,4633.333333,3929.230770,4060.512820
205,4330.769230,4502.564102,4524.615384,4244.615384,4488.205128,4213.846153,4631.282051,4194.358974,4211.794871,4484.102564,4195.384615,4630.256410,3924.102565,4058.974358
206,4327.179487,4505.128205,4519.487179,4248.717948,4496.923076,4217.435897,4638.461538,4193.846153,4214.358974,4488.717948,4190.256410,4627.179487,3929.230770,4055.384615
207,4322.564102,4504.102564,4513.333333,4251.282051,4503.589743,4216.923076,4642.564102,4199.487179,4220.000000,4491.282051,4186.153846,4624.102564,3929.230770,4051.282051
208,4323.076923,4502.564102,4513.333333,4238.974358,4496.923076,4214.871794,4635.897435,4191.282051,4221.538461,4480.512820,4182.051282,4618.974358,3923.589744,4052.820512
209,4327.692307,4506.666666,4515.384615,4238.974358,4489.743589,4216.923076,4630.256410,4188.205128,4217.435897,4478.461538,4186.153846,4622.564102,3929.230770,4060.000000
210,4330.256410,4510.256410,4518.461538,4254.871794,4490.769230,4213.333333,4632.307692,4195.384615,4216.923076,4484.102564,4196.923076,4631.794871,3936.410257,4066.666666
211,4329.230769,4507.179487,4517.435897,4256.410256,4491.282051,4206.153846,4637.435897,4195.384615,4221.538461,4485.128205,4205.641025,4634.358974,3931.282052,4064.615384
212,4326.153846,4503.589743,4512.307692,4248.717948,4490.256410,4209.743589,4641.538461,4190.769230,4218.461538,4483.589743,4197.435897,4630.256410,3925.128206,4057.435897
213,4326.666666,4505.641025,4515.384615,4251.794871,4493.846153,4213.846153,4642.051282,4191.282051,4213.333333,4481.538461,4183.076923,4628.205128,3928.205129,4058.461538
214,4330.769230,4509.743589,4519.487179,4253.846153,4490.769230,4208.717948,4638.461538,4187.179487,4215.384615,4477.948717,4188.205128,4625.641025,3930.256411,4067.692307
215,4332.307692,4508.205128,4518.974358,4249.230769,4487.692307,4203.076923,4642.051282,4181.025641,4216.410256,4477.948717,4198.974358,4627.179487,3927.179488,4068.205128
216,4325.128205,4505.128205,4517.435897,4248.717948,4491.282051,4210.256410,4648.205128,4186.666666,4216.923076,4477.435897,4194.358974,4629.743589,3922.051283,4058.461538
217,4317.435897,4505.641025,4511.794871,4246.666666,4491.794871,4214.358974,4646.153846,4187.692307,4217.948717,4471.282051,4182.051282,4622.051282,3911.282052,4049.230769
218,4320.000000,4501.025641,4508.717948,4244.102564,4487.692307,4205.641025,4649.743589,4185.641025,4216.923076,4470.256410,4183.589743,4621.025641,3906.153847,4049.230769
219,4331.794871,4500.512820,4516.410256,4246.666666,4489.743589,4202.564102,4665.641025,4194.358974,4220.000000,4480.512820,4197.435897,4632.307692,3920.000000,4058.461538
220,4341.025641,4503.076923,4517.948717,4246.666666,4489.743589,4206.153846,4671.282051,4199.487179,4219.487179,4478.461538,4198.461538,4630.256410,3930.769231,4063.589743
221,4337.435897,4496.923076,4509.743589,4245.128205,4480.000000,4203.076923,4662.564102,4188.717948,4208.205128,4464.102564,4188.205128,4619.487179,3920.512821,4055.384615
222,4335.897435,4496.923076,4507.692307,4246.153846,4478.974358,4195.897435,4661.538461,4180.000000,4206.666666,4465.641025,4180.512820,4617.948717,3912.307693,4047.179487
223,4338.974358,4500.512820,4510.769230,4245.641025,4485.128205,4200.000000,4668.717948,4185.128205,4213.333333,4475.384615,4180.512820,4621.538461,3916.410257,4052.307692
224,4341.025641,4496.923076,4513.846153,4247.179487,4486.666666,4203.589743,4672.820512,4188.205128,4215.897435,4469.743589,4187.179487,4625.128205,3920.512821,4061.025641
225,4342.051282,4500.000000,4518.461538,4251.794871,4488.205128,4201.538461,4676.410256,4186.153846,4214.871794,4465.128205,4198.461538,4628.717948,3920.512821,4061.025641
226,4337.435897,4505.128205,4516.923076,4247.692307,4486.153846,4201.025641,4677.435897,4183.076923,4212.307692,4471.794871,4202.051282,4623.076923,3915.897436,4051.282051
227,4335.897435,4507.692307,4517.435897,4244.615384,4483.076923,4205.641025,4679.487179,4186.666666,4218.461538,4480.000000,4200.512820,4623.076923,3919.487180,4052.820512
228,4342.051282,4514.358974,4521.538461,4255.897435,4490.769230,4214.358974,4688.717948,4193.846153,4227.692307,4486.666666,4200.512820,4633.846153,3929.743590,4068.205128
229,4345.641025,4521.538461,4522.051282,4267.692307,4497.948717,4215.897435,4697.948717,4195.384615,4226.153846,4488.205128,4194.358974,4634.871794,3931.794872,4073.333333
230,4338.974358,4519.487179,4522.564102,4263.076923,4492.820512,4214.358974,4702.564102,4195.897435,4224.102564,4487.179487,4200.512820,4632.307692,3932.820513,4067.692307
231,4334.358974,4515.897435,4522.564102,4250.769230,4491.282051,4214.871794,4704.615384,4192.820512,4224.102564,4491.282051,4214.871794,4633.333333,3936.923077,4069.230769
232,4334.358974,4511.794871,4522.564102,4252.820512,4493.846153,4214.358974,4702.051282,4188.717948,4220.512820,4491.282051,4210.256410,4632.820512,3928.717949,4069.743589
233,4333.333333,4509.230769,4522.564102,4262.564102,4493.846153,4213.333333,4706.153846,4194.358974,4228.717948,4487.692307,4196.410256,4631.282051,3921.025642,4059.487179
234,4332.820512,4510.256410,4524.615384,4260.512820,4492.820512,4215.897435,4715.384615,4204.615384,4238.461538,4498.461538,4195.384615,4634.358974,3929.743590,4061.025641
235,4330.769230,4505.641025,4524.615384,4248.717948,4492.307692,4216.923076,4713.846153,4199.487179,4224.615384,4502.564102,4198.974358,4633.846153,3929.230770,4074.358974
236,4331.794871,4505.128205,4524.102564,4245.128205,4490.769230,4209.743589,4710.769230,4187.692307,4209.230769,4491.282051,4201.025641,4630.769230,3921.538462,4076.410256
237,4335.897435,4515.897435,4528.717948,4258.461538,4491.282051,4209.743589,4717.948717,4195.384615,4221.538461,4496.923076,4208.717948,4636.923076,3925.128206,4069.743589
238,4333.333333,4517.435897,4527.692307,4263.589743,4493.846153,4214.358974,4721.538461,4200.512820,4231.282051,4506.666666,4206.666666,4640.512820,3930.256411,4065.641025
239,4326.666666,4509.230769,4524.102564,4252.820512,4492.820512,4209.230769,4717.948717,4195.384615,4223.589743,4497.948717,4196.923076,4636.410256,3926.666667,4069.743589
240,4327.692307,4506.153846,4523.076923,4253.333333,4489.743589,4202.051282,4718.461538,4195.384615,4218.461538,4495.384615,4198.461538,4631.794871,3926.153847,4072.820512
241,4326.666666,4504.615384,4516.923076,4257.948717,4489.743589,4204.615384,4713.846153,4193.846153,4214.871794,4498.461538,4202.051282,4626.153846,3924.615385,4066.153846
242,4314.358974,4500.512820,4507.179487,4244.102564,4488.717948,4203.589743,4704.102564,4182.564102,4201.025641,4488.717948,4195.384615,4615.897435,3908.717949,4052.820512
243,4305.641025,4495.384615,4503.589743,4232.820512,4486.666666,4199.487179,4701.025641,4173.846153,4191.282051,4477.948717,4178.974358,4605.128205,3890.769231,4039.487179
244,4304.615384,4492.820512,4504.102564,4238.974358,4488.205128,4203.076923,4701.025641,4174.358974,4197.435897,4474.871794,4165.128205,4600.000000,3888.717949,4032.820512
245,4305.128205,4496.410256,4504.102564,4243.589743,4490.256410,4203.076923,4701.025641,4177.435897,4207.179487,4484.615384,4170.769230,4606.153846,3901.025642,4039.487179
246,4307.692307,4505.128205,4508.717948,4247.692307,4485.128205,4199.487179,4701.538461,4184.102564,4208.205128,4500.512820,4186.153846,4616.410256,3910.256411,4052.307692
247,4308.205128,4507.692307,4507.692307,4251.282051,4479.487179,4201.538461,4701.538461,4186.153846,4203.589743,4497.435897,4188.717948,4613.846153,3908.717949,4053.333333
248,4306.153846,4504.615384,4505.128205,4245.128205,4484.615384,4201.025641,4700.512820,4181.025641,4203.589743,4488.205128,4185.641025,4609.743589,3907.179488,4046.153846
249,4310.769230,4508.205128,4516.410256,4247.692307,4492.820512,4202.051282,4702.564102,4187.692307,4214.871794,4503.076923,4193.846153,4619.487179,3913.846154,4050.769230
250,4318.461538,4511.282051,4519.487179,4258.974358,4492.307692,4211.794871,4705.128205,4200.000000,4225.641025,4513.846153,4201.538461,4626.153846,3922.051283,4062.051282
251,4313.846153,4509.230769,4511.282051,4256.923076,4487.692307,4212.820512,4703.589743,4199.487179,4227.179487,4506.153846,4200.512820,4621.538461,3923.076924,4064.615384
252,4307.692307,4507.179487,4509.230769,4249.743589,4489.230769,4205.128205,4702.564102,4194.871794,4222.564102,4503.589743,4196.923076,4616.410256,3923.589744,4058.974358
253,4308.205128,4505.641025,4511.282051,4247.179487,4491.282051,4207.179487,4702.564102,4194.871794,4215.897435,4503.589743,4195.897435,4615.897435,3926.153847,4059.487179
254,4309.743589,4506.153846,4512.820512,4247.179487,4486.666666,4206.153846,4701.538461,4188.717948,4211.282051,4503.589743,4203.589743,4617.948717,3927.692308,4060.512820
255,4315.384615,4514.358974,4520.000000,4253.846153,4484.615384,4205.128205,4701.025641,4186.153846,4217.948717,4506.153846,4206.153846,4626.153846,3932.307693,4059.487179
256,4320.000000,4521.025641,4526.153846,4261.025641,4489.230769,4210.769230,4702.051282,4195.384615,4229.230769,4506.666666,4196.923076,4634.871794,3935.897436,4066.666666
257,4315.897435,4515.897435,4523.076923,4259.487179,4491.794871,4208.205128,4702.564102,4197.435897,4227.692307,4505.641025,4201.538461,4635.384615,3937.435898,4076.923076
258,4313.846153,4516.410256,4522.564102,4260.512820,4489.743589,4206.153846,4702.051282,4195.384615,4217.948717,4506.666666,4220.000000,4632.820512,3940.512821,4077.948717
259,4316.410256,4520.512820,4524.615384,4261.025641,4486.153846,4212.307692,4703.076923,4197.435897,4218.461538,4509.230769,4217.435897,4633.333333,3939.487180,4069.743589
