,AF3,F7,F3,FC5,T7,P7,O1,O2,P8,T8,FC6,F4,F8,AF4
0,4275.897435,4494.871794,4514.871794,4226.666666,4447.179487,4172.820512,4443.076923,4215.384615,4225.128205,4484.615384,4173.333333,4644.615384,3982.564103,3988.205129
1,4272.307692,4491.282051,4508.717948,4224.102564,4451.282051,4173.846153,4441.538461,4210.256410,4222.564102,4490.256410,4165.641025,4634.871794,3982.564103,3986.153847
2,4266.666666,4490.769230,4505.641025,4221.538461,4446.666666,4172.307692,4441.538461,4201.025641,4216.410256,4492.820512,4154.358974,4622.564102,3976.923077,3982.564103
3,4261.538461,4489.230769,4507.179487,4221.538461,4440.512820,4175.897435,4444.615384,4205.641025,4214.871794,4488.205128,4154.358974,4622.051282,3966.153847,3976.923077
4,4262.564102,4486.153846,4507.692307,4219.487179,4445.641025,4179.487179,4448.717948,4209.743589,4216.923076,4482.051282,4156.410256,4629.743589,3964.102565,3973.846154
5,4268.717948,4485.128205,4509.230769,4221.025641,4449.743589,4179.487179,4451.794871,4207.179487,4215.897435,4474.871794,4152.307692,4636.923076,3973.333334,3977.435898
6,4269.743589,4490.256410,4510.256410,4223.589743,4445.641025,4178.461538,4450.769230,4207.692307,4213.333333,4466.666666,4144.102564,4632.307692,3970.256411,3977.948718
7,4273.333333,4496.410256,4518.461538,4224.615384,4448.205128,4183.076923,4455.897435,4212.820512,4219.487179,4482.564102,4150.256410,4628.205128,3968.717949,3984.102565
8,4278.974358,4499.487179,4527.692307,4230.769230,4456.923076,4190.769230,4463.076923,4214.358974,4222.051282,4503.589743,4164.102564,4635.897435,3981.025642,3996.410257
9,4272.820512,4494.358974,4516.410256,4227.692307,4454.871794,4192.307692,4460.000000,4206.666666,4208.205128,4486.153846,4157.435897,4637.948717,3978.974359,3989.230770
10,4269.743589,4491.282051,4504.615384,4220.000000,4450.769230,4191.282051,4454.358974,4209.743589,4209.230769,4472.307692,4152.820512,4635.897435,3968.717949,3977.435898
11,4280.000000,4501.025641,4511.794871,4227.692307,4451.794871,4189.230769,4456.410256,4225.641025,4229.230769,4492.820512,4166.153846,4643.076923,3977.948718,3988.205129
12,4275.384615,4498.974358,4508.717948,4230.256410,4452.307692,4181.538461,4453.846153,4226.666666,4228.717948,4497.435897,4163.589743,4642.051282,3983.076924,3993.846154
13,4258.974358,4478.461538,4490.769230,4213.846153,4446.153846,4174.871794,4449.230769,4214.871794,4212.820512,4482.051282,4147.179487,4625.128205,3968.717949,3981.538462
14,4256.923076,4473.333333,4485.128205,4208.205128,4440.000000,4174.358974,4450.769230,4212.307692,4209.230769,4481.538461,4145.128205,4621.025641,3962.564103,3976.410257
15,4261.025641,4484.615384,4483.076923,4214.871794,4438.461538,4173.333333,4450.256410,4212.820512,4212.307692,4481.025641,4149.230769,4625.641025,3967.692308,3978.461539
16,4260.000000,4486.153846,4475.384615,4212.307692,4436.923076,4174.358974,4447.179487,4209.743589,4209.743589,4473.333333,4150.769230,4621.025641,3968.205129,3977.948718
17,4261.025641,4481.538461,4470.256410,4211.794871,4430.769230,4175.897435,4449.743589,4210.769230,4208.717948,4476.923076,4154.871794,4616.923076,3969.230770,3978.974359
18,4263.076923,4482.051282,4466.153846,4218.461538,4433.846153,4177.435897,4448.205128,4209.743589,4208.205128,4478.461538,4150.769230,4621.025641,3969.230770,3981.538462
19,4267.692307,4487.179487,4468.717948,4223.589743,4449.743589,4178.461538,4442.051282,4204.615384,4205.641025,4476.410256,4144.615384,4626.666666,3970.256411,3986.153847
20,4269.743589,4490.256410,4471.282051,4222.564102,4453.846153,4176.410256,4444.615384,4199.487179,4202.564102,4475.897435,4147.179487,4625.128205,3973.846154,3986.153847
21,4263.076923,4486.666666,4462.564102,4218.974358,4451.794871,4176.410256,4445.128205,4198.974358,4201.538461,4471.282051,4151.282051,4621.538461,3975.897436,3978.461539
22,4264.102564,4486.153846,4461.025641,4219.487179,4451.794871,4178.461538,4442.564102,4207.179487,4207.179487,4475.897435,4160.000000,4627.692307,3976.923077,3984.615385
23,4272.820512,4490.256410,4467.692307,4224.615384,4436.923076,4173.846153,4444.615384,4212.820512,4211.282051,4486.666666,4167.179487,4634.871794,3974.871795,4000.000000
24,4272.307692,4487.692307,4462.051282,4225.128205,4424.615384,4169.230769,4444.102564,4209.230769,4210.256410,4491.282051,4158.461538,4629.230769,3969.230770,3995.897436
25,4265.641025,4480.512820,4456.410256,4220.000000,4434.358974,4170.256410,4444.102564,4208.205128,4208.205128,4488.205128,4148.717948,4621.025641,3967.692308,3979.487180
26,4257.435897,4478.461538,4458.461538,4215.384615,4441.025641,4167.692307,4444.102564,4208.717948,4202.564102,4474.358974,4146.666666,4615.384615,3967.179488,3970.256411
27,4252.307692,4480.512820,4455.384615,4209.743589,4438.974358,4167.692307,4443.076923,4204.102564,4196.923076,4462.051282,4141.025641,4610.769230,3958.974359,3971.282052
28,4255.897435,4484.615384,4454.358974,4208.205128,4445.641025,4173.333333,4442.051282,4204.615384,4202.051282,4469.230769,4138.974358,4614.871794,3958.974359,3976.923077
29,4262.051282,4484.615384,4461.025641,4214.871794,4442.564102,4173.846153,4443.589743,4208.717948,4207.179487,4471.794871,4145.128205,4621.538461,3967.179488,3981.538462
30,4265.128205,4483.076923,4466.666666,4219.487179,4437.435897,4173.333333,4443.589743,4202.564102,4198.974358,4467.692307,4148.717948,4619.487179,3965.641026,3982.564103
31,4268.205128,4489.743589,4472.307692,4219.487179,4447.692307,4176.923076,4444.102564,4192.820512,4193.333333,4474.871794,4153.333333,4622.051282,3966.153847,3985.128206
32,4269.743589,4491.282051,4475.897435,4221.025641,4453.846153,4177.948717,4449.743589,4197.435897,4202.564102,4483.589743,4158.974358,4630.769230,3971.794872,3985.128206
33,4272.307692,4489.743589,4474.871794,4221.025641,4454.358974,4182.051282,4456.923076,4213.846153,4217.948717,4492.820512,4160.512820,4632.820512,3981.025642,3989.230770
34,4283.589743,4502.051282,4484.615384,4227.692307,4465.128205,4193.333333,4463.076923,4227.692307,4233.333333,4501.025641,4172.307692,4639.487179,3997.948718,4003.076923
35,4302.564102,4519.487179,4501.025641,4243.589743,4482.051282,4205.128205,4471.794871,4241.538461,4246.666666,4513.333333,4193.846153,4659.487179,4011.794871,4017.435897
36,4310.256410,4522.564102,4503.076923,4249.743589,4486.666666,4210.256410,4480.512820,4247.179487,4251.794871,4531.794871,4201.025641,4671.282051,4008.717948,4022.051282
37,4295.384615,4511.794871,4494.358974,4238.974358,4471.794871,4200.000000,4475.384615,4233.333333,4242.051282,4528.717948,4186.666666,4656.923076,3997.948718,4009.230769
38,4280.512820,4501.025641,4484.615384,4227.692307,4455.384615,4187.179487,4461.538461,4220.000000,4228.717948,4503.076923,4170.256410,4637.435897,3992.307693,3986.666667
39,4280.000000,4497.948717,4473.846153,4223.589743,4456.923076,4189.230769,4459.487179,4218.461538,4224.102564,4496.923076,4166.666666,4631.794871,3985.128206,3982.051283
40,4286.666666,4505.128205,4476.410256,4227.692307,4465.128205,4194.358974,4462.051282,4223.589743,4228.205128,4504.102564,4170.769230,4636.923076,3978.974359,3995.384616
41,4294.358974,4512.307692,4490.769230,4236.410256,4470.256410,4192.820512,4465.128205,4234.358974,4235.897435,4498.974358,4177.435897,4646.153846,3987.179488,4005.641025
42,4302.564102,4513.333333,4494.871794,4241.025641,4477.948717,4194.358974,4468.717948,4240.000000,4242.564102,4503.589743,4184.615384,4655.897435,4001.025641,4012.307692
43,4308.205128,4515.897435,4493.333333,4245.641025,4484.102564,4198.974358,4466.153846,4228.205128,4237.948717,4515.897435,4185.641025,4657.435897,4005.128205,4014.358974
44,4309.230769,4522.564102,4498.461538,4252.820512,4488.205128,4199.487179,4459.487179,4220.000000,4230.256410,4518.461538,4184.615384,4653.333333,4006.666666,4012.820512
45,4312.307692,4527.179487,4503.589743,4253.846153,4487.692307,4199.487179,4460.000000,4223.076923,4234.871794,4522.051282,4192.307692,4659.487179,4013.846153,4021.025641
46,4320.000000,4529.743589,4508.205128,4253.846153,4476.923076,4197.948717,4461.025641,4228.205128,4242.051282,4530.256410,4202.051282,4668.717948,4015.897435,4032.307692
47,4323.076923,4531.794871,4509.743589,4258.461538,4472.820512,4194.871794,4456.923076,4233.333333,4244.102564,4528.717948,4204.102564,4669.230769,4016.410256,4033.846153
48,4316.923076,4530.256410,4508.205128,4257.948717,4483.589743,4198.461538,4457.948717,4235.897435,4246.666666,4516.923076,4204.102564,4666.666666,4023.589743,4029.743589
49,4313.333333,4526.666666,4507.179487,4253.333333,4486.666666,4205.641025,4467.692307,4237.948717,4248.205128,4515.897435,4202.564102,4665.128205,4022.051282,4022.564102
50,4313.333333,4526.666666,4501.538461,4253.846153,4484.615384,4209.743589,4476.410256,4244.615384,4251.794871,4529.743589,4196.923076,4661.025641,4009.743589,4016.923076
51,4308.717948,4526.666666,4493.333333,4247.179487,4482.564102,4208.717948,4477.948717,4246.666666,4254.358974,4533.846153,4193.333333,4655.384615,4006.666666,4017.435897
52,4304.102564,4517.948717,4490.769230,4237.435897,4468.205128,4204.615384,4472.820512,4240.000000,4249.230769,4519.487179,4191.282051,4649.743589,4007.692307,4012.307692
53,4303.589743,4514.358974,4493.846153,4244.615384,4466.153846,4202.564102,4472.820512,4239.487179,4243.076923,4512.820512,4191.282051,4650.769230,4002.564102,4009.230769
54,4310.256410,4525.128205,4501.538461,4256.410256,4485.128205,4206.153846,4478.974358,4242.051282,4247.179487,4517.435897,4195.384615,4660.000000,4004.102564,4020.000000
55,4312.307692,4525.128205,4504.102564,4248.717948,4482.564102,4204.615384,4472.820512,4232.307692,4243.589743,4509.743589,4192.307692,4658.974358,4005.641025,4018.461538
56,4301.025641,4511.282051,4492.307692,4236.410256,4463.589743,4197.948717,4463.076923,4222.051282,4235.384615,4504.615384,4180.512820,4648.717948,3995.897436,4003.076923
57,4295.384615,4511.282051,4490.256410,4235.384615,4469.230769,4200.512820,4467.692307,4231.282051,4245.128205,4517.948717,4177.435897,4650.256410,3996.923077,4007.692307
58,4303.076923,4517.948717,4503.076923,4240.512820,4481.025641,4206.153846,4475.384615,4243.589743,4254.871794,4519.487179,4183.076923,4655.384615,4002.564102,4018.461538
59,4306.153846,4512.307692,4502.564102,4242.564102,4473.846153,4205.128205,4476.923076,4237.948717,4247.179487,4507.179487,4181.538461,4647.692307,3992.307693,4009.230769
60,4291.282051,4499.487179,4489.230769,4230.769230,4461.025641,4195.384615,4470.256410,4219.487179,4227.692307,4498.974358,4164.615384,4634.871794,3975.897436,3993.333334
61,4279.487179,4492.307692,4486.666666,4220.512820,4456.410256,4185.128205,4457.435897,4207.692307,4218.461538,4485.641025,4151.794871,4629.230769,3972.820513,3986.153847
62,4284.102564,4495.384615,4492.307692,4227.179487,4457.435897,4184.615384,4454.358974,4211.794871,4226.666666,4485.641025,4158.461538,4633.333333,3978.461539,3988.717949
63,4287.692307,4498.461538,4490.256410,4227.692307,4455.897435,4185.128205,4458.974358,4213.846153,4225.641025,4494.358974,4164.102564,4633.846153,3972.307693,3989.230770
64,4280.512820,4493.846153,4485.641025,4216.923076,4451.282051,4181.538461,4460.000000,4209.230769,4214.358974,4479.487179,4158.974358,4627.692307,3965.641026,3983.589744
65,4283.589743,4495.897435,4495.897435,4222.564102,4455.384615,4186.153846,4462.051282,4216.410256,4221.538461,4476.410256,4163.589743,4635.384615,3982.564103,3991.282052
66,4300.512820,4507.692307,4507.179487,4237.435897,4467.692307,4195.384615,4468.717948,4227.179487,4238.461538,4504.615384,4176.410256,4650.256410,4004.102564,4010.256410
67,4302.051282,4507.692307,4502.051282,4240.000000,4470.769230,4193.846153,4464.102564,4224.102564,4234.871794,4510.256410,4180.512820,4650.769230,3999.487180,4010.769230
68,4292.307692,4502.051282,4499.487179,4234.871794,4467.179487,4186.666666,4458.974358,4217.435897,4225.128205,4495.897435,4178.974358,4644.102564,3988.205129,4001.025641
69,4293.333333,4504.615384,4505.641025,4232.307692,4464.615384,4186.666666,4463.076923,4220.512820,4227.179487,4498.974358,4175.384615,4644.102564,3987.692308,4003.589743
70,4289.743589,4497.948717,4498.461538,4227.692307,4452.307692,4184.102564,4456.923076,4214.871794,4220.512820,4484.102564,4162.051282,4636.923076,3977.435898,3997.435898
71,4270.256410,4481.025641,4482.564102,4215.384615,4436.410256,4168.717948,4443.589743,4198.461538,4200.000000,4452.820512,4148.717948,4621.025641,3959.487180,3982.051283
72,4263.076923,4474.871794,4476.923076,4206.666666,4438.974358,4161.025641,4441.025641,4189.743589,4188.717948,4451.794871,4145.641025,4614.871794,3952.307693,3972.820513
73,4276.923076,4483.589743,4483.076923,4213.333333,4452.307692,4170.769230,4448.717948,4196.410256,4196.923076,4470.256410,4150.769230,4624.102564,3962.564103,3974.871795
74,4285.128205,4491.282051,4491.282051,4222.051282,4451.282051,4176.410256,4449.743589,4203.076923,4207.179487,4473.333333,4155.384615,4632.307692,3977.435898,3984.615385
75,4281.538461,4487.692307,4491.282051,4217.948717,4439.487179,4165.128205,4444.102564,4199.487179,4205.641025,4461.025641,4155.897435,4632.307692,3974.358975,3988.205129
76,4278.461538,4481.025641,4487.692307,4213.846153,4442.051282,4162.564102,4443.589743,4195.897435,4203.076923,4464.615384,4160.512820,4632.820512,3970.256411,3987.692308
77,4286.666666,4483.589743,4497.435897,4222.051282,4451.282051,4173.846153,4448.205128,4198.461538,4206.153846,4482.051282,4168.717948,4637.948717,3981.538462,3994.871795
78,4297.948717,4495.384615,4507.179487,4227.692307,4451.282051,4175.384615,4447.692307,4195.384615,4205.128205,4485.128205,4165.641025,4637.435897,3985.128206,3995.897436
79,4299.487179,4505.128205,4505.641025,4227.179487,4451.794871,4170.256410,4438.461538,4187.692307,4202.564102,4477.435897,4157.948717,4632.820512,3975.897436,3991.794872
80,4304.615384,4515.897435,4510.769230,4234.871794,4466.666666,4177.435897,4444.102564,4197.948717,4210.256410,4474.358974,4166.153846,4640.512820,3984.102565,4002.051282
81,4313.333333,4518.461538,4519.487179,4242.564102,4473.333333,4184.615384,4454.871794,4213.333333,4214.871794,4472.820512,4175.897435,4646.666666,3993.846154,4011.794871
82,4304.102564,4507.692307,4511.282051,4233.846153,4457.948717,4177.948717,4448.717948,4203.076923,4206.666666,4468.717948,4166.153846,4631.282051,3977.435898,3998.461539
83,4292.307692,4500.000000,4501.538461,4223.076923,4453.846153,4180.512820,4446.666666,4195.384615,4205.641025,4473.846153,4159.487179,4621.538461,3969.743590,3986.153847
84,4298.461538,4502.051282,4503.076923,4227.179487,4466.153846,4190.256410,4455.897435,4207.179487,4214.871794,4488.205128,4163.076923,4626.666666,3982.564103,3986.666667
85,4302.051282,4502.564102,4503.076923,4227.692307,4464.102564,4186.666666,4455.897435,4206.666666,4212.820512,4487.179487,4160.512820,4627.179487,3984.102565,3986.666667
86,4297.435897,4502.564102,4500.512820,4224.102564,4458.461538,4184.615384,4453.333333,4200.512820,4207.692307,4461.538461,4162.051282,4626.666666,3973.846154,3986.666667
87,4302.051282,4508.205128,4509.230769,4232.307692,4469.230769,4193.846153,4462.051282,4216.410256,4218.974358,4461.025641,4175.897435,4635.384615,3980.000000,3996.410257
88,4311.794871,4512.307692,4520.512820,4241.538461,4471.794871,4193.846153,4464.102564,4222.051282,4230.256410,4494.871794,4178.974358,4642.564102,3992.820513,4005.641025
89,4315.897435,4512.307692,4522.564102,4236.410256,4458.974358,4185.641025,4454.358974,4203.589743,4218.974358,4502.564102,4169.230769,4643.589743,3987.179488,4002.564102
90,4319.487179,4512.820512,4522.564102,4233.846153,4458.461538,4187.692307,4455.897435,4205.128205,4213.846153,4487.692307,4176.410256,4649.743589,3981.538462,4000.000000
91,4327.692307,4518.974358,4532.820512,4246.666666,4467.692307,4194.358974,4466.153846,4226.666666,4231.794871,4495.897435,4196.410256,4663.076923,3995.384616,4014.358974
92,4333.333333,4529.743589,4541.025641,4251.794871,4467.179487,4193.333333,4466.666666,4231.282051,4241.538461,4502.564102,4204.102564,4667.692307,4014.871794,4031.282051
93,4328.717948,4527.179487,4531.282051,4244.102564,4461.025641,4187.692307,4457.948717,4218.461538,4229.230769,4486.666666,4189.743589,4658.974358,4011.282051,4026.153846
94,4315.897435,4514.358974,4518.461538,4240.000000,4461.025641,4185.641025,4453.333333,4211.282051,4217.948717,4478.974358,4171.794871,4646.153846,3987.179488,4003.076923
95,4307.179487,4508.717948,4517.435897,4238.461538,4469.743589,4189.743589,4456.410256,4210.256410,4217.948717,4487.179487,4167.692307,4637.948717,3973.333334,3992.820513
96,4307.179487,4508.205128,4518.974358,4235.897435,4469.230769,4189.230769,4456.923076,4206.153846,4218.461538,4485.128205,4167.692307,4632.820512,3975.384616,3993.333334
97,4310.769230,4507.692307,4520.000000,4235.384615,4458.974358,4186.666666,4453.333333,4203.076923,4215.384615,4478.974358,4162.051282,4634.358974,3978.974359,3992.307693
98,4316.923076,4513.846153,4522.051282,4239.487179,4458.461538,4190.769230,4454.871794,4208.717948,4216.410256,4483.589743,4165.128205,4638.974358,3981.025642,3997.435898
99,4320.000000,4514.358974,4521.538461,4243.076923,4463.589743,4194.358974,4460.512820,4214.358974,4220.512820,4483.076923,4173.846153,4638.974358,3980.000000,4005.128205
100,4321.538461,4511.282051,4526.666666,4246.153846,4465.128205,4194.871794,4463.589743,4213.333333,4221.538461,4480.512820,4174.871794,4642.051282,3982.564103,4005.128205
101,4331.794871,4521.538461,4537.435897,4250.256410,4472.820512,4200.512820,4468.205128,4214.358974,4220.512820,4493.846153,4179.487179,4650.256410,3994.871795,4009.230769
102,4343.076923,4535.897435,4544.102564,4258.461538,4487.692307,4211.282051,4478.974358,4224.102564,4232.820512,4506.153846,4193.333333,4660.000000,4009.743589,4024.102564
103,4340.512820,4534.871794,4544.615384,4261.538461,4486.666666,4213.333333,4481.025641,4231.794871,4246.153846,4506.153846,4198.974358,4664.615384,4013.846153,4030.256410
104,4338.974358,4528.717948,4548.205128,4255.384615,4471.794871,4203.589743,4473.333333,4232.820512,4245.641025,4512.820512,4195.897435,4664.102564,4011.794871,4027.179487
105,4351.794871,4534.871794,4555.897435,4259.487179,4476.923076,4203.076923,4472.820512,4236.410256,4241.538461,4523.589743,4195.897435,4666.666666,4010.256410,4029.230769
106,4348.205128,4534.358974,4552.307692,4263.076923,4489.743589,4209.743589,4477.948717,4234.358974,4234.358974,4510.256410,4190.769230,4665.128205,3999.487180,4024.102564
107,4325.128205,4511.794871,4540.512820,4248.205128,4477.948717,4204.615384,4476.923076,4223.076923,4224.102564,4488.717948,4177.435897,4651.794871,3984.102565,4005.641025
108,4316.923076,4501.025641,4534.871794,4236.923076,4461.538461,4194.358974,4472.307692,4220.000000,4220.512820,4488.205128,4173.333333,4641.538461,3981.538462,3998.461539
109,4324.102564,4512.820512,4535.897435,4239.487179,4468.205128,4195.897435,4473.846153,4223.589743,4222.051282,4498.461538,4173.846153,4642.051282,3987.692308,4005.128205
110,4324.615384,4518.461538,4536.923076,4243.076923,4476.410256,4201.538461,4475.897435,4221.538461,4218.974358,4496.923076,4166.666666,4640.512820,3987.179488,4002.564102
111,4320.000000,4511.794871,4535.384615,4245.641025,4469.230769,4201.025641,4473.846153,4218.974358,4218.461538,4486.153846,4162.564102,4635.897435,3981.025642,3996.923077
112,4323.589743,4515.384615,4536.410256,4252.307692,4467.179487,4200.512820,4475.897435,4217.948717,4220.512820,4483.076923,4170.769230,4637.948717,3978.461539,3998.974359
113,4329.743589,4521.538461,4538.461538,4254.871794,4467.179487,4196.923076,4476.410256,4209.743589,4212.820512,4485.128205,4174.871794,4643.076923,3978.974359,4001.025641
114,4331.794871,4518.461538,4538.461538,4250.769230,4463.076923,4194.871794,4472.307692,4204.102564,4206.153846,4484.102564,4172.307692,4647.692307,3980.512821,4001.538461
115,4335.384615,4520.000000,4540.000000,4250.769230,4469.230769,4204.615384,4476.923076,4215.897435,4216.410256,4487.692307,4179.487179,4651.794871,3991.282052,4011.282051
116,4343.589743,4529.743589,4547.692307,4258.461538,4482.051282,4214.358974,4490.256410,4239.487179,4241.538461,4516.923076,4197.948717,4658.974358,4010.769230,4024.615384
117,4353.333333,4536.410256,4554.358974,4267.179487,4489.743589,4213.846153,4491.794871,4253.333333,4256.923076,4544.615384,4213.846153,4669.743589,4024.615384,4031.794871
118,4352.307692,4533.846153,4547.692307,4266.666666,4486.153846,4206.153846,4479.487179,4244.102564,4249.743589,4528.717948,4209.230769,4669.230769,4020.000000,4029.743589
119,4339.487179,4526.153846,4537.435897,4258.461538,4474.358974,4198.461538,4471.794871,4227.692307,4237.948717,4502.564102,4192.820512,4654.358974,4004.615384,4017.948717
120,4329.230769,4523.076923,4536.410256,4251.282051,4470.256410,4201.538461,4477.435897,4224.615384,4232.820512,4512.307692,4188.717948,4647.179487,3997.435898,4010.769230
121,4329.743589,4521.025641,4538.974358,4245.128205,4475.897435,4208.205128,4484.615384,4225.641025,4230.769230,4525.641025,4189.230769,4648.205128,3999.487180,4014.871794
122,4329.743589,4514.358974,4534.358974,4245.128205,4471.282051,4205.128205,4476.923076,4222.051282,4226.153846,4514.358974,4179.487179,4642.564102,3992.307693,4014.871794
123,4329.230769,4516.410256,4533.333333,4252.820512,4464.102564,4202.051282,4474.871794,4221.025641,4224.615384,4510.769230,4174.358974,4639.487179,3988.205129,4009.230769
124,4338.461538,4529.230769,4546.666666,4257.948717,4475.384615,4210.769230,4485.128205,4223.589743,4222.564102,4510.769230,4182.051282,4646.153846,3999.487180,4014.871794
125,4344.615384,4532.307692,4553.846153,4256.410256,4487.179487,4213.846153,4484.615384,4217.948717,4216.923076,4494.358974,4185.128205,4652.820512,4004.615384,4024.102564
126,4344.102564,4527.179487,4547.179487,4252.820512,4482.564102,4209.230769,4479.487179,4212.307692,4214.871794,4491.794871,4182.564102,4652.820512,3998.461539,4023.076923
127,4349.743589,4529.743589,4547.692307,4254.358974,4478.461538,4209.230769,4483.076923,4221.025641,4221.538461,4510.256410,4182.051282,4653.333333,4001.025641,4025.128205
128,4356.410256,4541.025641,4555.897435,4264.615384,4487.692307,4215.897435,4485.128205,4233.846153,4230.769230,4523.076923,4187.692307,4658.461538,4010.256410,4031.282051
129,4357.948717,4548.205128,4557.948717,4272.307692,4497.435897,4220.512820,4484.615384,4239.487179,4236.410256,4530.256410,4201.538461,4665.128205,4016.923076,4031.282051
130,4356.923076,4545.128205,4554.871794,4268.205128,4491.282051,4218.461538,4484.615384,4235.384615,4240.000000,4540.000000,4205.128205,4667.692307,4020.000000,4027.692307
131,4352.820512,4537.948717,4553.333333,4260.512820,4483.076923,4214.358974,4482.051282,4230.256410,4241.025641,4532.307692,4198.461538,4663.589743,4012.820512,4023.076923
132,4347.692307,4533.333333,4552.307692,4255.384615,4485.128205,4214.358974,4483.589743,4234.871794,4240.512820,4514.871794,4198.974358,4660.512820,4007.179487,4020.512820
133,4348.717948,4531.794871,4550.256410,4254.358974,4486.153846,4215.897435,4487.692307,4241.538461,4239.487179,4523.076923,4200.512820,4657.435897,4006.153846,4018.974358
134,4352.820512,4536.410256,4547.179487,4262.564102,4487.692307,4219.487179,4487.692307,4241.538461,4244.102564,4546.153846,4194.358974,4655.897435,4001.025641,4016.410256
135,4352.820512,4543.076923,4548.717948,4268.205128,4497.948717,4225.128205,4493.846153,4242.564102,4248.717948,4546.153846,4192.307692,4661.538461,4001.025641,4018.461538
136,4353.333333,4544.615384,4554.871794,4264.615384,4502.051282,4226.153846,4496.410256,4241.025641,4241.025641,4528.717948,4193.846153,4666.153846,4003.076923,4027.179487
137,4354.358974,4541.538461,4554.871794,4261.538461,4494.871794,4220.000000,4489.230769,4227.692307,4230.769230,4519.487179,4190.256410,4660.512820,3993.846154,4023.589743
138,4354.871794,4538.974358,4550.256410,4257.948717,4493.846153,4217.948717,4488.205128,4222.564102,4233.333333,4517.435897,4192.307692,4654.871794,3987.692308,4012.307692
139,4362.564102,4545.641025,4556.410256,4263.076923,4499.487179,4224.102564,4491.794871,4236.410256,4243.076923,4522.564102,4206.153846,4665.641025,4004.615384,4022.564102
140,4371.794871,4555.384615,4566.153846,4276.923076,4498.461538,4226.666666,4490.256410,4244.102564,4248.717948,4533.846153,4215.384615,4679.487179,4021.538461,4040.000000
141,4374.871794,4551.794871,4567.179487,4283.076923,4493.333333,4223.076923,4484.102564,4239.487179,4249.230769,4543.589743,4214.871794,4683.589743,4016.410256,4040.512820
142,4372.820512,4548.205128,4567.179487,4280.000000,4496.410256,4225.128205,4484.615384,4237.435897,4248.717948,4549.230769,4210.769230,4681.025641,4006.666666,4037.435897
143,4372.307692,4560.000000,4568.205128,4281.538461,4507.692307,4233.333333,4494.871794,4242.564102,4253.846153,4545.128205,4208.717948,4676.410256,4010.256410,4040.512820
144,4370.769230,4561.538461,4559.487179,4276.923076,4505.128205,4232.820512,4497.435897,4246.666666,4256.923076,4537.948717,4205.128205,4670.769230,4012.820512,4036.410256
145,4364.102564,4545.641025,4547.692307,4264.102564,4489.743589,4224.102564,4489.743589,4241.538461,4247.179487,4535.897435,4197.435897,4664.102564,4001.025641,4026.666666
146,4362.564102,4542.564102,4549.230769,4267.692307,4490.256410,4224.615384,4487.692307,4236.410256,4241.025641,4532.820512,4195.897435,4662.051282,3992.820513,4024.615384
147,4369.230769,4552.820512,4555.897435,4281.538461,4503.589743,4230.256410,4493.846153,4237.435897,4247.692307,4538.461538,4202.051282,4666.666666,4005.128205,4032.307692
148,4371.794871,4550.769230,4553.333333,4280.000000,4500.512820,4226.153846,4491.794871,4234.871794,4246.666666,4548.717948,4204.615384,4666.153846,4014.358974,4038.461538
149,4360.512820,4541.025641,4546.666666,4267.692307,4485.641025,4217.948717,4483.076923,4222.051282,4232.820512,4534.871794,4193.846153,4654.871794,3998.974359,4031.282051
150,4354.871794,4541.538461,4547.179487,4266.153846,4485.128205,4219.487179,4483.076923,4220.000000,4228.205128,4517.435897,4187.179487,4650.256410,3988.717949,4021.025641
151,4366.153846,4549.230769,4555.897435,4276.410256,4499.487179,4228.205128,4492.820512,4235.897435,4243.076923,4524.102564,4199.487179,4665.641025,4001.538461,4028.717948
152,4370.256410,4550.769230,4561.025641,4278.974358,4502.051282,4229.743589,4492.820512,4242.564102,4251.794871,4531.794871,4204.615384,4672.820512,4011.794871,4038.974358
153,4355.897435,4537.435897,4550.256410,4265.128205,4484.102564,4216.923076,4479.487179,4230.256410,4240.512820,4529.743589,4192.307692,4657.435897,4004.615384,4026.666666
154,4346.153846,4526.153846,4540.512820,4255.384615,4474.871794,4208.717948,4472.307692,4221.025641,4231.794871,4534.358974,4189.743589,4646.666666,3994.871795,4016.923076
155,4352.307692,4529.230769,4545.128205,4262.564102,4485.128205,4213.333333,4476.923076,4225.641025,4238.974358,4536.410256,4198.461538,4653.333333,3993.333334,4027.692307
156,4355.897435,4532.820512,4547.692307,4265.641025,4484.102564,4214.358974,4477.948717,4229.743589,4242.051282,4525.641025,4196.923076,4655.384615,3996.923077,4027.692307
157,4353.333333,4533.333333,4547.692307,4263.076923,4472.307692,4211.282051,4473.846153,4227.692307,4237.948717,4516.923076,4190.256410,4652.820512,3997.435898,4016.410256
158,4354.871794,4534.358974,4550.256410,4268.717948,4477.435897,4215.384615,4473.846153,4229.743589,4240.512820,4514.871794,4194.358974,4657.948717,3995.384616,4022.051282
159,4359.487179,4537.948717,4550.769230,4274.358974,4489.230769,4219.487179,4479.487179,4233.333333,4242.051282,4521.538461,4196.923076,4661.025641,3999.487180,4033.333333
160,4358.974358,4538.974358,4549.743589,4271.282051,4485.641025,4215.384615,4480.000000,4228.717948,4236.923076,4527.692307,4192.820512,4653.333333,4003.076923,4029.230769
161,4356.923076,4535.384615,4552.307692,4268.205128,4481.025641,4216.923076,4474.871794,4221.538461,4234.358974,4514.871794,4189.743589,4648.717948,3999.487180,4025.128205
162,4360.512820,4536.923076,4555.384615,4269.743589,4484.102564,4221.538461,4477.948717,4224.102564,4237.948717,4502.564102,4193.333333,4655.384615,3998.461539,4030.256410
163,4369.230769,4548.717948,4558.974358,4272.307692,4488.717948,4224.102564,4485.641025,4234.871794,4245.128205,4523.076923,4200.000000,4665.641025,4002.564102,4035.384615
164,4369.230769,4549.230769,4558.974358,4272.820512,4486.153846,4221.538461,4482.564102,4236.923076,4246.666666,4540.512820,4203.076923,4665.128205,4003.589743,4034.871794
165,4358.974358,4533.333333,4549.230769,4266.666666,4475.384615,4212.307692,4472.307692,4228.205128,4238.461538,4523.076923,4196.410256,4654.871794,3993.846154,4027.692307
166,4354.358974,4529.743589,4550.769230,4265.128205,4474.871794,4213.846153,4473.846153,4227.692307,4233.846153,4509.743589,4188.717948,4649.743589,3988.717949,4025.128205
167,4359.487179,4537.948717,4556.410256,4268.717948,4483.589743,4224.102564,4487.179487,4238.974358,4240.000000,4511.794871,4191.794871,4657.948717,4003.589743,4031.794871
168,4363.589743,4536.923076,4553.333333,4268.205128,4480.512820,4225.641025,4489.230769,4244.102564,4243.589743,4514.358974,4197.435897,4663.076923,4016.410256,4035.897435
169,4364.102564,4533.333333,4552.820512,4266.666666,4478.974358,4221.025641,4485.128205,4239.487179,4241.538461,4526.666666,4196.410256,4659.487179,4006.153846,4033.333333
170,4359.487179,4531.794871,4552.307692,4260.000000,4487.692307,4219.487179,4485.128205,4234.358974,4240.000000,4528.205128,4195.384615,4653.333333,3995.384616,4031.794871
171,4349.743589,4524.102564,4541.538461,4251.282051,4479.487179,4213.333333,4481.025641,4229.743589,4233.333333,4505.641025,4189.743589,4645.128205,3995.897436,4026.666666
172,4342.051282,4514.871794,4533.846153,4250.256410,4462.051282,4204.615384,4470.256410,4223.589743,4224.615384,4493.846153,4180.512820,4637.948717,3991.794872,4018.461538
173,4343.076923,4517.435897,4536.410256,4253.333333,4462.051282,4203.589743,4467.179487,4218.461538,4222.564102,4497.435897,4174.871794,4637.948717,3986.153847,4014.358974
174,4348.717948,4528.205128,4538.461538,4254.871794,4477.435897,4210.256410,4473.846153,4218.974358,4224.615384,4496.410256,4174.358974,4640.000000,3989.743590,4014.871794
175,4350.256410,4530.256410,4536.410256,4256.923076,4483.589743,4215.897435,4476.410256,4225.128205,4227.692307,4502.051282,4177.948717,4639.487179,3990.256411,4016.410256
176,4347.692307,4523.589743,4537.948717,4257.435897,4473.333333,4209.743589,4471.282051,4223.076923,4225.641025,4508.717948,4173.846153,4639.487179,3980.000000,4020.000000
177,4344.102564,4517.948717,4540.000000,4254.358974,4462.564102,4204.102564,4465.641025,4213.846153,4213.333333,4491.282051,4164.615384,4638.461538,3972.307693,4020.512820
178,4343.076923,4519.487179,4538.974358,4254.871794,4467.179487,4207.692307,4469.743589,4217.435897,4206.153846,4477.435897,4170.256410,4640.000000,3980.512821,4017.435897
179,4347.692307,4526.153846,4541.025641,4256.923076,4470.769230,4209.743589,4479.487179,4228.717948,4215.897435,4493.333333,4181.025641,4645.128205,3989.230770,4017.435897
180,4349.743589,4525.128205,4545.641025,4256.923076,4462.051282,4205.641025,4475.897435,4228.205128,4223.076923,4498.461538,4176.923076,4644.615384,3984.102565,4018.974358
181,4347.692307,4520.000000,4544.615384,4255.897435,4464.615384,4206.666666,4468.717948,4220.000000,4216.410256,4484.102564,4174.871794,4641.025641,3979.487180,4018.974358
182,4349.230769,4520.000000,4540.000000,4255.384615,4474.358974,4207.692307,4472.820512,4216.410256,4211.794871,4486.153846,4175.384615,4641.025641,3982.051283,4022.051282
183,4347.692307,4518.974358,4538.461538,4256.410256,4465.641025,4200.000000,4470.769230,4211.794871,4209.230769,4489.743589,4163.589743,4639.487179,3978.974359,4018.974358
184,4342.051282,4517.435897,4540.512820,4256.410256,4459.487179,4199.487179,4462.051282,4210.256410,4208.205128,4481.025641,4162.051282,4639.487179,3975.897436,4011.282051
185,4345.641025,4520.512820,4542.564102,4256.410256,4467.179487,4207.179487,4464.615384,4215.897435,4213.333333,4484.102564,4179.487179,4644.102564,3978.974359,4015.384615
186,4345.641025,4516.923076,4536.923076,4251.794871,4456.410256,4199.487179,4464.615384,4212.820512,4213.846153,4488.205128,4176.410256,4640.000000,3977.435898,4019.487179
187,4337.948717,4509.743589,4534.871794,4249.230769,4442.564102,4190.256410,4458.974358,4207.179487,4208.205128,4485.641025,4163.076923,4634.871794,3977.435898,4012.307692
188,4344.102564,4517.948717,4546.666666,4256.923076,4459.487179,4203.076923,4467.179487,4215.897435,4214.871794,4494.358974,4171.282051,4644.615384,3983.589744,4018.974358
189,4348.205128,4523.589743,4550.769230,4260.512820,4470.256410,4212.307692,4477.948717,4222.564102,4221.025641,4491.282051,4172.307692,4649.230769,3976.923077,4027.692307
190,4338.974358,4515.897435,4538.974358,4252.820512,4460.512820,4205.128205,4471.794871,4213.333333,4210.256410,4473.333333,4161.025641,4638.461538,3965.128206,4017.435897
191,4340.000000,4514.358974,4535.897435,4252.820512,4462.564102,4207.179487,4466.666666,4209.230769,4206.153846,4482.051282,4168.717948,4635.897435,3974.871795,4012.307692
192,4345.641025,4518.974358,4541.025641,4260.000000,4470.769230,4210.769230,4470.256410,4213.846153,4214.358974,4501.025641,4176.410256,4641.025641,3988.205129,4020.000000
193,4338.461538,4514.871794,4538.461538,4257.435897,4461.025641,4200.512820,4467.692307,4203.589743,4209.743589,4489.230769,4163.076923,4634.358974,3977.435898,4018.974358
194,4332.307692,4511.794871,4535.384615,4252.307692,4450.256410,4196.923076,4465.641025,4193.333333,4200.000000,4475.897435,4157.435897,4630.256410,3967.692308,4014.871794
195,4337.435897,4515.897435,4538.974358,4253.333333,4453.333333,4206.153846,4472.307692,4206.153846,4207.692307,4485.641025,4172.307692,4635.897435,3977.948718,4017.435897
196,4340.512820,4518.974358,4542.051282,4256.923076,4462.564102,4209.230769,4475.384615,4223.076923,4220.512820,4489.230769,4177.948717,4634.358974,3984.102565,4015.897435
197,4336.410256,4515.897435,4535.384615,4254.871794,4460.000000,4196.923076,4467.692307,4218.974358,4214.871794,4484.102564,4166.153846,4626.153846,3975.384616,4011.794871
198,4332.307692,4504.615384,4528.717948,4245.641025,4449.230769,4188.205128,4463.589743,4207.692307,4205.128205,4482.564102,4156.923076,4621.538461,3966.153847,4009.743589
199,4330.769230,4500.000000,4530.769230,4245.128205,4451.282051,4193.333333,4468.205128,4207.692307,4208.717948,4479.487179,4162.051282,4624.615384,3968.717949,4011.282051
200,4333.333333,4509.230769,4535.897435,4253.846153,4455.384615,4200.000000,4473.333333,4217.435897,4218.461538,4483.589743,4171.282051,4629.230769,3977.948718,4014.358974
201,4339.487179,4514.871794,4539.487179,4254.871794,4454.358974,4204.615384,4480.000000,4224.102564,4224.102564,4496.923076,4174.871794,4636.923076,3980.000000,4018.974358
202,4346.153846,4514.871794,4540.000000,4253.333333,4458.974358,4206.666666,4483.076923,4225.128205,4226.666666,4506.153846,4175.384615,4640.512820,3979.487180,4024.615384
203,4346.153846,4514.358974,4542.051282,4256.923076,4463.076923,4201.025641,4475.897435,4226.153846,4226.153846,4508.205128,4175.384615,4636.410256,3986.153847,4024.615384
204,4346.666666,4518.974358,4546.153846,4261.538461,4461.538461,4195.384615,4472.307692,4222.051282,4220.000000,4499.487179,4176.410256,4633.846153,3994.871795,4027.179487
205,4355.384615,4528.717948,4553.846153,4266.666666,4466.153846,4203.076923,4475.897435,4216.410256,4216.410256,4490.769230,4182.051282,4643.076923,3998.461539,4041.025641
206,4360.000000,4530.769230,4555.897435,4270.256410,4470.769230,4209.230769,4476.410256,4219.487179,4218.974358,4502.051282,4187.692307,4649.743589,3998.461539,4044.615384
207,4349.743589,4517.948717,4546.153846,4262.564102,4462.051282,4198.461538,4471.794871,4223.589743,4216.410256,4510.256410,4182.564102,4640.512820,3992.307693,4030.256410
208,4341.538461,4511.794871,4535.897435,4253.846153,4451.282051,4194.358974,4471.282051,4221.025641,4209.230769,4504.615384,4172.820512,4632.820512,3987.692308,4024.102564
209,4347.179487,4518.974358,4540.000000,4257.948717,4455.384615,4203.076923,4474.358974,4222.564102,4212.820512,4501.025641,4176.410256,4638.974358,3992.307693,4031.794871
210,4344.615384,4514.358974,4539.487179,4257.435897,4458.461538,4200.000000,4469.743589,4221.538461,4213.846153,4483.589743,4178.461538,4634.358974,3988.717949,4029.743589
211,4328.205128,4498.461538,4521.025641,4243.076923,4441.025641,4184.615384,4455.897435,4206.153846,4198.461538,4465.128205,4164.615384,4614.358974,3973.846154,4013.333333
212,4326.153846,4495.384615,4516.410256,4237.435897,4437.948717,4184.615384,4454.871794,4203.076923,4195.897435,4478.974358,4159.487179,4611.282051,3975.384616,4006.666666
213,4341.025641,4507.179487,4533.846153,4247.692307,4455.384615,4197.435897,4470.256410,4218.461538,4210.256410,4496.923076,4168.717948,4627.692307,3987.692308,4017.948717
214,4341.025641,4512.307692,4538.974358,4250.256410,4446.666666,4193.846153,4470.256410,4215.384615,4209.743589,4490.769230,4165.641025,4632.307692,3979.487180,4024.102564
215,4330.256410,4507.692307,4532.307692,4245.641025,4430.769230,4185.641025,4458.461538,4202.564102,4198.461538,4483.589743,4160.512820,4627.179487,3969.743590,4020.512820
216,4337.948717,4510.769230,4537.948717,4252.820512,4451.794871,4195.897435,4463.076923,4209.230769,4205.128205,4489.230769,4172.820512,4635.897435,3984.615385,4029.230769
217,4354.871794,4520.512820,4549.743589,4261.538461,4470.256410,4211.282051,4477.948717,4225.128205,4219.487179,4500.512820,4184.615384,4648.717948,3998.974359,4040.000000
218,4350.769230,4517.948717,4544.615384,4255.384615,4455.897435,4208.205128,4478.974358,4223.589743,4218.461538,4507.179487,4181.025641,4645.641025,3993.333334,4032.820512
219,4330.256410,4501.538461,4531.282051,4239.487179,4443.589743,4189.743589,4465.128205,4210.769230,4206.666666,4492.820512,4170.769230,4634.358974,3983.076924,4019.487179
220,4332.820512,4503.589743,4536.410256,4233.333333,4459.487179,4190.769230,4467.692307,4213.846153,4209.230769,4485.128205,4174.358974,4638.461538,3990.256411,4024.102564
221,4355.384615,4522.564102,4555.897435,4245.641025,4478.461538,4209.743589,4486.153846,4231.794871,4229.230769,4512.307692,4189.230769,4653.333333,4006.153846,4038.461538
222,4358.461538,4526.666666,4555.384615,4254.358974,4469.230769,4213.333333,4485.128205,4234.358974,4232.307692,4528.717948,4193.333333,4652.307692,4001.025641,4037.435897
223,4350.256410,4523.589743,4543.589743,4250.256410,4454.358974,4204.102564,4473.333333,4221.538461,4222.051282,4516.410256,4188.205128,4643.589743,3989.230770,4026.153846
224,4358.461538,4530.256410,4547.179487,4250.256410,4469.743589,4211.282051,4481.538461,4225.128205,4227.179487,4517.435897,4191.282051,4649.743589,4003.589743,4031.794871
225,4368.717948,4536.923076,4557.948717,4258.974358,4485.128205,4218.974358,4490.256410,4237.948717,4236.923076,4528.717948,4199.487179,4662.051282,4022.051282,4047.179487
226,4367.692307,4534.871794,4555.897435,4261.538461,4474.358974,4208.717948,4478.461538,4232.307692,4226.153846,4517.435897,4200.512820,4661.025641,4011.282051,4041.025641
227,4371.794871,4535.897435,4553.333333,4262.051282,4473.846153,4203.076923,4471.282051,4221.025641,4214.871794,4498.461538,4191.794871,4654.871794,3996.923077,4032.820512
228,4379.487179,4543.589743,4557.948717,4269.230769,4488.205128,4210.769230,4480.000000,4223.589743,4220.000000,4498.974358,4192.307692,4659.487179,4005.128205,4045.128205
229,4377.435897,4545.641025,4557.948717,4266.153846,4487.692307,4214.358974,4485.128205,4226.153846,4223.589743,4515.384615,4202.051282,4663.589743,4012.820512,4051.794871
230,4374.358974,4541.025641,4554.358974,4256.923076,4476.923076,4210.769230,4482.051282,4223.589743,4221.538461,4527.692307,4201.538461,4657.948717,4009.230769,4045.128205
231,4373.846153,4541.025641,4555.897435,4263.076923,4472.820512,4206.153846,4476.410256,4225.641025,4223.589743,4523.076923,4195.897435,4655.384615,4007.692307,4046.666666
232,4375.897435,4543.076923,4558.974358,4269.743589,4475.897435,4204.615384,4472.307692,4231.282051,4230.256410,4520.512820,4204.615384,4662.564102,4008.717948,4049.230769
233,4381.538461,4543.589743,4557.948717,4264.102564,4480.512820,4207.179487,4478.461538,4239.487179,4240.512820,4533.333333,4216.410256,4669.230769,4015.897435,4050.256410
234,4378.974358,4539.487179,4554.871794,4258.974358,4472.820512,4208.717948,4483.076923,4241.538461,4241.025641,4532.820512,4211.794871,4662.051282,4024.102564,4051.794871
235,4368.205128,4528.205128,4551.794871,4254.871794,4464.615384,4203.076923,4478.974358,4235.384615,4227.179487,4520.512820,4196.410256,4650.769230,4011.794871,4045.641025
236,4368.717948,4528.717948,4550.256410,4253.333333,4477.948717,4202.564102,4481.025641,4236.923076,4228.205128,4526.153846,4196.410256,4654.871794,4000.000000,4045.641025
237,4380.512820,4542.564102,4554.871794,4260.512820,4489.743589,4211.282051,4488.717948,4244.615384,4242.051282,4535.384615,4210.256410,4667.179487,4015.384615,4055.384615
238,4381.025641,4539.487179,4556.923076,4261.025641,4476.410256,4211.794871,4483.076923,4234.358974,4232.307692,4522.051282,4214.358974,4669.743589,4021.538461,4051.794871
239,4373.333333,4529.230769,4552.307692,4253.333333,4461.025641,4197.948717,4469.743589,4218.974358,4215.384615,4504.615384,4206.153846,4665.128205,4011.282051,4043.589743
240,4377.435897,4534.871794,4551.282051,4258.461538,4471.794871,4196.410256,4469.230769,4228.717948,4224.615384,4515.897435,4208.205128,4668.205128,4015.897435,4053.846153
241,4379.487179,4534.871794,4555.897435,4258.974358,4485.128205,4203.076923,4475.384615,4238.461538,4234.358974,4535.384615,4213.846153,4668.717948,4021.538461,4060.512820
242,4365.128205,4516.410256,4549.743589,4244.102564,4470.769230,4197.948717,4471.282051,4230.256410,4226.153846,4527.692307,4204.102564,4655.384615,4002.564102,4042.564102
243,4356.410256,4512.307692,4536.410256,4244.102564,4455.897435,4189.230769,4462.564102,4224.102564,4221.025641,4514.871794,4190.256410,4640.512820,3991.282052,4023.589743
244,4366.153846,4528.717948,4539.487179,4256.410256,4463.589743,4191.794871,4462.051282,4219.487179,4217.948717,4515.897435,4188.717948,4640.000000,3996.410257,4026.153846
245,4373.333333,4540.512820,4549.230769,4258.974358,4473.333333,4197.948717,4466.153846,4209.743589,4209.230769,4511.794871,4193.846153,4647.692307,3994.358975,4038.974358
246,4372.820512,4536.923076,4547.179487,4258.461538,4472.307692,4197.435897,4463.589743,4206.153846,4206.666666,4507.692307,4196.410256,4651.282051,3993.846154,4044.102564
247,4373.333333,4532.820512,4545.641025,4257.948717,4465.641025,4193.846153,4458.461538,4207.692307,4210.769230,4510.256410,4196.410256,4652.820512,4001.538461,4042.564102
248,4376.410256,4537.948717,4553.333333,4254.871794,4464.102564,4196.923076,4463.076923,4210.769230,4213.846153,4506.153846,4196.923076,4655.897435,4002.051282,4043.589743
249,4381.538461,4544.615384,4563.076923,4263.589743,4477.435897,4210.769230,4473.333333,4224.102564,4228.205128,4513.333333,4202.051282,4664.102564,4001.025641,4049.230769
250,4380.512820,4540.000000,4561.025641,4271.794871,4486.153846,4217.435897,4482.051282,4236.410256,4240.512820,4528.205128,4203.589743,4668.205128,4005.128205,4051.282051
251,4368.205128,4528.717948,4546.666666,4257.435897,4471.282051,4208.717948,4478.974358,4227.179487,4231.282051,4520.000000,4197.435897,4657.948717,4000.000000,4043.589743
252,4364.102564,4525.641025,4541.538461,4247.179487,4466.666666,4203.076923,4471.282051,4215.384615,4220.512820,4510.769230,4196.410256,4648.205128,3993.333334,4040.000000
253,4373.846153,4532.307692,4553.333333,4255.897435,4478.461538,4208.717948,4475.384615,4216.923076,4222.564102,4516.923076,4204.102564,4657.948717,3996.410257,4049.230769
254,4378.461538,4534.871794,4558.974358,4261.538461,4471.794871,4205.641025,4477.948717,4221.025641,4224.102564,4510.769230,4200.512820,4668.205128,3997.948718,4051.794871
255,4374.358974,4530.769230,4553.333333,4259.487179,4458.974358,4196.923076,4467.179487,4220.000000,4221.538461,4502.564102,4193.846153,4665.128205,3996.923077,4046.153846
256,4376.410256,4529.230769,4555.384615,4261.025641,4465.128205,4199.487179,4463.076923,4223.589743,4226.666666,4516.410256,4204.102564,4665.128205,4002.051282,4051.282051
257,4385.641025,4534.871794,4560.512820,4266.153846,4473.333333,4209.743589,4471.794871,4229.230769,4231.282051,4524.102564,4211.794871,4668.205128,4004.102564,4060.000000
258,4382.564102,4534.871794,4557.435897,4264.615384,4471.282051,4207.692307,4471.794871,4226.666666,4228.205128,4505.641025,4203.076923,4660.512820,3996.923077,4055.897435
259,4371.794871,4529.230769,4553.333333,4254.358974,4468.717948,4202.564102,4468.205128,4224.102564,4226.153846,4496.410256,4194.358974,4652.307692,3993.333334,4044.615384
