,AF3,F7,F3,FC5,T7,P7,O1,O2,P8,T8,FC6,F4,F8,AF4
0,4292.307692,4535.384615,4540.000000,4264.102564,4452.820512,4263.589743,4454.871794,4171.282051,4251.794871,4530.256410,4219.487179,4652.307692,4011.282051,4046.666666
1,4261.538461,4535.897435,4541.538461,4261.538461,4453.846153,4261.025641,4452.307692,4166.666666,4244.615384,4532.307692,4216.923076,4654.358974,4004.102564,4040.512820
2,4344.102564,4532.307692,4536.410256,4260.512820,4455.384615,4257.435897,4451.794871,4159.487179,4240.512820,4523.076923,4207.179487,4648.205128,3990.256411,4034.871794
3,4413.333333,4531.794871,4536.923076,4265.641025,4454.358974,4256.410256,4444.615384,4152.820512,4234.358974,4511.794871,4200.512820,4640.000000,3986.153847,4033.846153
4,4405.641025,4534.358974,4541.538461,4271.282051,4452.820512,4258.461538,4440.000000,4151.794871,4230.769230,4512.820512,4205.641025,4643.076923,3986.666667,4035.897435
5,4386.666666,4531.794871,4540.000000,4269.230769,4450.769230,4259.487179,4445.128205,4158.974358,4235.897435,4520.512820,4215.384615,4650.769230,3989.230770,4039.487179
6,4350.769230,4530.769230,4541.025641,4263.076923,4450.769230,4257.948717,4450.256410,4165.641025,4242.564102,4528.717948,4216.923076,4653.846153,3992.820513,4040.000000
7,4269.230769,4538.974358,4548.717948,4263.076923,4455.384615,4260.512820,4447.179487,4168.205128,4246.153846,4532.820512,4210.256410,4654.358974,3995.897436,4041.025641
8,4245.641025,4543.076923,4547.692307,4268.717948,4457.435897,4263.076923,4446.666666,4167.692307,4246.153846,4527.692307,4206.153846,4654.358974,4003.076923,4044.615384
9,4344.615384,4535.384615,4540.000000,4265.641025,4454.871794,4258.461538,4446.666666,4168.205128,4244.102564,4524.102564,4211.794871,4652.307692,4004.102564,4043.076923
10,4407.692307,4531.282051,4538.461538,4263.589743,4454.871794,4255.897435,4444.102564,4168.205128,4246.153846,4526.153846,4219.487179,4650.256410,3994.358975,4036.410256
11,4333.846153,4535.384615,4542.051282,4269.743589,4455.897435,4259.487179,4449.230769,4168.205128,4249.230769,4525.641025,4218.461538,4651.794871,3987.692308,4035.384615
12,4291.282051,4540.000000,4548.717948,4270.256410,4459.487179,4267.179487,4456.410256,4170.256410,4244.102564,4526.666666,4214.358974,4656.923076,3987.692308,4041.025641
13,4396.410256,4544.102564,4550.769230,4271.794871,4467.692307,4271.282051,4460.512820,4170.256410,4240.512820,4524.615384,4217.435897,4658.461538,3996.410257,4046.666666
14,4500.000000,4548.717948,4548.717948,4283.589743,4471.282051,4272.307692,4461.025641,4169.743589,4247.179487,4522.051282,4215.384615,4653.333333,4007.692307,4049.743589
15,4492.820512,4547.692307,4547.179487,4284.102564,4464.615384,4268.717948,4455.897435,4171.282051,4245.128205,4525.128205,4210.769230,4650.256410,4003.076923,4046.153846
16,4455.897435,4540.000000,4544.102564,4268.205128,4456.410256,4263.589743,4446.153846,4168.717948,4231.794871,4523.076923,4212.820512,4649.230769,3988.205129,4037.435897
17,4431.282051,4537.948717,4537.435897,4261.538461,4459.487179,4264.615384,4441.025641,4157.948717,4228.205128,4513.846153,4210.256410,4641.025641,3980.512821,4029.743589
18,4366.153846,4536.923076,4528.717948,4264.615384,4462.564102,4266.153846,4444.102564,4156.410256,4237.435897,4513.846153,4198.461538,4632.307692,3981.538462,4029.230769
19,4282.051282,4535.897435,4527.692307,4263.589743,4459.487179,4263.589743,4444.102564,4165.128205,4242.051282,4517.435897,4197.948717,4634.871794,3988.717949,4033.846153
20,4283.589743,4539.487179,4532.307692,4264.615384,4460.512820,4264.102564,4441.025641,4168.717948,4240.512820,4515.897435,4205.641025,4641.025641,3995.384616,4037.435897
21,4367.692307,4536.410256,4531.282051,4266.666666,4462.564102,4264.102564,4444.102564,4168.205128,4239.487179,4514.871794,4203.076923,4641.538461,3989.743590,4034.358974
22,4410.769230,4527.179487,4527.692307,4258.461538,4456.410256,4255.897435,4445.641025,4167.179487,4235.897435,4513.333333,4198.974358,4638.461538,3982.051283,4025.128205
23,4389.743589,4524.615384,4527.179487,4250.256410,4452.307692,4252.820512,4441.025641,4163.589743,4231.282051,4507.692307,4196.410256,4635.384615,3981.025642,4018.974358
24,4372.307692,4524.615384,4528.205128,4256.923076,4455.897435,4255.897435,4437.435897,4157.948717,4227.692307,4503.076923,4187.692307,4630.769230,3975.384616,4021.025641
25,4338.461538,4523.076923,4532.820512,4265.128205,4455.897435,4253.846153,4440.000000,4160.000000,4231.794871,4507.179487,4191.282051,4634.358974,3983.589744,4028.205128
26,4268.205128,4526.666666,4543.076923,4266.153846,4453.846153,4254.871794,4443.589743,4163.076923,4240.512820,4514.871794,4212.307692,4645.641025,4001.025641,4035.384615
27,4255.897435,4535.384615,4542.564102,4267.692307,4457.948717,4260.000000,4443.589743,4161.538461,4245.128205,4521.025641,4221.025641,4650.256410,3996.923077,4035.897435
28,4319.487179,4541.538461,4537.435897,4269.743589,4462.051282,4259.487179,4444.102564,4163.589743,4246.153846,4522.051282,4206.153846,4646.153846,3988.717949,4030.769230
29,4370.256410,4540.000000,4539.487179,4263.589743,4461.538461,4260.512820,4445.641025,4167.692307,4246.153846,4520.000000,4196.410256,4643.076923,3993.333334,4027.179487
30,4395.897435,4530.256410,4538.461538,4261.025641,4460.000000,4265.128205,4446.153846,4170.256410,4246.666666,4525.641025,4206.153846,4642.051282,3994.871795,4027.692307
31,4416.923076,4526.666666,4536.923076,4262.564102,4457.948717,4262.051282,4445.641025,4169.230769,4245.641025,4527.692307,4216.923076,4645.128205,3994.358975,4028.717948
32,4375.897435,4533.846153,4542.051282,4260.512820,4458.461538,4260.000000,4446.153846,4169.743589,4247.179487,4522.564102,4217.435897,4650.256410,4002.564102,4033.333333
33,4291.282051,4541.025641,4548.717948,4268.205128,4463.589743,4264.102564,4446.153846,4169.230769,4248.717948,4521.025641,4216.923076,4650.256410,4006.153846,4038.461538
34,4303.076923,4545.641025,4547.179487,4277.948717,4464.102564,4264.102564,4447.692307,4168.205128,4245.128205,4522.051282,4216.923076,4648.205128,4004.615384,4036.410256
35,4403.589743,4545.128205,4539.487179,4271.794871,4460.000000,4263.076923,4451.794871,4168.717948,4243.076923,4520.512820,4208.205128,4645.128205,4004.615384,4029.743589
36,4449.743589,4539.487179,4536.410256,4269.230769,4463.589743,4267.179487,4456.923076,4167.692307,4248.717948,4521.538461,4205.641025,4643.076923,4004.615384,4029.743589
37,4428.205128,4538.974358,4544.615384,4279.487179,4468.717948,4270.769230,4460.512820,4176.923076,4253.333333,4525.128205,4221.025641,4649.230769,4004.615384,4036.410256
38,4421.538461,4542.051282,4550.769230,4277.948717,4463.589743,4269.230769,4460.000000,4185.641025,4250.769230,4523.589743,4228.205128,4652.307692,4005.128205,4036.923076
39,4409.743589,4538.974358,4546.666666,4267.692307,4458.461538,4266.666666,4457.948717,4184.102564,4254.358974,4523.076923,4217.435897,4649.230769,4006.666666,4033.333333
40,4341.025641,4536.410256,4547.692307,4265.641025,4459.487179,4267.692307,4463.076923,4182.564102,4258.974358,4527.179487,4213.333333,4649.230769,4007.179487,4033.333333
41,4264.102564,4542.051282,4551.794871,4272.307692,4465.128205,4273.846153,4469.230769,4186.666666,4254.871794,4528.717948,4219.487179,4653.333333,4004.615384,4037.435897
42,4260.512820,4538.974358,4549.743589,4278.974358,4468.205128,4275.384615,4465.641025,4183.076923,4246.153846,4521.538461,4213.846153,4651.282051,3998.461539,4034.871794
43,4328.205128,4528.717948,4543.589743,4274.358974,4465.128205,4272.307692,4458.461538,4170.769230,4241.025641,4509.230769,4199.487179,4646.153846,3992.820513,4024.615384
44,4349.743589,4529.743589,4540.512820,4263.589743,4461.025641,4270.769230,4456.410256,4166.153846,4236.410256,4502.051282,4201.538461,4645.128205,3991.794872,4017.948717
45,4280.000000,4538.974358,4542.051282,4260.000000,4459.487179,4267.179487,4456.410256,4167.179487,4232.820512,4502.051282,4212.820512,4644.615384,3993.846154,4018.974358
46,4264.102564,4539.487179,4549.743589,4270.769230,4461.025641,4268.205128,4453.333333,4171.794871,4242.051282,4516.923076,4213.846153,4648.717948,3995.897436,4024.615384
47,4372.307692,4536.923076,4553.333333,4278.974358,4467.692307,4275.384615,4450.769230,4179.487179,4253.333333,4530.769230,4213.846153,4656.923076,3997.948718,4028.717948
48,4469.743589,4540.512820,4550.256410,4274.871794,4470.769230,4276.410256,4453.846153,4185.128205,4254.871794,4529.230769,4216.923076,4658.461538,4000.512820,4028.717948
49,4472.307692,4537.948717,4551.794871,4269.743589,4465.128205,4271.794871,4456.410256,4184.615384,4256.923076,4528.717948,4218.974358,4655.897435,4004.102564,4027.179487
50,4451.282051,4536.410256,4556.923076,4277.435897,4467.179487,4276.410256,4462.051282,4185.641025,4262.564102,4531.794871,4226.153846,4661.538461,4014.871794,4032.820512
51,4448.205128,4548.205128,4558.461538,4284.102564,4473.333333,4281.538461,4467.179487,4193.846153,4268.205128,4534.358974,4234.871794,4671.282051,4023.076923,4043.589743
52,4430.769230,4553.846153,4557.435897,4279.487179,4472.820512,4277.948717,4464.615384,4200.512820,4271.794871,4544.615384,4233.333333,4671.794871,4018.974358,4045.641025
53,4386.153846,4551.794871,4558.974358,4280.000000,4472.820512,4278.461538,4465.128205,4200.000000,4272.307692,4549.230769,4232.307692,4671.794871,4017.948717,4044.102564
54,4306.153846,4556.410256,4559.487179,4288.717948,4477.435897,4282.564102,4471.794871,4198.461538,4269.230769,4541.025641,4236.410256,4671.794871,4024.102564,4044.615384
55,4253.333333,4556.410256,4557.948717,4285.128205,4476.923076,4282.564102,4469.230769,4196.923076,4266.153846,4533.846153,4230.256410,4664.102564,4022.564102,4041.538461
56,4298.461538,4542.051282,4551.794871,4271.282051,4472.307692,4277.948717,4460.000000,4189.230769,4256.923076,4528.717948,4216.923076,4653.846153,4014.358974,4036.410256
57,4345.128205,4533.846153,4543.076923,4267.692307,4470.256410,4271.282051,4457.948717,4180.512820,4246.153846,4524.615384,4209.743589,4648.717948,4005.128205,4032.307692
58,4337.948717,4538.461538,4540.000000,4272.820512,4470.256410,4268.205128,4462.051282,4182.564102,4248.205128,4526.666666,4215.384615,4649.230769,3993.846154,4028.717948
59,4375.384615,4540.000000,4542.564102,4275.384615,4468.205128,4272.820512,4470.256410,4191.794871,4255.384615,4532.307692,4227.179487,4651.794871,3996.410257,4031.794871
60,4450.256410,4537.435897,4547.179487,4273.333333,4471.794871,4278.461538,4476.923076,4201.538461,4262.564102,4537.435897,4225.128205,4657.435897,4009.743589,4036.410256
61,4462.564102,4538.461538,4547.692307,4268.205128,4475.897435,4280.000000,4474.358974,4203.589743,4266.153846,4535.384615,4214.358974,4655.384615,4012.307692,4035.384615
62,4406.153846,4540.512820,4546.666666,4270.769230,4474.358974,4281.025641,4473.846153,4200.000000,4265.128205,4527.692307,4212.820512,4651.794871,4009.743589,4038.461538
63,4324.615384,4536.923076,4545.641025,4277.435897,4474.871794,4284.102564,4476.410256,4203.076923,4267.692307,4527.692307,4219.487179,4655.897435,4005.641025,4045.128205
64,4295.384615,4533.846153,4541.025641,4274.871794,4476.923076,4282.564102,4475.897435,4202.051282,4267.692307,4533.333333,4218.974358,4654.358974,3997.435898,4038.974358
65,4376.410256,4531.282051,4538.974358,4267.179487,4473.333333,4276.923076,4474.871794,4190.256410,4262.564102,4529.743589,4217.435897,4648.717948,3999.487180,4033.333333
66,4456.410256,4529.743589,4544.615384,4268.205128,4472.307692,4277.435897,4473.846153,4185.641025,4263.076923,4528.717948,4221.538461,4654.358974,4009.743589,4041.538461
67,4446.666666,4536.410256,4546.153846,4267.692307,4474.358974,4280.000000,4474.871794,4186.153846,4264.615384,4530.769230,4220.512820,4658.974358,4007.179487,4045.641025
68,4426.153846,4540.000000,4544.615384,4265.641025,4469.230769,4273.846153,4476.923076,4175.897435,4257.948717,4525.128205,4216.923076,4654.358974,4001.538461,4045.128205
69,4421.025641,4532.307692,4546.153846,4267.179487,4461.025641,4266.153846,4470.769230,4166.153846,4254.871794,4521.025641,4216.923076,4652.820512,3999.487180,4045.128205
70,4371.282051,4526.153846,4544.615384,4264.102564,4458.461538,4266.153846,4462.564102,4164.615384,4252.307692,4523.589743,4217.435897,4655.384615,3998.461539,4040.000000
71,4281.538461,4525.641025,4540.000000,4261.025641,4460.512820,4268.205128,4462.051282,4158.974358,4247.692307,4527.179487,4215.384615,4655.897435,4005.641025,4039.487179
72,4253.333333,4527.179487,4544.102564,4267.179487,4462.051282,4267.179487,4461.538461,4152.307692,4252.307692,4528.205128,4212.307692,4653.846153,4007.179487,4041.538461
73,4328.205128,4534.871794,4549.743589,4271.794871,4461.025641,4265.641025,4462.051282,4152.820512,4255.384615,4526.666666,4215.384615,4654.358974,4000.000000,4040.000000
74,4369.743589,4541.538461,4551.282051,4268.205128,4462.051282,4271.282051,4466.666666,4155.384615,4256.410256,4529.743589,4223.589743,4658.461538,4007.692307,4041.538461
75,4317.435897,4538.461538,4552.307692,4265.128205,4464.102564,4275.897435,4466.153846,4152.820512,4256.923076,4534.871794,4221.025641,4656.410256,4013.333333,4047.179487
76,4330.256410,4535.384615,4552.820512,4268.717948,4462.564102,4273.333333,4463.076923,4145.128205,4252.307692,4531.282051,4213.846153,4650.256410,4002.051282,4046.153846
77,4437.948717,4537.435897,4550.256410,4273.333333,4467.692307,4273.846153,4464.102564,4139.487179,4250.769230,4523.076923,4222.051282,4651.282051,4004.102564,4042.051282
78,4477.948717,4537.435897,4547.179487,4272.820512,4472.820512,4280.000000,4465.641025,4133.333333,4254.358974,4530.769230,4226.153846,4652.820512,4014.358974,4041.538461
79,4440.000000,4536.410256,4545.128205,4265.128205,4470.256410,4281.538461,4465.641025,4120.000000,4258.461538,4543.076923,4216.923076,4651.794871,4013.846153,4045.128205
80,4432.307692,4538.461538,4547.692307,4261.538461,4469.230769,4278.461538,4467.179487,4109.743589,4261.025641,4537.435897,4220.000000,4654.871794,4014.871794,4052.307692
81,4422.051282,4534.871794,4548.717948,4265.641025,4468.717948,4275.384615,4464.102564,4103.076923,4258.461538,4527.692307,4226.666666,4652.307692,4014.358974,4048.205128
82,4353.846153,4527.692307,4543.076923,4263.076923,4463.589743,4272.820512,4461.025641,4086.666666,4247.692307,4522.051282,4221.025641,4644.615384,4003.076923,4035.897435
83,4284.102564,4526.666666,4541.025641,4258.974358,4460.512820,4272.820512,4460.512820,4071.794871,4240.512820,4516.923076,4211.282051,4643.589743,4001.538461,4033.846153
84,4234.871794,4532.820512,4544.102564,4263.589743,4461.025641,4270.256410,4458.461538,4071.282051,4238.461538,4516.923076,4210.256410,4645.641025,4006.666666,4037.435897
85,4192.820512,4536.923076,4542.564102,4263.076923,4458.974358,4264.102564,4458.974358,4071.282051,4237.948717,4518.974358,4213.333333,4645.641025,4001.538461,4035.897435
86,4227.179487,4533.846153,4544.102564,4262.051282,4460.000000,4265.128205,4461.025641,4067.692307,4246.666666,4522.564102,4211.794871,4647.179487,3998.974359,4035.897435
87,4307.179487,4532.307692,4550.256410,4268.717948,4462.051282,4272.307692,4460.000000,4061.025641,4250.769230,4523.076923,4205.641025,4648.205128,3998.974359,4037.435897
88,4296.923076,4530.769230,4548.205128,4264.102564,4457.435897,4273.333333,4455.384615,4050.256410,4238.461538,4515.384615,4204.102564,4645.128205,3995.384616,4034.871794
89,4284.102564,4529.743589,4544.102564,4254.871794,4456.410256,4274.871794,4455.384615,4048.205128,4234.871794,4516.410256,4214.358974,4649.230769,4000.512820,4037.948717
90,4391.282051,4543.076923,4558.461538,4269.230769,4467.179487,4281.025641,4464.102564,4062.564102,4254.358974,4534.358974,4226.153846,4666.153846,4021.538461,4054.871794
91,4469.743589,4554.871794,4566.153846,4281.025641,4472.307692,4283.076923,4465.128205,4061.538461,4257.948717,4534.871794,4226.153846,4673.846153,4030.256410,4063.076923
92,4431.282051,4546.153846,4554.871794,4272.307692,4462.051282,4277.948717,4456.923076,4041.025641,4235.897435,4514.871794,4216.410256,4656.923076,4009.743589,4052.820512
93,4403.076923,4540.000000,4553.333333,4272.307692,4463.076923,4276.923076,4456.410256,4038.461538,4231.282051,4516.923076,4213.846153,4647.692307,3995.897436,4047.179487
94,4393.333333,4552.820512,4562.051282,4281.025641,4475.897435,4280.512820,4460.512820,4045.641025,4242.564102,4527.692307,4219.487179,4656.410256,4009.743589,4052.820512
95,4328.717948,4555.897435,4560.000000,4278.461538,4476.410256,4279.487179,4457.948717,4037.435897,4240.000000,4528.205128,4222.564102,4658.974358,4025.641025,4055.897435
96,4259.487179,4551.282051,4558.974358,4276.923076,4470.769230,4278.974358,4457.948717,4031.282051,4243.589743,4530.769230,4227.179487,4658.974358,4024.615384,4058.974358
97,4251.282051,4556.410256,4567.692307,4282.051282,4476.923076,4283.589743,4462.564102,4037.435897,4254.358974,4534.871794,4231.282051,4665.641025,4020.512820,4062.051282
98,4299.487179,4557.948717,4563.589743,4276.410256,4477.948717,4284.102564,4463.589743,4038.461538,4250.256410,4533.333333,4230.769230,4664.615384,4018.974358,4061.025641
99,4368.717948,4550.256410,4550.256410,4267.179487,4472.307692,4282.051282,4463.589743,4033.846153,4245.641025,4531.794871,4228.717948,4657.948717,4022.051282,4058.461538
100,4375.384615,4548.717948,4552.307692,4270.769230,4474.358974,4280.000000,4463.076923,4031.794871,4249.230769,4529.743589,4218.461538,4656.410256,4026.153846,4052.820512
101,4296.410256,4551.794871,4560.000000,4277.948717,4472.307692,4280.512820,4461.025641,4030.256410,4247.692307,4534.871794,4212.307692,4656.923076,4023.076923,4051.282051
102,4272.820512,4547.179487,4555.897435,4274.358974,4465.641025,4281.025641,4462.564102,4031.794871,4247.179487,4544.102564,4226.666666,4656.410256,4018.461538,4056.923076
103,4363.589743,4540.512820,4547.179487,4263.076923,4462.051282,4277.948717,4462.564102,4029.743589,4247.692307,4533.846153,4232.307692,4655.384615,4012.307692,4052.820512
104,4428.205128,4540.000000,4548.205128,4261.025641,4459.487179,4276.410256,4458.974358,4021.025641,4242.051282,4518.461538,4214.871794,4648.717948,4005.641025,4043.589743
105,4415.897435,4538.461538,4550.769230,4266.666666,4466.153846,4278.974358,4460.000000,4016.923076,4241.538461,4522.051282,4208.717948,4644.615384,4007.179487,4045.128205
106,4402.051282,4536.410256,4545.128205,4266.666666,4474.871794,4283.076923,4461.538461,4016.923076,4245.128205,4527.179487,4217.435897,4645.128205,4010.256410,4044.615384
107,4362.564102,4540.512820,4545.641025,4264.615384,4469.230769,4283.076923,4459.487179,4015.384615,4246.153846,4523.076923,4217.435897,4648.205128,4006.666666,4038.461538
108,4291.282051,4544.102564,4556.410256,4268.717948,4461.538461,4281.538461,4460.512820,4018.461538,4248.205128,4525.641025,4214.871794,4655.384615,4006.666666,4041.025641
109,4285.128205,4543.076923,4558.461538,4262.051282,4463.076923,4280.512820,4461.538461,4018.974358,4243.076923,4524.615384,4213.846153,4654.358974,4009.743589,4046.666666
110,4321.538461,4537.948717,4552.307692,4254.871794,4463.589743,4278.461538,4457.435897,4008.205128,4231.794871,4513.846153,4209.743589,4646.153846,4004.615384,4043.589743
111,4348.205128,4536.410256,4556.410256,4265.641025,4461.025641,4279.487179,4457.948717,4004.615384,4235.897435,4517.435897,4217.948717,4650.256410,4005.641025,4043.076923
112,4392.820512,4547.692307,4565.641025,4275.897435,4463.076923,4282.564102,4461.538461,4017.948717,4250.769230,4529.230769,4231.282051,4662.051282,4016.410256,4046.666666
113,4393.846153,4557.948717,4564.102564,4272.307692,4469.230769,4282.564102,4458.974358,4021.025641,4253.846153,4533.333333,4231.794871,4663.589743,4013.846153,4050.769230
114,4327.692307,4551.794871,4555.897435,4270.769230,4470.769230,4278.974358,4455.384615,4009.743589,4248.717948,4535.384615,4225.641025,4657.948717,4002.051282,4053.333333
115,4345.128205,4544.102564,4554.358974,4268.205128,4464.102564,4277.435897,4453.333333,4006.153846,4249.230769,4531.794871,4222.051282,4656.923076,4003.589743,4048.205128
116,4451.282051,4544.615384,4554.871794,4260.000000,4458.461538,4275.384615,4446.153846,4002.051282,4244.615384,4523.076923,4214.871794,4653.846153,4008.205128,4040.000000
117,4489.230769,4540.000000,4550.769230,4262.051282,4461.025641,4273.333333,4440.512820,3991.282052,4235.897435,4521.538461,4213.333333,4649.743589,4005.128205,4041.025641
118,4464.102564,4541.538461,4551.282051,4271.794871,4467.692307,4280.000000,4445.128205,3993.846154,4240.512820,4523.076923,4225.128205,4651.282051,4004.102564,4048.717948
119,4456.410256,4551.794871,4554.871794,4271.794871,4469.743589,4281.538461,4448.205128,4000.512820,4244.102564,4520.000000,4226.153846,4652.307692,4007.179487,4047.692307
120,4445.128205,4549.230769,4548.717948,4265.128205,4464.102564,4271.282051,4442.564102,3992.307693,4238.461538,4521.025641,4217.948717,4649.230769,4007.179487,4042.564102
121,4404.102564,4540.512820,4538.461538,4258.974358,4454.871794,4265.128205,4438.974358,3987.179488,4237.435897,4522.564102,4216.923076,4645.641025,4002.564102,4041.538461
122,4345.641025,4548.717948,4540.512820,4260.512820,4456.410256,4270.769230,4447.179487,3997.948718,4241.538461,4521.025641,4220.000000,4648.205128,4004.102564,4043.076923
123,4274.358974,4558.461538,4547.692307,4269.743589,4468.717948,4279.487179,4455.897435,4009.743589,4244.102564,4527.692307,4225.128205,4654.871794,4015.384615,4048.717948
124,4218.461538,4555.384615,4543.589743,4274.871794,4471.794871,4283.589743,4453.846153,4010.769230,4249.743589,4537.435897,4230.769230,4656.410256,4027.692307,4052.820512
125,4247.692307,4552.820512,4536.923076,4269.230769,4468.205128,4282.051282,4452.307692,4008.205128,4254.871794,4541.538461,4232.820512,4652.820512,4030.256410,4052.307692
126,4315.384615,4553.846153,4537.948717,4268.205128,4469.230769,4282.051282,4457.435897,4008.717948,4249.230769,4539.487179,4228.205128,4652.307692,4024.102564,4048.717948
127,4313.846153,4555.384615,4537.948717,4270.769230,4476.923076,4284.102564,4460.000000,4010.769230,4244.102564,4529.230769,4222.564102,4653.333333,4011.282051,4042.564102
128,4317.435897,4551.794871,4535.897435,4263.076923,4477.435897,4285.641025,4458.461538,4013.333333,4252.820512,4525.641025,4225.128205,4651.282051,4002.051282,4038.974358
129,4406.666666,4552.820512,4537.948717,4262.051282,4474.871794,4286.666666,4458.974358,4015.897435,4260.512820,4532.820512,4227.179487,4653.333333,4004.615384,4041.538461
130,4459.487179,4556.923076,4539.487179,4271.282051,4476.410256,4286.666666,4458.461538,4016.923076,4256.410256,4538.461538,4220.000000,4659.487179,4017.435897,4049.743589
131,4424.615384,4545.128205,4540.512820,4268.205128,4473.846153,4281.538461,4456.923076,4015.897435,4254.358974,4536.410256,4217.948717,4661.538461,4029.230769,4051.282051
132,4400.000000,4535.897435,4538.974358,4261.538461,4470.256410,4278.461538,4457.435897,4012.307692,4254.871794,4530.769230,4227.692307,4658.974358,4021.538461,4044.102564
133,4363.589743,4548.205128,4538.461538,4263.589743,4471.794871,4279.487179,4450.769230,4005.128205,4245.641025,4522.051282,4225.128205,4656.410256,4006.666666,4038.974358
134,4271.794871,4559.487179,4541.538461,4266.153846,4470.769230,4277.948717,4447.179487,4002.564102,4240.512820,4516.410256,4214.871794,4656.923076,4010.256410,4044.102564
135,4247.179487,4553.333333,4544.102564,4271.282051,4463.589743,4277.435897,4452.307692,4005.641025,4242.564102,4522.564102,4218.974358,4656.923076,4017.435897,4047.179487
136,4313.846153,4552.820512,4541.025641,4275.384615,4458.974358,4278.974358,4451.282051,4002.051282,4233.333333,4524.615384,4216.923076,4652.820512,4005.128205,4042.564102
137,4340.000000,4550.769230,4536.410256,4270.256410,4461.025641,4277.435897,4450.256410,3996.410257,4228.717948,4513.846153,4203.589743,4650.769230,3991.282052,4036.923076
138,4347.179487,4542.051282,4536.923076,4265.641025,4461.538461,4275.384615,4450.769230,3997.948718,4235.897435,4511.282051,4201.025641,4654.871794,4001.025641,4036.410256
139,4422.051282,4544.102564,4540.512820,4264.102564,4458.461538,4276.410256,4447.692307,4000.000000,4233.846153,4518.974358,4212.307692,4655.384615,4013.333333,4041.538461
140,4468.205128,4548.717948,4541.025641,4261.538461,4458.461538,4278.974358,4450.769230,3999.487180,4230.256410,4514.871794,4217.948717,4654.358974,4009.743589,4041.538461
141,4428.717948,4548.205128,4538.461538,4262.564102,4466.666666,4279.487179,4457.435897,4001.538461,4237.948717,4508.717948,4210.256410,4655.384615,4005.128205,4038.974358
142,4402.051282,4549.230769,4536.923076,4264.102564,4469.743589,4278.974358,4452.307692,4006.666666,4245.641025,4521.538461,4209.230769,4654.358974,4007.179487,4040.512820
143,4376.410256,4552.307692,4539.487179,4261.025641,4462.564102,4277.435897,4444.615384,4007.179487,4247.692307,4529.743589,4217.948717,4652.820512,4008.717948,4046.666666
144,4302.564102,4553.846153,4540.512820,4260.000000,4465.128205,4277.435897,4446.666666,4004.102564,4247.179487,4521.538461,4217.948717,4656.410256,4009.743589,4050.769230
145,4260.512820,4553.846153,4538.461538,4265.128205,4476.410256,4278.974358,4444.615384,4002.564102,4241.538461,4520.512820,4209.230769,4657.435897,4010.256410,4046.666666
146,4284.615384,4551.794871,4534.871794,4265.641025,4475.897435,4279.487179,4440.512820,4000.512820,4237.435897,4524.615384,4205.128205,4649.743589,4003.589743,4039.487179
147,4347.179487,4550.256410,4533.846153,4263.589743,4470.769230,4279.487179,4447.179487,4000.512820,4238.974358,4518.974358,4207.692307,4646.666666,4000.000000,4040.512820
148,4407.179487,4554.871794,4537.435897,4265.128205,4473.846153,4280.000000,4457.435897,4007.179487,4240.512820,4514.871794,4212.820512,4653.333333,4001.025641,4046.666666
149,4374.358974,4556.410256,4539.487179,4266.153846,4473.846153,4278.461538,4456.410256,4009.230769,4241.538461,4516.410256,4211.794871,4655.897435,4005.128205,4045.128205
150,4293.846153,4550.769230,4538.974358,4262.564102,4468.205128,4273.846153,4449.230769,4005.128205,4243.076923,4516.923076,4205.641025,4653.333333,4004.102564,4040.512820
151,4324.615384,4547.179487,4533.846153,4255.897435,4468.205128,4273.846153,4444.615384,4007.692307,4238.461538,4513.846153,4204.102564,4651.794871,3991.794872,4034.871794
152,4432.820512,4546.666666,4529.743589,4247.692307,4466.153846,4274.358974,4446.153846,4010.256410,4230.769230,4507.179487,4201.538461,4650.769230,3987.692308,4031.794871
153,4465.128205,4542.051282,4532.820512,4244.615384,4463.076923,4273.333333,4453.333333,4007.692307,4230.769230,4506.666666,4203.589743,4650.769230,3997.948718,4040.000000
154,4435.384615,4538.974358,4538.974358,4251.794871,4470.769230,4275.897435,4454.871794,4009.230769,4234.871794,4517.435897,4211.282051,4654.871794,4005.128205,4046.666666
155,4422.051282,4538.461538,4538.461538,4255.897435,4471.282051,4271.794871,4447.179487,4011.794871,4232.307692,4514.871794,4212.307692,4656.923076,3999.487180,4043.589743
156,4402.051282,4533.333333,4534.871794,4252.307692,4461.538461,4267.179487,4443.076923,4008.717948,4226.153846,4507.179487,4209.230769,4655.384615,3988.205129,4038.461538
157,4332.820512,4533.846153,4537.948717,4250.769230,4460.000000,4270.256410,4447.692307,4012.307692,4228.717948,4512.820512,4213.846153,4658.974358,3987.692308,4040.512820
158,4258.461538,4544.102564,4544.102564,4250.256410,4468.717948,4272.820512,4452.820512,4022.051282,4238.461538,4519.487179,4218.974358,4664.615384,4002.564102,4048.205128
159,4246.666666,4543.589743,4543.076923,4256.410256,4472.820512,4272.307692,4453.333333,4021.025641,4241.538461,4520.512820,4215.897435,4667.179487,4008.205128,4053.846153
160,4273.333333,4536.923076,4544.102564,4262.051282,4467.692307,4271.282051,4447.692307,4016.410256,4234.871794,4518.974358,4215.384615,4666.153846,3998.974359,4053.846153
161,4313.846153,4538.974358,4549.230769,4258.461538,4464.102564,4272.307692,4443.076923,4021.538461,4234.358974,4515.384615,4219.487179,4663.589743,4002.051282,4054.358974
162,4364.615384,4537.948717,4546.153846,4256.410256,4468.205128,4274.358974,4445.128205,4025.641025,4240.000000,4517.435897,4222.051282,4662.564102,4011.282051,4055.384615
163,4344.615384,4542.051282,4536.923076,4263.076923,4475.897435,4272.820512,4445.641025,4021.538461,4238.461538,4526.666666,4222.564102,4662.564102,4009.743589,4053.846153
164,4265.641025,4553.846153,4536.923076,4260.000000,4473.846153,4271.282051,4444.102564,4021.538461,4235.897435,4525.128205,4217.948717,4662.051282,4004.102564,4053.846153
165,4286.153846,4549.230769,4544.102564,4247.692307,4469.743589,4272.307692,4445.128205,4026.153846,4238.974358,4516.923076,4215.384615,4660.000000,4002.564102,4053.333333
166,4401.025641,4534.871794,4546.153846,4250.256410,4469.230769,4275.897435,4445.128205,4027.179487,4244.102564,4524.615384,4218.974358,4660.000000,4007.179487,4053.333333
167,4452.820512,4543.076923,4546.153846,4261.538461,4472.307692,4276.410256,4447.179487,4031.794871,4247.692307,4534.871794,4227.179487,4664.615384,4012.307692,4055.897435
168,4424.102564,4550.256410,4546.666666,4260.512820,4472.820512,4273.333333,4452.820512,4030.769230,4243.589743,4531.282051,4224.615384,4661.538461,4008.717948,4051.794871
169,4396.410256,4541.538461,4541.538461,4247.692307,4466.666666,4270.256410,4452.307692,4022.564102,4231.794871,4517.948717,4213.333333,4651.282051,4000.512820,4042.051282
170,4390.256410,4541.538461,4541.025641,4246.153846,4464.615384,4273.333333,4448.717948,4023.589743,4231.282051,4516.923076,4215.384615,4653.846153,4004.102564,4046.666666
171,4358.461538,4546.153846,4546.666666,4253.846153,4465.128205,4272.820512,4445.641025,4028.717948,4240.000000,4527.692307,4218.461538,4659.487179,4014.871794,4051.282051
172,4263.076923,4537.435897,4543.076923,4250.256410,4457.948717,4260.512820,4438.461538,4017.948717,4232.307692,4522.564102,4209.230769,4649.743589,4007.179487,4039.487179
173,4190.769230,4531.794871,4533.846153,4243.076923,4454.358974,4257.948717,4433.846153,4012.307692,4224.615384,4510.256410,4210.769230,4640.512820,3988.717949,4034.358974
174,4245.641025,4543.076923,4537.435897,4249.230769,4465.128205,4270.256410,4443.076923,4026.153846,4236.923076,4522.051282,4219.487179,4649.230769,3990.256411,4043.589743
175,4310.256410,4554.871794,4548.205128,4260.000000,4475.897435,4278.461538,4455.384615,4034.358974,4248.717948,4536.410256,4217.948717,4657.948717,4006.666666,4051.282051
176,4277.435897,4551.282051,4551.282051,4257.948717,4477.435897,4278.974358,4458.974358,4033.846153,4251.794871,4529.230769,4217.435897,4656.923076,4015.384615,4052.820512
177,4278.461538,4541.025641,4549.230769,4250.256410,4472.307692,4275.384615,4457.948717,4034.358974,4249.743589,4522.051282,4220.000000,4652.307692,4013.333333,4050.256410
178,4366.153846,4535.384615,4541.025641,4248.205128,4463.076923,4267.692307,4448.205128,4030.256410,4240.512820,4522.564102,4216.410256,4646.666666,4001.538461,4041.025641
179,4388.205128,4537.948717,4534.871794,4250.769230,4462.051282,4267.179487,4440.512820,4021.538461,4234.871794,4514.871794,4212.820512,4640.512820,3989.230770,4033.333333
180,4292.820512,4545.128205,4536.410256,4253.846153,4469.743589,4274.871794,4444.102564,4019.487179,4241.025641,4514.358974,4214.358974,4637.948717,3996.923077,4034.871794
181,4218.974358,4547.179487,4538.461538,4254.871794,4474.358974,4274.358974,4444.615384,4022.051282,4241.025641,4525.128205,4216.410256,4640.000000,4008.205128,4037.435897
182,4268.205128,4540.512820,4538.461538,4252.820512,4470.256410,4267.179487,4437.435897,4018.461538,4230.256410,4522.564102,4215.897435,4637.948717,3999.487180,4035.897435
183,4378.974358,4535.897435,4536.923076,4246.153846,4463.076923,4265.128205,4435.384615,4010.769230,4227.179487,4507.692307,4208.205128,4632.307692,3989.230770,4032.820512
184,4430.256410,4542.051282,4536.923076,4250.769230,4465.641025,4269.230769,4440.000000,4009.743589,4230.256410,4506.666666,4207.179487,4634.358974,3993.333334,4032.307692
185,4414.358974,4547.179487,4539.487179,4260.000000,4472.820512,4273.333333,4443.589743,4016.410256,4230.769230,4515.384615,4212.307692,4638.461538,4003.589743,4034.358974
186,4405.128205,4543.589743,4538.461538,4255.897435,4469.743589,4273.333333,4443.076923,4020.000000,4232.820512,4516.410256,4208.205128,4636.410256,4009.743589,4034.871794
187,4402.051282,4543.076923,4535.897435,4253.846153,4463.589743,4274.358974,4443.076923,4020.512820,4238.461538,4514.358974,4207.179487,4637.435897,4004.615384,4035.897435
188,4355.384615,4552.307692,4545.128205,4258.461538,4472.307692,4283.076923,4451.794871,4027.179487,4240.000000,4514.871794,4217.948717,4648.717948,3999.487180,4044.102564
189,4264.102564,4557.435897,4553.333333,4253.846153,4479.487179,4285.641025,4456.410256,4028.717948,4235.897435,4516.410256,4220.000000,4653.333333,4007.179487,4048.205128
190,4228.717948,4552.820512,4548.205128,4255.897435,4472.820512,4277.435897,4449.230769,4021.025641,4232.307692,4520.000000,4214.358974,4648.205128,4015.384615,4044.102564
191,4281.538461,4551.794871,4547.692307,4270.256410,4474.871794,4278.974358,4445.128205,4018.974358,4233.333333,4521.538461,4214.871794,4646.153846,4010.256410,4043.076923
192,4318.461538,4554.871794,4548.205128,4269.743589,4478.974358,4283.076923,4446.666666,4025.641025,4240.000000,4524.615384,4215.897435,4644.615384,4008.717948,4044.102564
193,4341.025641,4550.769230,4544.615384,4262.564102,4475.384615,4280.000000,4448.717948,4027.692307,4243.589743,4529.230769,4217.435897,4644.102564,4010.769230,4042.564102
194,4413.333333,4549.230769,4545.641025,4261.025641,4474.358974,4278.974358,4450.256410,4024.102564,4239.487179,4526.666666,4217.435897,4643.589743,4009.743589,4042.564102
195,4453.846153,4548.717948,4545.641025,4250.769230,4475.384615,4279.487179,4448.717948,4024.615384,4236.923076,4521.025641,4205.641025,4639.487179,4007.179487,4038.974358
196,4424.102564,4543.589743,4543.076923,4247.692307,4471.282051,4277.948717,4444.615384,4029.230769,4237.948717,4519.487179,4199.487179,4636.923076,4004.615384,4034.358974
197,4401.538461,4536.923076,4543.076923,4253.846153,4470.256410,4276.410256,4444.615384,4031.282051,4237.948717,4518.461538,4205.641025,4638.461538,4004.102564,4035.384615
198,4368.717948,4536.410256,4542.564102,4251.282051,4469.230769,4277.948717,4444.102564,4027.692307,4232.307692,4514.871794,4203.076923,4634.871794,3998.461539,4032.820512
199,4285.641025,4538.974358,4543.589743,4246.666666,4463.076923,4279.487179,4448.205128,4029.743589,4233.333333,4514.358974,4200.000000,4636.410256,3990.256411,4028.205128
200,4231.794871,4538.974358,4549.230769,4248.205128,4468.717948,4279.487179,4456.923076,4038.974358,4242.051282,4521.538461,4208.205128,4645.641025,3997.948718,4036.410256
201,4274.871794,4538.461538,4544.615384,4250.256410,4475.384615,4279.487179,4451.794871,4039.487179,4244.615384,4526.153846,4207.179487,4643.589743,4008.205128,4041.538461
202,4337.435897,4541.025641,4538.461538,4248.717948,4467.692307,4279.487179,4442.051282,4030.769230,4234.358974,4520.512820,4203.076923,4635.384615,3999.487180,4030.256410
203,4317.948717,4536.923076,4541.025641,4249.230769,4460.000000,4278.974358,4443.589743,4023.076923,4228.205128,4514.358974,4211.794871,4636.410256,3988.205129,4024.615384
204,4305.128205,4527.692307,4539.487179,4250.769230,4462.051282,4276.923076,4447.179487,4020.512820,4232.307692,4510.769230,4209.743589,4638.461538,3988.205129,4029.230769
205,4391.794871,4528.717948,4536.923076,4248.205128,4462.051282,4275.384615,4446.153846,4023.589743,4232.820512,4509.230769,4201.025641,4635.897435,3993.846154,4028.717948
206,4459.487179,4538.461538,4536.923076,4243.076923,4460.512820,4275.897435,4451.282051,4028.717948,4229.743589,4514.358974,4207.692307,4636.410256,3998.461539,4024.102564
207,4440.000000,4540.512820,4537.948717,4247.179487,4463.589743,4277.948717,4453.333333,4030.256410,4233.846153,4521.025641,4218.974358,4637.948717,3996.923077,4029.743589
208,4417.435897,4541.025641,4541.025641,4256.923076,4464.615384,4278.974358,4448.717948,4032.820512,4242.051282,4524.615384,4214.871794,4639.487179,3993.846154,4034.871794
209,4388.717948,4537.948717,4541.025641,4254.358974,4464.102564,4277.948717,4448.205128,4034.358974,4244.615384,4526.153846,4205.128205,4644.102564,3995.897436,4029.743589
210,4315.384615,4531.282051,4537.435897,4247.179487,4460.512820,4275.384615,4446.666666,4025.128205,4235.897435,4517.435897,4204.615384,4644.615384,3998.461539,4026.666666
211,4238.461538,4532.307692,4538.461538,4246.153846,4458.974358,4274.358974,4444.615384,4015.897435,4227.692307,4510.769230,4214.871794,4643.589743,4000.000000,4034.871794
212,4209.230769,4545.128205,4543.076923,4252.820512,4468.205128,4278.974358,4451.282051,4025.641025,4234.871794,4525.128205,4223.076923,4649.743589,4009.230769,4045.128205
213,4274.871794,4550.769230,4543.076923,4256.410256,4476.410256,4282.051282,4453.846153,4038.461538,4247.692307,4535.897435,4219.487179,4652.820512,4015.897435,4043.589743
214,4355.384615,4543.589743,4538.974358,4254.358974,4470.256410,4276.410256,4443.589743,4033.333333,4245.128205,4525.641025,4214.358974,4647.692307,4009.743589,4035.897435
215,4321.538461,4543.076923,4540.000000,4258.461538,4467.692307,4273.333333,4439.487179,4022.564102,4232.307692,4513.846153,4215.384615,4643.589743,3994.871795,4035.897435
216,4284.615384,4546.666666,4541.025641,4257.435897,4470.256410,4276.923076,4448.717948,4021.025641,4229.743589,4514.358974,4212.820512,4640.512820,3982.564103,4035.897435
217,4384.615384,4542.564102,4537.948717,4248.717948,4466.153846,4278.974358,4449.230769,4020.000000,4232.820512,4519.487179,4204.102564,4639.487179,3983.076924,4031.282051
218,4496.923076,4543.589743,4538.461538,4252.307692,4464.615384,4280.000000,4445.641025,4020.000000,4231.794871,4520.512820,4203.076923,4644.102564,3991.794872,4033.846153
219,4503.589743,4553.333333,4541.025641,4266.153846,4474.871794,4285.128205,4452.307692,4027.179487,4232.820512,4516.923076,4208.717948,4649.230769,3997.948718,4041.538461
220,4476.410256,4556.923076,4538.974358,4269.743589,4480.512820,4284.615384,4453.333333,4030.256410,4234.358974,4516.410256,4209.743589,4646.153846,3988.717949,4037.948717
221,4448.205128,4548.205128,4535.897435,4256.923076,4471.282051,4278.974358,4445.641025,4025.641025,4232.307692,4515.897435,4210.769230,4643.076923,3972.820513,4032.307692
222,4380.512820,4541.025641,4537.948717,4245.128205,4461.538461,4278.461538,4446.666666,4028.205128,4231.794871,4515.897435,4214.358974,4648.205128,3980.000000,4038.974358
223,4300.512820,4547.692307,4546.153846,4255.384615,4463.589743,4281.025641,4458.461538,4042.564102,4238.974358,4521.025641,4218.461538,4661.538461,4006.666666,4052.820512
224,4303.076923,4565.641025,4557.435897,4272.307692,4473.846153,4282.051282,4462.564102,4052.820512,4249.230769,4531.282051,4228.205128,4670.256410,4010.769230,4061.025641
225,4402.564102,4566.153846,4556.410256,4271.794871,4478.974358,4282.564102,4455.384615,4049.743589,4246.666666,4530.256410,4237.948717,4664.615384,3994.871795,4056.410256
226,4466.153846,4553.846153,4543.589743,4262.564102,4472.307692,4280.512820,4447.179487,4043.076923,4234.358974,4512.820512,4227.692307,4654.358974,3995.897436,4047.179487
227,4400.512820,4551.794871,4536.410256,4254.358974,4463.589743,4274.358974,4441.538461,4038.461538,4226.153846,4504.102564,4212.307692,4648.205128,3996.410257,4041.025641
228,4313.846153,4548.205128,4537.948717,4251.794871,4458.461538,4272.820512,4442.051282,4037.435897,4227.179487,4511.282051,4207.179487,4646.666666,3979.487180,4036.410256
229,4350.256410,4537.948717,4536.410256,4259.487179,4458.974358,4274.871794,4442.564102,4034.871794,4225.128205,4513.333333,4205.641025,4644.102564,3973.333334,4033.846153
230,4466.666666,4539.487179,4533.846153,4267.179487,4461.025641,4277.435897,4442.051282,4035.897435,4220.512820,4506.153846,4208.717948,4641.025641,3978.461539,4034.871794
231,4535.384615,4552.820512,4537.948717,4264.102564,4460.512820,4278.974358,4444.615384,4046.666666,4225.641025,4510.256410,4215.384615,4645.641025,3983.076924,4038.974358
232,4531.794871,4554.871794,4540.512820,4260.512820,4458.974358,4276.410256,4448.205128,4055.897435,4230.256410,4518.974358,4218.461538,4650.256410,3990.769231,4044.102564
233,4511.282051,4549.743589,4537.435897,4260.512820,4457.948717,4272.307692,4446.153846,4054.871794,4228.205128,4511.282051,4216.410256,4646.153846,3988.205129,4044.615384
234,4494.871794,4545.641025,4537.435897,4260.512820,4458.461538,4273.846153,4443.076923,4052.820512,4225.128205,4502.051282,4210.256410,4643.589743,3981.538462,4041.538461
235,4466.666666,4543.589743,4538.461538,4260.512820,4457.948717,4276.410256,4448.717948,4055.384615,4226.666666,4505.641025,4207.179487,4647.179487,3989.230770,4041.538461
236,4410.769230,4546.666666,4538.974358,4264.615384,4464.615384,4278.974358,4455.384615,4063.076923,4231.794871,4518.461538,4213.846153,4649.230769,3991.282052,4043.589743
237,4317.948717,4546.153846,4541.025641,4267.179487,4470.256410,4283.589743,4456.923076,4074.871794,4237.435897,4521.025641,4222.051282,4650.769230,3976.923077,4041.538461
238,4277.948717,4544.615384,4541.538461,4260.512820,4466.153846,4284.102564,4455.384615,4076.923076,4233.846153,4512.307692,4217.948717,4652.307692,3971.794872,4036.410256
239,4351.282051,4549.230769,4547.179487,4261.025641,4468.205128,4286.153846,4455.897435,4073.333333,4229.743589,4515.384615,4213.846153,4654.871794,3982.564103,4041.025641
240,4390.769230,4552.307692,4552.307692,4268.717948,4475.897435,4289.743589,4457.435897,4075.897435,4233.846153,4524.102564,4218.461538,4656.410256,3988.717949,4049.230769
241,4344.615384,4540.000000,4541.538461,4264.102564,4472.820512,4285.128205,4454.871794,4074.358974,4230.769230,4516.410256,4215.384615,4651.794871,3975.897436,4041.538461
242,4384.615384,4535.897435,4538.461538,4261.025641,4468.717948,4286.666666,4457.435897,4073.333333,4227.692307,4509.743589,4204.102564,4651.282051,3968.717949,4034.358974
243,4503.076923,4551.794871,4549.743589,4267.692307,4477.435897,4294.871794,4462.051282,4076.923076,4233.333333,4514.358974,4204.102564,4654.358974,3980.000000,4041.538461
244,4521.025641,4546.666666,4545.641025,4259.487179,4474.871794,4285.641025,4453.333333,4069.743589,4228.717948,4508.205128,4208.205128,4644.102564,3973.846154,4035.384615
245,4446.666666,4525.641025,4531.794871,4250.256410,4462.564102,4276.923076,4445.641025,4064.615384,4222.564102,4506.153846,4207.179487,4635.384615,3957.435898,4026.153846
246,4369.230769,4532.820512,4535.897435,4262.051282,4466.153846,4286.153846,4455.384615,4074.871794,4233.846153,4520.512820,4209.743589,4648.717948,3969.230770,4040.000000
247,4312.307692,4553.846153,4546.666666,4272.307692,4475.384615,4289.230769,4462.564102,4081.025641,4242.564102,4528.717948,4218.974358,4655.897435,3993.333334,4054.358974
248,4345.641025,4553.333333,4547.692307,4266.153846,4478.461538,4278.974358,4457.435897,4076.410256,4234.358974,4525.128205,4222.051282,4646.153846,4005.641025,4052.820512
249,4461.025641,4545.128205,4542.564102,4261.538461,4486.153846,4265.128205,4453.333333,4074.358974,4228.717948,4525.641025,4216.923076,4645.128205,4002.051282,4049.230769
250,4534.358974,4544.615384,4535.897435,4263.076923,4496.410256,4253.333333,4455.384615,4075.897435,4231.282051,4527.179487,4215.897435,4649.743589,3983.076924,4045.641025
251,4525.128205,4538.974358,4537.435897,4263.076923,4491.282051,4254.358974,4457.435897,4075.897435,4232.307692,4520.512820,4218.974358,4647.179487,3974.871795,4044.615384
252,4496.923076,4534.358974,4541.025641,4261.025641,4476.923076,4268.717948,4455.384615,4075.384615,4229.743589,4516.923076,4216.923076,4646.153846,3983.076924,4046.666666
253,4487.179487,4540.000000,4536.923076,4260.512820,4471.794871,4275.897435,4452.820512,4073.846153,4229.743589,4522.051282,4213.333333,4646.153846,3987.692308,4047.692307
254,4466.153846,4550.769230,4538.974358,4263.589743,4481.025641,4281.025641,4457.435897,4077.948717,4235.897435,4528.205128,4224.102564,4649.230769,3992.820513,4055.384615
255,4406.666666,4554.358974,4551.282051,4265.128205,4484.615384,4289.230769,4460.512820,4085.128205,4241.025641,4530.256410,4227.692307,4656.923076,4000.512820,4061.538461
256,4308.205128,4545.128205,4549.743589,4262.564102,4478.974358,4287.179487,4457.948717,4082.564102,4234.871794,4527.179487,4215.897435,4655.384615,3997.435898,4053.333333
257,4258.974358,4535.384615,4541.538461,4263.076923,4480.512820,4282.051282,4458.974358,4077.435897,4228.717948,4517.435897,4222.564102,4648.205128,3992.307693,4049.230769
258,4334.871794,4540.000000,4545.128205,4266.153846,4481.538461,4284.615384,4458.974358,4081.025641,4232.820512,4514.871794,4232.307692,4651.794871,3993.846154,4054.871794
259,4395.384615,4548.717948,4547.179487,4265.641025,4474.871794,4285.641025,4452.820512,4083.589743,4234.871794,4523.589743,4219.487179,4655.384615,3993.846154,4054.358974
