,AF3,F7,F3,FC5,T7,P7,O1,O2,P8,T8,FC6,F4,F8,AF4
0,4382.051282,4533.333333,4534.871794,4286.153846,4521.025641,4205.641025,4447.179487,4210.256410,4234.358974,4497.435897,4204.615384,4647.179487,3983.589744,4052.307692
1,4382.051282,4537.948717,4538.974358,4282.564102,4523.076923,4203.076923,4447.692307,4211.282051,4232.820512,4498.974358,4202.564102,4645.641025,3980.000000,4053.846153
2,4383.076923,4537.435897,4540.512820,4275.384615,4523.076923,4205.128205,4446.666666,4212.307692,4233.846153,4497.435897,4206.153846,4646.153846,3978.974359,4055.897435
3,4381.538461,4536.410256,4532.820512,4274.871794,4520.000000,4205.128205,4437.948717,4199.487179,4225.641025,4488.205128,4207.692307,4644.102564,3975.384616,4051.794871
4,4380.512820,4537.948717,4530.256410,4288.205128,4519.487179,4202.051282,4435.384615,4192.820512,4223.589743,4493.846153,4211.282051,4644.102564,3977.435898,4049.743589
5,4387.179487,4539.487179,4538.974358,4291.282051,4518.974358,4204.102564,4442.051282,4202.051282,4230.769230,4502.564102,4209.230769,4650.769230,3985.641026,4054.871794
6,4396.410256,4541.025641,4544.102564,4284.102564,4523.076923,4208.205128,4447.692307,4211.794871,4239.487179,4505.128205,4202.051282,4655.897435,3990.769231,4064.102564
7,4400.512820,4547.692307,4545.128205,4288.205128,4528.717948,4208.717948,4451.794871,4213.846153,4243.589743,4511.282051,4209.230769,4658.974358,3994.871795,4070.256410
8,4399.487179,4550.769230,4546.153846,4293.846153,4527.179487,4209.743589,4453.333333,4209.743589,4240.512820,4511.794871,4224.102564,4661.025641,3998.974359,4068.717948
9,4395.897435,4544.615384,4541.025641,4290.256410,4523.076923,4205.641025,4446.666666,4207.179487,4238.461538,4502.564102,4220.512820,4657.435897,3996.410257,4062.564102
10,4394.871794,4542.564102,4537.435897,4289.743589,4518.974358,4199.487179,4438.974358,4208.717948,4241.025641,4501.025641,4210.256410,4650.256410,3991.794872,4062.564102
11,4393.846153,4543.589743,4536.923076,4287.179487,4514.358974,4200.512820,4435.897435,4205.641025,4233.846153,4503.076923,4212.820512,4650.256410,3986.666667,4065.128205
12,4389.230769,4540.000000,4535.384615,4273.846153,4512.307692,4201.025641,4434.358974,4196.923076,4225.641025,4499.487179,4211.794871,4652.307692,3981.538462,4061.538461
13,4385.641025,4529.743589,4531.794871,4271.282051,4512.820512,4194.871794,4433.846153,4198.461538,4226.153846,4499.487179,4203.589743,4647.692307,3984.615385,4057.435897
14,4384.102564,4528.205128,4531.282051,4281.025641,4511.282051,4195.384615,4436.410256,4202.564102,4225.128205,4504.102564,4203.589743,4645.128205,3993.333334,4060.512820
15,4387.692307,4538.974358,4533.846153,4280.000000,4516.410256,4202.051282,4443.076923,4205.641025,4230.769230,4510.256410,4213.846153,4651.794871,3997.948718,4063.589743
16,4398.461538,4549.743589,4541.538461,4275.384615,4524.615384,4206.153846,4449.230769,4215.897435,4244.102564,4515.384615,4221.025641,4661.025641,3996.410257,4067.179487
17,4403.589743,4551.794871,4547.692307,4286.153846,4524.615384,4205.128205,4447.179487,4221.025641,4249.230769,4515.897435,4216.923076,4662.051282,3996.923077,4071.794871
18,4395.384615,4545.128205,4542.564102,4292.307692,4518.461538,4203.076923,4443.589743,4210.769230,4243.589743,4513.333333,4211.794871,4653.846153,4000.512820,4068.717948
19,4391.282051,4544.102564,4538.974358,4284.615384,4517.948717,4202.564102,4446.666666,4207.179487,4243.076923,4512.307692,4218.974358,4650.769230,4002.564102,4063.076923
20,4396.410256,4551.282051,4544.615384,4284.102564,4521.538461,4204.102564,4447.692307,4215.384615,4248.717948,4514.358974,4232.307692,4655.897435,3998.461539,4066.153846
21,4398.461538,4552.307692,4542.564102,4287.179487,4517.435897,4201.025641,4443.076923,4214.358974,4245.128205,4516.923076,4225.641025,4656.923076,3995.384616,4069.230769
22,4391.282051,4544.615384,4533.846153,4283.589743,4512.307692,4193.846153,4437.435897,4205.641025,4235.897435,4513.846153,4207.692307,4649.743589,3998.461539,4063.589743
23,4390.256410,4546.153846,4535.384615,4282.051282,4514.358974,4196.923076,4440.512820,4206.666666,4238.461538,4512.307692,4211.794871,4647.692307,4004.102564,4062.051282
24,4398.974358,4552.820512,4542.051282,4283.589743,4516.410256,4203.589743,4445.128205,4212.307692,4242.051282,4511.794871,4223.589743,4652.307692,4003.589743,4070.256410
25,4398.461538,4550.769230,4541.538461,4284.615384,4517.948717,4202.564102,4444.615384,4210.256410,4232.307692,4505.641025,4218.461538,4652.307692,3995.897436,4070.769230
26,4393.333333,4551.282051,4538.461538,4286.666666,4518.461538,4202.051282,4445.128205,4208.717948,4233.846153,4507.692307,4213.846153,4651.282051,3991.794872,4064.615384
27,4390.256410,4546.666666,4536.410256,4279.487179,4515.897435,4203.076923,4446.153846,4206.666666,4243.589743,4511.794871,4219.487179,4649.743589,3996.410257,4062.051282
28,4383.076923,4536.410256,4534.871794,4271.794871,4511.794871,4197.435897,4440.000000,4200.000000,4234.358974,4503.589743,4214.358974,4647.692307,3998.461539,4061.538461
29,4375.897435,4536.923076,4532.307692,4276.410256,4510.256410,4189.743589,4429.743589,4199.487179,4221.538461,4494.871794,4207.179487,4647.692307,3987.179488,4056.410256
30,4380.000000,4540.512820,4532.307692,4278.461538,4511.282051,4191.794871,4432.820512,4205.641025,4226.153846,4500.000000,4213.846153,4650.256410,3977.948718,4052.820512
31,4385.641025,4539.487179,4538.461538,4275.384615,4511.794871,4196.410256,4444.102564,4208.205128,4233.333333,4505.128205,4213.846153,4654.358974,3987.692308,4058.974358
32,4380.512820,4538.461538,4538.461538,4275.897435,4511.282051,4192.307692,4442.051282,4206.153846,4230.769230,4497.435897,4202.564102,4652.307692,3995.384616,4062.051282
33,4381.025641,4542.564102,4534.358974,4277.948717,4511.794871,4193.333333,4436.923076,4208.205128,4231.282051,4494.871794,4204.102564,4650.256410,3989.743590,4061.538461
34,4391.794871,4549.743589,4540.000000,4282.051282,4515.384615,4201.538461,4443.076923,4215.897435,4240.000000,4509.743589,4219.487179,4657.435897,3991.794872,4067.179487
35,4396.410256,4554.871794,4547.692307,4288.205128,4517.948717,4202.051282,4453.333333,4221.538461,4246.153846,4520.000000,4227.179487,4664.102564,3999.487180,4069.743589
36,4391.282051,4549.230769,4544.615384,4291.282051,4520.000000,4199.487179,4452.307692,4222.051282,4245.128205,4507.179487,4221.538461,4661.538461,3999.487180,4066.153846
37,4391.282051,4546.666666,4543.076923,4287.179487,4518.461538,4202.564102,4449.743589,4222.564102,4240.000000,4501.025641,4217.435897,4658.461538,3994.871795,4067.179487
38,4393.846153,4552.307692,4547.179487,4282.051282,4517.435897,4204.615384,4453.846153,4226.153846,4242.564102,4516.410256,4219.487179,4660.000000,3993.333334,4069.743589
39,4394.358974,4550.256410,4546.153846,4281.538461,4524.102564,4204.615384,4454.358974,4226.153846,4252.307692,4523.589743,4225.641025,4661.538461,4002.051282,4069.743589
40,4392.820512,4546.153846,4544.102564,4279.487179,4525.128205,4204.102564,4452.307692,4221.025641,4251.282051,4516.923076,4224.615384,4657.948717,4010.769230,4068.717948
41,4385.128205,4544.102564,4542.051282,4274.871794,4515.897435,4198.974358,4451.794871,4216.923076,4239.487179,4510.769230,4215.897435,4651.794871,3998.974359,4063.076923
42,4387.692307,4545.641025,4542.051282,4285.128205,4514.358974,4202.051282,4453.333333,4218.461538,4242.051282,4513.333333,4215.384615,4653.333333,3987.179488,4062.564102
43,4397.948717,4549.743589,4546.153846,4294.871794,4521.538461,4210.769230,4455.897435,4226.666666,4257.435897,4520.000000,4225.641025,4658.974358,3995.897436,4071.794871
44,4395.384615,4548.717948,4547.692307,4284.615384,4524.615384,4208.205128,4458.461538,4234.358974,4258.461538,4523.589743,4226.666666,4658.974358,4005.641025,4073.846153
45,4390.256410,4548.717948,4546.666666,4282.564102,4522.051282,4203.589743,4458.974358,4235.897435,4254.358974,4527.692307,4223.589743,4660.000000,4006.153846,4069.743589
46,4393.333333,4551.794871,4544.615384,4290.769230,4517.948717,4204.615384,4457.948717,4232.820512,4258.461538,4529.230769,4228.205128,4662.051282,4000.512820,4069.743589
47,4391.282051,4551.794871,4543.076923,4285.641025,4515.384615,4204.102564,4457.435897,4231.794871,4258.461538,4524.102564,4226.153846,4657.948717,3991.794872,4068.205128
48,4385.128205,4550.769230,4544.615384,4279.487179,4517.948717,4202.051282,4456.410256,4230.769230,4251.282051,4517.435897,4217.948717,4655.897435,3992.307693,4064.615384
49,4385.128205,4551.282051,4545.128205,4283.076923,4516.923076,4204.615384,4455.897435,4225.128205,4247.692307,4513.333333,4218.974358,4658.974358,3999.487180,4066.153846
50,4388.717948,4546.666666,4542.564102,4281.538461,4517.435897,4205.128205,4453.333333,4221.025641,4248.717948,4510.256410,4225.128205,4659.487179,4000.512820,4069.743589
51,4390.256410,4545.641025,4542.564102,4280.000000,4517.948717,4198.461538,4450.256410,4221.538461,4248.205128,4512.307692,4226.153846,4658.461538,3993.846154,4068.717948
52,4388.717948,4553.846153,4543.076923,4285.641025,4513.333333,4194.871794,4447.179487,4221.538461,4242.564102,4516.410256,4224.615384,4658.974358,3989.230770,4069.230769
53,4386.153846,4554.358974,4543.589743,4282.564102,4509.230769,4197.948717,4443.589743,4219.487179,4236.923076,4511.282051,4216.410256,4656.923076,3992.820513,4067.179487
54,4382.564102,4545.641025,4540.512820,4276.410256,4510.769230,4196.923076,4442.051282,4218.461538,4234.871794,4505.641025,4205.128205,4651.794871,3998.974359,4061.025641
55,4377.435897,4542.051282,4535.384615,4279.487179,4513.333333,4194.871794,4447.179487,4222.564102,4241.025641,4510.769230,4206.153846,4650.769230,3995.897436,4060.000000
56,4377.948717,4544.102564,4536.410256,4283.076923,4514.358974,4202.051282,4455.897435,4228.717948,4247.179487,4516.410256,4215.384615,4653.333333,3992.820513,4065.641025
57,4381.025641,4545.128205,4538.461538,4279.487179,4514.871794,4206.153846,4458.461538,4229.230769,4244.102564,4508.717948,4212.820512,4652.820512,3994.871795,4062.564102
58,4372.820512,4536.923076,4532.307692,4273.333333,4511.794871,4197.435897,4454.358974,4225.128205,4240.512820,4495.897435,4205.128205,4647.692307,3991.282052,4053.333333
59,4364.102564,4526.666666,4528.205128,4268.717948,4509.230769,4196.410256,4453.846153,4225.641025,4246.666666,4502.564102,4211.282051,4646.666666,3991.282052,4051.794871
60,4364.102564,4528.205128,4530.769230,4267.179487,4514.358974,4203.589743,4458.461538,4229.743589,4250.256410,4517.435897,4216.923076,4647.692307,3996.923077,4053.846153
61,4363.076923,4530.256410,4528.205128,4261.025641,4515.384615,4200.000000,4454.871794,4225.128205,4238.974358,4509.230769,4207.179487,4640.512820,3986.153847,4047.179487
62,4359.487179,4525.128205,4523.589743,4252.820512,4509.743589,4195.384615,4446.666666,4218.461538,4231.282051,4490.769230,4201.025641,4636.923076,3974.358975,4039.487179
63,4357.948717,4518.461538,4526.153846,4257.948717,4511.794871,4201.025641,4452.307692,4222.051282,4238.974358,4493.846153,4202.051282,4646.153846,3987.179488,4042.564102
64,4360.000000,4518.974358,4530.256410,4269.743589,4517.435897,4200.512820,4456.923076,4226.153846,4247.179487,4505.128205,4202.051282,4650.769230,3992.820513,4047.692307
65,4364.102564,4522.051282,4530.256410,4271.794871,4514.871794,4195.897435,4447.179487,4224.102564,4243.076923,4504.615384,4208.717948,4649.743589,3982.564103,4048.717948
66,4364.102564,4521.538461,4531.282051,4266.153846,4512.307692,4203.589743,4447.179487,4226.666666,4238.461538,4500.000000,4214.358974,4653.333333,3982.564103,4048.717948
67,4362.564102,4522.051282,4531.794871,4266.153846,4515.897435,4205.128205,4456.923076,4230.256410,4242.051282,4500.000000,4206.153846,4654.358974,3983.589744,4045.128205
68,4360.512820,4526.153846,4527.179487,4267.692307,4509.743589,4194.358974,4447.179487,4219.487179,4235.384615,4496.923076,4195.384615,4645.641025,3978.461539,4040.512820
69,4362.051282,4534.358974,4528.717948,4266.153846,4502.564102,4192.307692,4437.435897,4208.717948,4223.589743,4493.333333,4196.410256,4642.051282,3982.051283,4044.615384
70,4374.358974,4542.051282,4539.487179,4271.794871,4511.282051,4198.974358,4448.205128,4219.487179,4234.358974,4497.435897,4205.128205,4650.256410,3985.641026,4054.871794
71,4382.564102,4543.076923,4540.000000,4276.923076,4520.512820,4202.564102,4450.256410,4230.769230,4253.333333,4503.076923,4210.256410,4656.410256,3980.000000,4056.410256
72,4372.307692,4533.846153,4531.282051,4270.256410,4516.410256,4201.538461,4442.564102,4226.666666,4250.769230,4503.589743,4208.717948,4650.769230,3985.641026,4049.743589
73,4366.666666,4528.717948,4531.794871,4266.153846,4511.282051,4201.025641,4445.128205,4220.000000,4240.000000,4502.051282,4204.615384,4644.102564,3993.846154,4045.641025
74,4372.307692,4534.358974,4534.358974,4273.846153,4512.820512,4197.435897,4441.538461,4215.384615,4238.974358,4498.974358,4202.564102,4645.641025,3985.128206,4049.230769
75,4368.717948,4534.871794,4528.205128,4273.846153,4510.256410,4192.820512,4430.256410,4207.179487,4236.923076,4495.897435,4202.051282,4644.102564,3973.846154,4047.179487
76,4360.512820,4527.692307,4524.615384,4264.615384,4503.589743,4191.794871,4429.743589,4204.615384,4230.256410,4498.461538,4202.051282,4635.897435,3975.384616,4038.974358
77,4361.538461,4526.153846,4528.205128,4260.512820,4505.128205,4190.769230,4434.871794,4210.769230,4228.717948,4498.461538,4200.512820,4637.948717,3983.589744,4039.487179
78,4369.743589,4531.282051,4530.769230,4260.512820,4509.230769,4192.820512,4437.948717,4220.512820,4240.512820,4500.512820,4202.564102,4649.743589,3984.615385,4047.692307
79,4378.461538,4536.923076,4533.333333,4270.769230,4510.769230,4196.410256,4445.128205,4229.230769,4255.384615,4509.230769,4211.282051,4658.461538,3981.025642,4052.820512
80,4376.410256,4535.384615,4532.820512,4278.461538,4509.230769,4193.333333,4446.153846,4227.179487,4250.769230,4507.179487,4212.820512,4658.461538,3981.538462,4052.307692
81,4366.666666,4522.051282,4529.230769,4266.666666,4504.615384,4189.230769,4438.974358,4216.923076,4233.846153,4498.461538,4200.000000,4651.282051,3985.128206,4046.153846
82,4365.128205,4517.948717,4529.230769,4257.435897,4504.615384,4192.307692,4439.487179,4216.923076,4236.410256,4501.025641,4195.384615,4646.666666,3981.538462,4040.512820
83,4364.102564,4524.615384,4530.769230,4256.923076,4509.230769,4195.384615,4442.051282,4218.461538,4242.051282,4500.512820,4203.589743,4643.589743,3970.769231,4038.974358
84,4360.512820,4520.512820,4528.717948,4252.307692,4507.692307,4192.820512,4438.461538,4211.282051,4230.256410,4489.743589,4207.692307,4644.615384,3968.205129,4038.461538
85,4365.128205,4519.487179,4533.333333,4256.923076,4504.615384,4195.897435,4439.487179,4211.794871,4233.333333,4494.871794,4207.692307,4651.794871,3981.538462,4044.102564
86,4372.820512,4527.692307,4540.000000,4273.846153,4512.820512,4200.000000,4447.179487,4220.512820,4253.846153,4505.128205,4210.256410,4657.435897,3992.820513,4053.333333
87,4375.384615,4527.179487,4535.897435,4276.923076,4519.487179,4202.051282,4450.256410,4222.564102,4252.820512,4506.153846,4209.743589,4654.358974,3986.153847,4052.820512
88,4376.410256,4522.564102,4530.769230,4274.358974,4516.923076,4203.076923,4448.717948,4217.435897,4239.487179,4506.153846,4210.769230,4652.820512,3978.461539,4048.205128
89,4377.435897,4529.230769,4533.333333,4280.000000,4516.410256,4200.512820,4450.769230,4213.846153,4237.948717,4506.153846,4213.846153,4657.948717,3987.179488,4050.256410
90,4378.974358,4537.948717,4536.410256,4277.948717,4516.410256,4202.051282,4452.820512,4216.923076,4242.051282,4508.205128,4213.333333,4662.051282,3998.974359,4055.897435
91,4380.512820,4540.000000,4535.897435,4275.384615,4516.923076,4204.615384,4449.743589,4221.538461,4245.128205,4510.256410,4211.282051,4661.538461,3992.307693,4056.923076
92,4378.461538,4535.384615,4532.307692,4274.871794,4515.384615,4198.974358,4443.589743,4214.871794,4244.102564,4502.564102,4207.692307,4653.333333,3974.871795,4050.256410
93,4374.871794,4528.205128,4528.205128,4272.307692,4511.794871,4193.333333,4442.564102,4209.743589,4235.897435,4495.897435,4203.076923,4647.179487,3974.358975,4044.615384
94,4377.948717,4530.256410,4530.769230,4282.564102,4515.384615,4201.538461,4449.743589,4218.461538,4236.410256,4505.128205,4204.102564,4653.333333,3994.358975,4049.230769
95,4385.128205,4538.461538,4540.512820,4296.923076,4520.000000,4208.717948,4453.846153,4225.641025,4248.205128,4514.358974,4215.384615,4662.564102,4004.615384,4061.025641
96,4389.743589,4542.051282,4543.589743,4290.769230,4518.974358,4203.076923,4448.205128,4227.179487,4249.743589,4514.358974,4224.102564,4663.076923,3996.410257,4065.128205
97,4382.051282,4533.333333,4535.384615,4276.923076,4514.871794,4196.410256,4442.051282,4222.051282,4241.538461,4509.743589,4208.205128,4654.871794,3984.615385,4054.358974
98,4370.256410,4520.000000,4527.692307,4271.794871,4512.307692,4196.410256,4445.128205,4211.794871,4236.923076,4501.025641,4187.692307,4645.641025,3981.538462,4045.128205
99,4372.820512,4524.615384,4530.256410,4277.435897,4514.358974,4201.025641,4447.179487,4214.871794,4238.974358,4499.487179,4196.410256,4645.641025,3984.615385,4051.794871
100,4378.974358,4533.846153,4534.358974,4284.615384,4516.410256,4199.487179,4445.641025,4221.025641,4241.025641,4502.564102,4211.282051,4651.282051,3976.923077,4054.358974
101,4376.410256,4530.769230,4532.307692,4282.564102,4513.846153,4196.410256,4444.102564,4215.897435,4241.025641,4500.512820,4207.692307,4651.282051,3965.128206,4047.179487
102,4376.923076,4526.666666,4534.871794,4279.487179,4511.794871,4197.948717,4444.615384,4215.897435,4241.025641,4498.461538,4208.205128,4650.769230,3970.769231,4049.743589
103,4378.974358,4528.717948,4539.487179,4281.538461,4512.307692,4197.435897,4446.153846,4222.564102,4239.487179,4501.538461,4211.282051,4654.871794,3983.589744,4053.846153
104,4374.871794,4526.666666,4535.897435,4279.487179,4512.820512,4195.384615,4444.615384,4219.487179,4237.435897,4498.974358,4201.538461,4652.820512,3981.025642,4047.692307
105,4373.333333,4523.589743,4528.717948,4280.512820,4513.333333,4196.410256,4442.564102,4211.794871,4236.410256,4487.179487,4194.358974,4645.128205,3969.743590,4044.102564
106,4375.384615,4526.666666,4528.717948,4286.666666,4513.333333,4198.974358,4441.538461,4212.307692,4238.974358,4485.128205,4195.897435,4644.615384,3969.743590,4048.205128
107,4371.282051,4527.179487,4530.769230,4282.051282,4511.282051,4196.923076,4440.000000,4215.384615,4240.000000,4495.384615,4194.871794,4648.205128,3970.769231,4046.666666
108,4366.666666,4524.102564,4529.743589,4275.384615,4511.282051,4193.846153,4443.076923,4218.461538,4241.025641,4502.051282,4198.461538,4647.692307,3967.179488,4041.538461
109,4367.692307,4524.102564,4528.205128,4279.487179,4509.230769,4195.384615,4447.692307,4222.051282,4241.025641,4500.512820,4205.641025,4646.153846,3966.153847,4041.538461
110,4370.769230,4525.641025,4526.666666,4285.128205,4505.641025,4196.923076,4445.128205,4220.512820,4236.923076,4498.461538,4204.615384,4647.692307,3975.897436,4044.102564
111,4370.769230,4526.153846,4526.153846,4285.128205,4509.743589,4194.871794,4440.512820,4212.820512,4233.846153,4497.435897,4199.487179,4650.769230,3983.076924,4046.666666
112,4369.230769,4529.230769,4529.230769,4277.948717,4514.358974,4195.897435,4444.615384,4212.307692,4236.410256,4495.384615,4204.102564,4652.820512,3974.871795,4049.743589
113,4372.307692,4530.769230,4531.794871,4277.435897,4513.846153,4201.025641,4450.256410,4218.974358,4245.128205,4498.461538,4211.282051,4653.333333,3972.820513,4054.358974
114,4378.974358,4527.179487,4528.205128,4287.179487,4513.333333,4201.025641,4448.205128,4215.897435,4240.512820,4500.512820,4203.076923,4652.307692,3980.512821,4056.410256
115,4376.923076,4524.615384,4526.153846,4288.205128,4512.820512,4195.897435,4444.102564,4208.205128,4227.179487,4495.384615,4195.897435,4651.794871,3983.589744,4051.794871
116,4368.717948,4524.615384,4528.205128,4278.974358,4510.256410,4192.820512,4442.564102,4208.717948,4229.230769,4494.871794,4203.589743,4646.666666,3975.384616,4042.564102
117,4370.769230,4527.692307,4531.282051,4277.948717,4509.743589,4193.333333,4446.153846,4212.820512,4238.461538,4498.974358,4206.666666,4647.179487,3973.846154,4046.153846
118,4376.410256,4526.666666,4534.358974,4283.076923,4513.333333,4195.384615,4449.230769,4213.846153,4232.820512,4493.846153,4196.923076,4651.794871,3977.435898,4056.923076
119,4366.666666,4515.897435,4527.179487,4280.512820,4508.205128,4189.230769,4442.564102,4205.128205,4223.076923,4478.974358,4188.205128,4642.051282,3964.615385,4044.615384
120,4358.461538,4511.794871,4517.948717,4277.435897,4499.487179,4180.000000,4432.820512,4194.358974,4222.564102,4474.871794,4189.230769,4629.743589,3954.871795,4031.794871
121,4365.641025,4520.512820,4523.589743,4282.564102,4505.128205,4186.666666,4436.923076,4194.871794,4221.538461,4483.076923,4194.358974,4636.923076,3969.743590,4043.076923
122,4373.846153,4530.256410,4532.820512,4289.743589,4513.846153,4199.487179,4444.615384,4202.051282,4225.641025,4489.743589,4195.897435,4649.743589,3982.051283,4053.333333
123,4375.897435,4532.820512,4531.282051,4288.205128,4511.282051,4198.461538,4441.538461,4202.564102,4233.846153,4488.205128,4194.358974,4648.717948,3976.923077,4048.717948
124,4375.897435,4531.282051,4525.641025,4284.102564,4507.179487,4191.794871,4439.487179,4196.410256,4226.666666,4481.538461,4195.897435,4642.564102,3973.846154,4047.179487
125,4371.282051,4527.692307,4523.589743,4286.666666,4509.230769,4192.307692,4441.538461,4195.384615,4218.461538,4481.025641,4202.051282,4642.051282,3973.846154,4047.692307
126,4368.205128,4525.128205,4523.589743,4288.717948,4508.717948,4193.846153,4441.538461,4201.025641,4221.538461,4486.153846,4203.589743,4643.076923,3973.333334,4044.102564
127,4368.717948,4526.153846,4527.179487,4289.230769,4510.769230,4194.358974,4445.128205,4208.205128,4223.589743,4490.256410,4198.974358,4644.102564,3979.487180,4043.589743
128,4371.282051,4529.743589,4530.256410,4284.615384,4517.435897,4200.000000,4451.282051,4211.794871,4225.641025,4493.846153,4195.897435,4647.179487,3976.923077,4046.153846
129,4374.358974,4534.871794,4530.256410,4282.051282,4519.487179,4203.076923,4450.256410,4213.846153,4233.333333,4497.948717,4202.564102,4651.282051,3972.820513,4050.256410
130,4374.871794,4532.820512,4530.769230,4291.794871,4518.974358,4201.025641,4446.153846,4218.461538,4237.435897,4498.974358,4211.282051,4652.307692,3982.051283,4053.846153
131,4374.358974,4527.692307,4533.333333,4298.974358,4516.410256,4199.487179,4448.205128,4220.512820,4242.051282,4496.410256,4213.333333,4653.333333,3987.179488,4057.435897
132,4376.923076,4531.794871,4532.820512,4288.717948,4514.358974,4200.000000,4447.692307,4213.333333,4241.538461,4491.794871,4205.641025,4651.282051,3983.076924,4057.948717
133,4374.871794,4532.307692,4527.692307,4276.923076,4511.282051,4194.871794,4434.358974,4200.512820,4223.076923,4488.205128,4195.897435,4644.615384,3978.461539,4051.794871
134,4373.846153,4531.794871,4527.692307,4283.076923,4508.717948,4192.307692,4429.230769,4202.051282,4215.897435,4492.307692,4203.076923,4646.666666,3981.538462,4052.307692
135,4381.025641,4541.538461,4531.282051,4293.333333,4511.794871,4197.948717,4437.435897,4212.820512,4232.820512,4502.564102,4214.358974,4655.897435,3991.282052,4061.025641
136,4388.717948,4550.769230,4531.282051,4292.820512,4515.384615,4202.051282,4440.000000,4213.846153,4243.076923,4506.666666,4208.717948,4659.487179,3993.846154,4064.615384
137,4387.692307,4541.538461,4532.307692,4289.743589,4515.897435,4198.974358,4437.435897,4211.282051,4236.410256,4498.461538,4204.615384,4657.948717,3992.307693,4063.589743
138,4379.487179,4532.820512,4531.794871,4288.717948,4513.333333,4195.384615,4435.384615,4209.743589,4227.692307,4492.820512,4211.282051,4654.871794,3991.794872,4060.512820
139,4377.948717,4540.512820,4528.717948,4286.153846,4513.846153,4196.410256,4433.333333,4205.641025,4223.589743,4497.435897,4213.333333,4651.794871,3987.179488,4055.897435
140,4379.487179,4538.974358,4528.717948,4284.102564,4513.846153,4196.923076,4433.846153,4202.051282,4224.102564,4492.820512,4210.769230,4650.256410,3982.051283,4053.333333
141,4375.897435,4525.641025,4527.692307,4284.102564,4514.358974,4196.923076,4441.538461,4204.615384,4226.153846,4486.666666,4208.205128,4647.692307,3983.076924,4053.846153
142,4375.384615,4522.564102,4522.564102,4283.076923,4516.923076,4198.974358,4445.128205,4206.666666,4228.717948,4494.871794,4207.179487,4645.641025,3983.589744,4054.871794
143,4376.923076,4533.333333,4522.051282,4285.128205,4514.358974,4196.923076,4440.000000,4209.743589,4230.256410,4497.435897,4208.717948,4647.179487,3985.128206,4054.358974
144,4377.435897,4541.025641,4525.128205,4289.230769,4512.820512,4194.358974,4437.948717,4216.923076,4234.358974,4492.307692,4210.769230,4650.769230,3987.179488,4053.846153
145,4379.487179,4537.948717,4527.179487,4291.794871,4518.461538,4196.923076,4441.025641,4220.000000,4242.564102,4500.000000,4210.256410,4651.794871,3983.076924,4054.871794
146,4380.000000,4528.717948,4529.743589,4292.820512,4521.538461,4202.051282,4443.589743,4218.461538,4237.948717,4505.641025,4208.205128,4650.769230,3983.076924,4055.384615
147,4373.333333,4526.666666,4528.717948,4288.205128,4515.384615,4201.025641,4440.512820,4214.358974,4227.692307,4495.897435,4208.717948,4647.692307,3989.230770,4051.794871
148,4372.820512,4533.846153,4527.179487,4283.076923,4514.358974,4202.051282,4441.025641,4212.307692,4233.846153,4493.333333,4210.256410,4652.307692,3984.102565,4050.256410
149,4376.923076,4535.384615,4529.743589,4289.230769,4521.538461,4206.153846,4444.615384,4217.435897,4244.615384,4497.435897,4209.743589,4658.974358,3978.461539,4053.846153
150,4373.333333,4532.307692,4528.205128,4295.897435,4521.025641,4203.589743,4442.564102,4222.051282,4238.461538,4494.871794,4207.692307,4655.384615,3985.128206,4055.897435
151,4366.153846,4532.820512,4525.641025,4288.205128,4515.384615,4197.435897,4442.564102,4218.461538,4233.333333,4494.358974,4204.102564,4650.256410,3991.282052,4050.256410
152,4362.051282,4526.153846,4524.102564,4274.358974,4514.358974,4196.923076,4444.615384,4214.358974,4237.948717,4494.358974,4200.512820,4646.666666,3984.102565,4043.076923
153,4361.538461,4515.897435,4521.025641,4273.333333,4513.333333,4197.435897,4440.512820,4213.333333,4232.307692,4487.179487,4194.358974,4638.974358,3970.769231,4039.487179
154,4358.461538,4517.435897,4520.000000,4281.025641,4509.743589,4191.794871,4434.358974,4208.205128,4223.589743,4483.076923,4191.282051,4638.974358,3970.256411,4038.974358
155,4356.923076,4526.153846,4524.615384,4281.025641,4510.769230,4192.820512,4438.461538,4206.153846,4225.641025,4482.564102,4194.358974,4646.666666,3978.461539,4040.000000
156,4366.153846,4529.743589,4528.205128,4278.974358,4513.333333,4196.410256,4442.051282,4211.794871,4229.230769,4479.487179,4196.923076,4650.769230,3982.564103,4045.128205
157,4373.846153,4531.794871,4528.717948,4282.564102,4512.307692,4193.333333,4434.871794,4207.692307,4228.205128,4481.538461,4200.512820,4652.307692,3982.051283,4051.282051
158,4368.717948,4529.230769,4526.153846,4286.153846,4510.256410,4191.282051,4433.333333,4202.051282,4225.128205,4485.128205,4205.128205,4652.820512,3982.564103,4049.230769
159,4361.538461,4524.102564,4523.076923,4283.589743,4509.743589,4191.794871,4435.897435,4207.179487,4226.153846,4482.564102,4201.025641,4647.692307,3984.102565,4044.102564
160,4362.051282,4524.102564,4521.538461,4282.564102,4511.794871,4193.333333,4432.820512,4207.692307,4229.743589,4483.589743,4195.897435,4643.589743,3978.461539,4041.538461
161,4361.538461,4521.025641,4523.076923,4278.461538,4511.282051,4190.769230,4428.205128,4198.461538,4227.179487,4484.615384,4195.897435,4641.538461,3971.282052,4039.487179
162,4358.461538,4515.384615,4524.102564,4269.230769,4502.051282,4185.641025,4428.205128,4195.897435,4220.000000,4479.487179,4194.871794,4638.974358,3972.307693,4037.435897
163,4362.564102,4524.102564,4525.641025,4272.307692,4495.897435,4184.615384,4430.256410,4200.512820,4222.051282,4482.051282,4197.435897,4640.512820,3982.051283,4042.564102
164,4366.666666,4535.384615,4529.230769,4284.102564,4506.666666,4189.743589,4434.358974,4203.589743,4226.666666,4490.256410,4203.076923,4646.666666,3987.179488,4053.333333
165,4364.102564,4530.769230,4529.743589,4285.641025,4512.820512,4193.333333,4434.871794,4203.589743,4227.692307,4489.743589,4199.487179,4646.153846,3984.102565,4051.282051
166,4360.000000,4522.051282,4524.102564,4275.384615,4504.615384,4190.256410,4428.205128,4200.000000,4226.153846,4485.641025,4196.923076,4638.974358,3978.974359,4041.025641
167,4358.974358,4523.076923,4521.025641,4267.179487,4499.487179,4186.153846,4422.051282,4192.307692,4221.025641,4481.538461,4193.333333,4637.435897,3973.333334,4036.923076
168,4362.564102,4528.205128,4524.615384,4269.230769,4503.076923,4186.153846,4420.512820,4192.307692,4216.410256,4480.000000,4188.205128,4644.615384,3975.897436,4041.538461
169,4373.846153,4533.846153,4532.820512,4284.102564,4507.179487,4193.333333,4428.717948,4203.076923,4226.153846,4490.256410,4204.102564,4653.333333,3992.307693,4053.846153
170,4381.538461,4533.846153,4536.923076,4301.025641,4512.307692,4197.435897,4434.871794,4209.743589,4234.871794,4501.025641,4224.615384,4656.410256,3998.461539,4060.512820
171,4371.794871,4526.666666,4533.333333,4296.410256,4512.820512,4192.307692,4427.692307,4202.564102,4227.179487,4494.871794,4214.358974,4653.846153,3982.051283,4050.769230
172,4363.589743,4523.589743,4528.717948,4284.102564,4505.128205,4188.205128,4424.102564,4200.000000,4221.538461,4484.615384,4199.487179,4648.717948,3974.871795,4043.589743
173,4367.179487,4522.564102,4523.076923,4283.076923,4501.538461,4185.128205,4428.205128,4203.076923,4225.641025,4486.153846,4201.538461,4645.641025,3985.641026,4047.179487
174,4365.641025,4520.000000,4518.974358,4283.076923,4502.051282,4183.589743,4428.717948,4199.487179,4223.076923,4486.153846,4201.025641,4645.128205,3984.615385,4045.641025
175,4361.025641,4521.538461,4521.025641,4281.538461,4503.076923,4185.641025,4427.179487,4200.000000,4222.051282,4485.128205,4192.307692,4646.153846,3974.358975,4040.512820
176,4364.615384,4524.615384,4525.641025,4285.641025,4509.230769,4191.794871,4433.846153,4212.307692,4233.333333,4495.384615,4196.923076,4651.282051,3984.615385,4047.179487
177,4370.256410,4526.666666,4527.692307,4290.256410,4516.923076,4200.512820,4440.000000,4220.512820,4243.076923,4506.666666,4215.384615,4653.846153,4002.564102,4056.923076
178,4371.794871,4529.230769,4527.179487,4289.230769,4516.923076,4203.076923,4438.461538,4217.435897,4242.051282,4505.128205,4222.051282,4651.282051,3995.897436,4055.384615
179,4372.820512,4531.282051,4527.179487,4291.282051,4512.307692,4196.410256,4432.820512,4212.820512,4240.512820,4502.051282,4211.282051,4649.743589,3977.948718,4050.256410
180,4368.205128,4527.692307,4527.179487,4289.743589,4511.282051,4190.769230,4430.256410,4207.179487,4238.461538,4500.000000,4201.025641,4648.717948,3977.435898,4048.717948
181,4360.512820,4520.512820,4524.102564,4277.948717,4509.230769,4191.282051,4428.205128,4200.000000,4230.769230,4489.230769,4197.948717,4642.051282,3981.538462,4045.128205
182,4361.025641,4520.512820,4518.461538,4274.358974,4507.692307,4188.717948,4424.102564,4196.410256,4222.051282,4485.128205,4192.307692,4638.974358,3975.384616,4043.589743
183,4366.666666,4527.692307,4519.487179,4287.179487,4506.153846,4187.179487,4424.615384,4198.461538,4221.538461,4493.333333,4187.692307,4644.102564,3976.410257,4047.692307
184,4367.179487,4530.256410,4526.153846,4295.897435,4504.102564,4191.794871,4427.179487,4197.948717,4225.128205,4497.435897,4193.333333,4648.205128,3981.538462,4049.743589
185,4363.589743,4526.666666,4527.692307,4290.769230,4506.666666,4191.282051,4428.205128,4196.923076,4224.102564,4494.358974,4204.615384,4646.153846,3970.256411,4047.692307
186,4363.589743,4524.615384,4527.692307,4288.205128,4510.256410,4189.743589,4431.282051,4200.512820,4223.076923,4490.256410,4201.538461,4646.666666,3962.051283,4047.179487
187,4363.076923,4524.102564,4526.666666,4286.666666,4508.717948,4191.282051,4430.769230,4194.871794,4218.461538,4486.666666,4184.102564,4644.615384,3974.871795,4046.153846
188,4363.589743,4528.717948,4526.153846,4282.564102,4508.717948,4194.358974,4426.666666,4188.205128,4211.282051,4489.230769,4186.666666,4643.076923,3985.128206,4047.692307
189,4366.666666,4533.333333,4529.743589,4283.076923,4511.794871,4195.897435,4426.153846,4193.333333,4215.897435,4499.487179,4209.743589,4649.230769,3977.435898,4054.871794
190,4366.153846,4527.692307,4529.230769,4286.666666,4510.769230,4191.282051,4426.153846,4198.974358,4224.102564,4502.051282,4209.230769,4649.743589,3974.358975,4056.923076
191,4365.128205,4527.179487,4526.666666,4289.743589,4510.769230,4189.230769,4428.717948,4197.435897,4225.128205,4496.923076,4192.820512,4647.179487,3981.025642,4052.307692
192,4365.128205,4532.307692,4528.717948,4292.820512,4515.897435,4197.948717,4435.897435,4197.948717,4226.666666,4496.410256,4193.846153,4648.205128,3984.615385,4048.717948
193,4364.615384,4531.794871,4529.230769,4288.717948,4517.948717,4203.589743,4436.923076,4204.102564,4232.820512,4504.102564,4201.025641,4647.692307,3982.564103,4051.282051
194,4360.512820,4526.153846,4520.512820,4283.076923,4512.307692,4195.384615,4430.256410,4204.615384,4229.230769,4505.128205,4201.538461,4646.153846,3977.435898,4050.769230
195,4360.512820,4527.179487,4516.410256,4290.769230,4508.717948,4188.717948,4426.666666,4201.538461,4223.076923,4501.538461,4207.179487,4646.666666,3975.897436,4047.179487
196,4361.538461,4531.794871,4518.974358,4296.410256,4507.692307,4191.794871,4426.153846,4203.589743,4227.692307,4502.564102,4205.128205,4647.692307,3981.538462,4049.743589
197,4361.025641,4524.615384,4520.512820,4288.205128,4505.641025,4192.820512,4426.153846,4207.692307,4233.846153,4503.589743,4197.435897,4646.666666,3984.615385,4052.307692
198,4361.025641,4515.897435,4522.564102,4289.230769,4508.205128,4190.256410,4431.282051,4210.256410,4233.333333,4501.538461,4200.512820,4648.717948,3983.589744,4045.641025
199,4364.615384,4525.128205,4524.102564,4298.974358,4512.820512,4191.282051,4434.358974,4211.282051,4228.717948,4501.538461,4200.512820,4649.743589,3981.538462,4046.666666
200,4368.205128,4533.333333,4521.025641,4298.461538,4513.333333,4192.307692,4432.820512,4208.205128,4225.641025,4500.512820,4195.384615,4648.717948,3978.461539,4055.384615
201,4369.230769,4526.153846,4518.461538,4293.846153,4506.666666,4189.743589,4430.256410,4203.589743,4224.102564,4497.948717,4203.076923,4648.205128,3985.641026,4057.435897
202,4371.282051,4526.666666,4522.564102,4296.410256,4504.102564,4188.205128,4428.717948,4205.128205,4226.666666,4499.487179,4213.333333,4650.256410,3997.435898,4061.538461
203,4373.846153,4533.333333,4527.692307,4293.333333,4507.179487,4189.743589,4428.205128,4205.641025,4229.230769,4499.487179,4213.846153,4654.871794,3988.717949,4064.615384
204,4374.358974,4533.846153,4529.743589,4286.666666,4507.692307,4189.230769,4432.307692,4201.538461,4223.076923,4496.923076,4208.205128,4656.410256,3974.871795,4057.948717
205,4375.897435,4532.820512,4528.205128,4291.794871,4506.666666,4189.230769,4436.923076,4203.589743,4221.538461,4504.102564,4204.102564,4658.974358,3987.179488,4058.974358
206,4376.410256,4532.307692,4529.230769,4298.974358,4510.256410,4191.794871,4438.974358,4211.282051,4228.717948,4515.897435,4208.205128,4662.051282,4000.512820,4064.102564
207,4369.230769,4527.179487,4529.743589,4295.897435,4512.307692,4191.794871,4437.435897,4209.230769,4229.230769,4509.230769,4207.692307,4660.000000,3991.794872,4057.948717
208,4362.051282,4519.487179,4524.615384,4286.666666,4508.205128,4189.230769,4433.333333,4203.076923,4221.538461,4495.384615,4201.538461,4656.410256,3976.410257,4051.794871
209,4369.230769,4523.589743,4524.615384,4286.153846,4508.205128,4190.256410,4433.333333,4203.589743,4222.051282,4500.000000,4207.179487,4660.000000,3976.410257,4056.410256
210,4382.051282,4542.564102,4532.820512,4300.000000,4509.743589,4192.820512,4434.358974,4207.179487,4231.282051,4512.307692,4211.282051,4667.179487,3994.358975,4064.615384
211,4386.666666,4548.717948,4535.384615,4316.410256,4512.820512,4194.871794,4435.384615,4210.256410,4238.461538,4516.410256,4207.179487,4670.256410,4003.589743,4070.256410
212,4385.128205,4537.948717,4532.820512,4309.743589,4515.897435,4195.897435,4440.000000,4214.358974,4243.589743,4521.538461,4215.384615,4670.769230,3995.384616,4070.256410
213,4382.564102,4537.948717,4532.307692,4296.923076,4513.333333,4197.948717,4442.564102,4216.410256,4247.179487,4525.641025,4230.256410,4666.666666,3992.820513,4067.179487
214,4378.461538,4540.512820,4531.282051,4302.051282,4513.333333,4195.897435,4437.948717,4207.692307,4237.435897,4513.333333,4217.948717,4658.461538,3993.333334,4060.512820
215,4374.358974,4533.846153,4528.717948,4311.794871,4514.358974,4194.358974,4433.846153,4199.487179,4222.051282,4504.102564,4198.461538,4654.358974,3985.641026,4054.358974
216,4377.435897,4540.512820,4529.230769,4313.846153,4514.871794,4198.461538,4438.974358,4205.128205,4223.589743,4511.794871,4204.615384,4658.974358,3986.153847,4061.538461
217,4382.051282,4550.256410,4531.794871,4308.205128,4517.948717,4197.948717,4442.051282,4211.794871,4234.358974,4516.923076,4215.897435,4665.641025,3996.410257,4071.282051
218,4376.923076,4542.564102,4529.743589,4301.025641,4515.897435,4192.307692,4437.948717,4207.179487,4235.384615,4512.820512,4210.769230,4664.615384,3993.333334,4064.102564
219,4369.743589,4535.897435,4526.153846,4301.538461,4509.743589,4191.794871,4434.871794,4202.051282,4232.307692,4511.794871,4206.666666,4660.000000,3982.051283,4054.871794
220,4374.358974,4542.564102,4528.205128,4309.230769,4514.871794,4198.974358,4441.025641,4207.692307,4229.743589,4508.717948,4210.256410,4657.948717,3979.487180,4057.435897
221,4381.538461,4545.128205,4531.794871,4308.717948,4527.179487,4206.153846,4448.717948,4213.846153,4227.692307,4501.538461,4207.692307,4659.487179,3982.051283,4060.512820
222,4372.307692,4535.384615,4528.717948,4294.871794,4523.589743,4205.128205,4445.641025,4214.358974,4229.230769,4501.025641,4193.846153,4656.923076,3974.358975,4054.358974
223,4357.435897,4524.102564,4524.102564,4289.743589,4511.794871,4200.000000,4438.461538,4211.282051,4232.307692,4502.564102,4184.615384,4647.179487,3966.666667,4046.666666
224,4361.538461,4526.153846,4526.666666,4300.512820,4511.794871,4196.923076,4435.384615,4208.205128,4228.717948,4503.589743,4193.846153,4645.128205,3977.435898,4049.230769
225,4374.871794,4536.923076,4531.794871,4312.307692,4516.410256,4196.410256,4442.051282,4211.794871,4229.230769,4509.743589,4211.282051,4655.897435,3988.205129,4060.512820
226,4376.410256,4537.435897,4533.333333,4309.743589,4515.384615,4197.435897,4448.717948,4220.512820,4239.487179,4511.282051,4214.358974,4661.538461,3981.025642,4064.615384
227,4366.666666,4529.743589,4529.743589,4294.871794,4510.769230,4196.410256,4443.076923,4217.948717,4236.410256,4504.615384,4201.538461,4654.358974,3973.846154,4052.820512
228,4356.923076,4520.512820,4523.076923,4289.743589,4507.692307,4190.769230,4433.333333,4204.102564,4223.076923,4499.487179,4190.256410,4644.615384,3972.820513,4042.564102
229,4361.025641,4519.487179,4523.076923,4301.538461,4508.205128,4191.282051,4436.410256,4204.102564,4222.564102,4501.025641,4192.307692,4647.692307,3972.820513,4048.205128
230,4373.846153,4530.769230,4530.769230,4307.692307,4513.333333,4197.948717,4444.615384,4212.820512,4228.205128,4507.692307,4204.615384,4657.948717,3981.025642,4061.025641
231,4374.358974,4537.948717,4531.282051,4299.487179,4513.333333,4195.384615,4443.589743,4208.205128,4228.205128,4512.820512,4213.846153,4657.948717,3989.230770,4063.589743
232,4369.230769,4533.846153,4526.666666,4292.820512,4506.666666,4191.794871,4441.025641,4202.564102,4230.769230,4508.205128,4212.307692,4653.333333,3986.153847,4058.461538
233,4373.846153,4532.820512,4529.743589,4296.410256,4508.205128,4195.384615,4440.512820,4208.205128,4233.333333,4500.000000,4207.692307,4657.948717,3984.102565,4061.538461
234,4374.871794,4535.384615,4533.333333,4298.461538,4510.256410,4192.820512,4435.384615,4206.153846,4229.230769,4494.358974,4203.076923,4657.948717,3987.179488,4065.128205
235,4366.153846,4528.717948,4528.205128,4293.846153,4504.102564,4187.179487,4432.820512,4198.461538,4225.641025,4493.333333,4203.076923,4649.230769,3981.025642,4058.461538
236,4368.717948,4525.128205,4525.128205,4296.410256,4503.076923,4190.256410,4438.461538,4202.564102,4225.128205,4501.538461,4207.179487,4652.820512,3977.948718,4056.923076
237,4381.025641,4538.461538,4531.794871,4305.128205,4513.333333,4196.923076,4442.564102,4211.282051,4230.769230,4512.307692,4210.769230,4662.564102,3989.743590,4067.692307
238,4384.102564,4551.794871,4535.897435,4308.205128,4517.435897,4200.000000,4443.589743,4214.358974,4238.974358,4513.846153,4209.230769,4661.538461,3994.358975,4070.769230
239,4380.512820,4546.153846,4533.846153,4309.743589,4512.307692,4201.538461,4446.666666,4216.410256,4243.076923,4513.333333,4211.282051,4659.487179,3992.820513,4067.692307
240,4380.512820,4533.846153,4534.871794,4311.794871,4515.897435,4206.666666,4451.282051,4222.564102,4246.153846,4514.358974,4216.923076,4662.564102,3993.333334,4067.179487
241,4380.000000,4534.871794,4535.897435,4306.666666,4526.153846,4208.717948,4451.794871,4223.589743,4242.564102,4511.794871,4211.794871,4661.538461,3992.307693,4065.128205
242,4378.974358,4541.025641,4533.846153,4302.051282,4524.102564,4207.692307,4450.256410,4222.051282,4240.512820,4510.769230,4208.717948,4660.512820,3996.923077,4067.179487
243,4385.128205,4545.641025,4538.974358,4308.717948,4520.000000,4210.256410,4456.410256,4227.692307,4248.717948,4515.897435,4222.564102,4667.692307,4005.641025,4072.820512
244,4383.076923,4545.128205,4543.589743,4306.666666,4524.615384,4212.307692,4461.025641,4228.205128,4250.769230,4512.820512,4228.717948,4667.692307,4002.564102,4066.153846
245,4369.230769,4534.871794,4536.923076,4294.358974,4521.538461,4204.615384,4450.769230,4215.897435,4241.025641,4500.512820,4210.769230,4654.871794,3992.307693,4056.923076
246,4370.256410,4534.358974,4534.871794,4301.538461,4518.461538,4202.564102,4444.615384,4212.820512,4243.589743,4505.128205,4206.666666,4657.435897,4001.025641,4065.128205
247,4376.410256,4542.564102,4537.948717,4313.846153,4524.102564,4206.666666,4448.205128,4216.410256,4249.230769,4512.820512,4215.897435,4663.589743,4012.307692,4069.743589
248,4363.589743,4533.846153,4532.307692,4300.512820,4519.487179,4200.000000,4440.000000,4202.051282,4231.794871,4499.487179,4205.641025,4651.794871,3996.923077,4051.794871
249,4352.820512,4521.025641,4525.641025,4284.102564,4506.666666,4193.333333,4430.769230,4190.769230,4216.410256,4487.692307,4197.435897,4643.076923,3978.974359,4043.076923
250,4363.076923,4527.692307,4532.820512,4297.948717,4511.794871,4199.487179,4436.923076,4201.538461,4228.717948,4493.333333,4206.153846,4650.769230,3982.051283,4053.333333
251,4369.230769,4540.000000,4541.538461,4315.384615,4522.051282,4206.666666,4446.666666,4208.205128,4241.025641,4496.410256,4212.820512,4653.333333,3990.256411,4057.435897
252,4363.076923,4540.000000,4537.948717,4306.666666,4518.974358,4204.102564,4445.128205,4203.076923,4233.846153,4490.769230,4202.564102,4646.666666,3989.743590,4053.333333
253,4362.564102,4535.897435,4534.871794,4296.410256,4512.820512,4202.051282,4441.538461,4202.051282,4229.230769,4485.128205,4195.384615,4646.153846,3983.589744,4049.743589
254,4364.102564,4532.820512,4537.948717,4299.487179,4513.333333,4205.128205,4444.615384,4204.102564,4236.923076,4485.128205,4202.564102,4648.717948,3976.923077,4049.230769
255,4361.025641,4532.307692,4538.974358,4306.153846,4517.948717,4203.076923,4449.743589,4203.589743,4235.897435,4489.230769,4208.717948,4648.205128,3981.025642,4051.794871
256,4362.564102,4537.435897,4536.410256,4311.282051,4519.487179,4201.538461,4450.769230,4206.666666,4234.871794,4494.358974,4206.666666,4648.205128,3989.743590,4055.384615
257,4367.692307,4543.589743,4535.897435,4306.666666,4516.923076,4203.589743,4446.666666,4205.641025,4237.435897,4495.384615,4200.512820,4648.717948,3983.076924,4055.897435
258,4365.128205,4544.615384,4535.384615,4297.948717,4513.846153,4200.000000,4441.025641,4196.410256,4228.717948,4490.769230,4200.000000,4648.205128,3972.820513,4053.333333
259,4358.974358,4537.948717,4531.282051,4293.846153,4511.282051,4193.333333,4438.974358,4196.923076,4224.615384,4482.051282,4200.000000,4646.153846,3979.487180,4049.743589
260,4354.871794,4531.282051,4527.692307,4289.743589,4509.230769,4193.846153,4440.000000,4203.589743,4234.358974,4481.025641,4197.435897,4644.615384,3985.128206,4042.564102
