,AF3,F7,F3,FC5,T7,P7,O1,O2,P8,T8,FC6,F4,F8,AF4
0,4403.076923,4514.871794,4542.051282,4262.051282,4490.769230,4198.461538,4428.717948,4206.666666,4232.307692,4486.153846,4197.435897,4644.615384,3990.769231,4065.128205
1,4396.410256,4508.717948,4540.512820,4263.076923,4496.410256,4196.410256,4431.794871,4201.025641,4228.717948,4483.589743,4192.820512,4643.589743,3975.897436,4055.897435
2,4385.641025,4496.923076,4529.743589,4257.435897,4491.794871,4195.897435,4427.179487,4190.769230,4218.974358,4473.333333,4192.820512,4632.307692,3973.846154,4040.000000
3,4387.692307,4501.538461,4525.641025,4261.538461,4484.102564,4197.435897,4421.025641,4187.179487,4215.897435,4469.743589,4191.282051,4626.153846,3982.564103,4037.948717
4,4399.487179,4518.974358,4535.384615,4278.461538,4495.384615,4203.076923,4425.641025,4192.820512,4224.615384,4486.153846,4196.923076,4635.384615,3987.179488,4049.743589
5,4404.615384,4524.102564,4542.051282,4281.538461,4506.666666,4207.179487,4430.256410,4196.923076,4230.769230,4498.461538,4211.794871,4640.512820,3992.307693,4054.871794
6,4403.076923,4519.487179,4536.410256,4271.282051,4501.538461,4206.666666,4425.641025,4194.871794,4227.692307,4490.256410,4215.897435,4636.410256,3991.794872,4049.230769
7,4403.076923,4520.000000,4528.717948,4272.307692,4498.461538,4201.538461,4423.589743,4190.256410,4227.179487,4485.128205,4209.743589,4632.820512,3987.692308,4048.717948
8,4399.487179,4517.948717,4524.615384,4278.974358,4501.025641,4195.897435,4423.076923,4188.717948,4229.743589,4490.769230,4208.717948,4632.307692,3993.846154,4050.256410
9,4394.871794,4516.923076,4524.102564,4274.358974,4498.974358,4197.435897,4418.461538,4188.717948,4228.717948,4488.717948,4211.794871,4630.256410,4003.589743,4045.128205
10,4394.871794,4518.974358,4523.589743,4261.538461,4498.461538,4199.487179,4416.923076,4187.692307,4226.153846,4481.538461,4210.769230,4628.717948,3997.435898,4042.564102
11,4394.358974,4513.846153,4522.051282,4254.358974,4493.846153,4192.307692,4418.974358,4188.717948,4223.076923,4480.512820,4208.205128,4630.256410,3981.538462,4043.076923
12,4395.897435,4507.692307,4528.205128,4254.871794,4487.179487,4188.717948,4421.538461,4190.769230,4222.564102,4482.051282,4204.615384,4632.307692,3981.025642,4042.051282
13,4402.051282,4510.256410,4537.948717,4261.538461,4493.846153,4197.948717,4426.666666,4196.410256,4226.153846,4489.743589,4207.179487,4636.410256,3995.384616,4045.641025
14,4404.615384,4516.923076,4537.948717,4274.358974,4503.589743,4205.641025,4432.307692,4203.589743,4231.282051,4502.051282,4224.615384,4643.076923,4002.051282,4050.256410
15,4403.589743,4523.589743,4534.871794,4283.076923,4502.564102,4203.589743,4432.820512,4205.128205,4234.358974,4499.487179,4236.410256,4649.230769,4000.512820,4050.256410
16,4410.256410,4529.743589,4539.487179,4282.564102,4502.051282,4202.564102,4431.282051,4203.589743,4231.794871,4490.256410,4229.743589,4651.282051,4004.102564,4054.358974
17,4418.974358,4530.769230,4545.641025,4282.051282,4506.153846,4208.205128,4435.384615,4205.128205,4226.153846,4493.333333,4224.615384,4649.743589,4007.179487,4060.000000
18,4418.461538,4528.717948,4544.102564,4283.076923,4504.102564,4208.205128,4436.923076,4206.153846,4225.128205,4495.384615,4229.230769,4647.692307,3998.461539,4057.435897
19,4410.769230,4525.641025,4537.435897,4276.923076,4500.512820,4201.538461,4428.205128,4203.076923,4225.128205,4486.666666,4226.666666,4641.538461,3988.205129,4047.179487
20,4402.564102,4517.435897,4533.333333,4266.666666,4496.923076,4195.897435,4420.000000,4201.025641,4220.512820,4484.615384,4217.435897,4634.358974,3986.666667,4038.974358
21,4402.564102,4518.461538,4535.897435,4266.666666,4491.282051,4198.461538,4425.641025,4203.076923,4223.076923,4494.871794,4222.051282,4636.923076,3995.897436,4043.076923
22,4410.256410,4527.179487,4538.461538,4271.282051,4494.358974,4205.128205,4431.282051,4207.692307,4233.333333,4499.487179,4234.871794,4645.641025,4005.641025,4050.256410
23,4407.179487,4518.974358,4530.256410,4261.538461,4497.948717,4206.666666,4428.205128,4206.666666,4228.717948,4489.743589,4230.256410,4637.948717,4000.000000,4041.538461
24,4394.358974,4506.153846,4520.000000,4251.282051,4495.897435,4202.051282,4426.153846,4193.846153,4213.333333,4475.897435,4208.717948,4620.512820,3982.051283,4028.717948
25,4392.820512,4510.256410,4521.538461,4259.487179,4496.410256,4198.974358,4424.102564,4188.205128,4208.205128,4470.256410,4201.538461,4620.512820,3969.230770,4029.743589
26,4402.051282,4519.487179,4534.358974,4269.743589,4498.974358,4200.000000,4423.589743,4194.358974,4217.435897,4480.512820,4213.846153,4633.333333,3975.897436,4034.871794
27,4407.179487,4520.512820,4537.435897,4269.743589,4500.512820,4200.000000,4429.230769,4197.948717,4224.102564,4493.846153,4224.615384,4637.948717,3990.256411,4037.948717
28,4403.076923,4516.923076,4525.128205,4266.666666,4495.897435,4195.897435,4425.128205,4192.307692,4220.000000,4489.743589,4225.128205,4629.743589,3992.820513,4034.358974
29,4401.538461,4514.358974,4520.512820,4267.179487,4485.641025,4190.769230,4415.384615,4189.230769,4214.871794,4480.512820,4222.564102,4624.615384,3990.256411,4028.717948
30,4406.666666,4520.512820,4525.128205,4271.282051,4487.179487,4194.358974,4417.948717,4192.820512,4216.410256,4483.589743,4225.641025,4630.256410,3991.794872,4032.820512
31,4410.769230,4528.205128,4525.641025,4271.794871,4499.487179,4198.461538,4425.128205,4196.410256,4223.076923,4487.692307,4230.256410,4635.384615,3990.256411,4038.461538
32,4411.282051,4522.051282,4526.153846,4269.230769,4500.512820,4196.923076,4426.666666,4201.025641,4226.666666,4484.102564,4231.282051,4635.384615,3989.743590,4037.435897
33,4414.358974,4515.384615,4533.333333,4268.205128,4497.948717,4201.025641,4431.282051,4207.179487,4227.692307,4487.692307,4231.282051,4638.974358,3995.384616,4037.435897
34,4415.897435,4522.051282,4534.358974,4269.743589,4500.512820,4207.179487,4434.871794,4205.641025,4228.717948,4493.846153,4231.282051,4642.051282,3992.307693,4037.435897
35,4411.282051,4526.666666,4526.666666,4269.743589,4497.948717,4202.564102,4429.230769,4194.871794,4221.025641,4485.128205,4229.743589,4634.871794,3988.205129,4033.333333
36,4411.794871,4521.538461,4523.076923,4270.256410,4496.410256,4196.410256,4425.641025,4190.256410,4212.820512,4473.333333,4227.692307,4629.230769,3994.358975,4031.282051
37,4413.333333,4514.358974,4524.615384,4271.794871,4499.487179,4197.435897,4426.666666,4191.282051,4217.948717,4477.435897,4226.666666,4630.769230,3993.333334,4030.769230
38,4408.205128,4513.846153,4523.589743,4270.769230,4496.410256,4196.923076,4424.102564,4189.743589,4224.102564,4484.102564,4227.692307,4629.230769,3983.076924,4027.179487
39,4409.230769,4521.025641,4523.589743,4268.717948,4494.358974,4197.948717,4426.153846,4196.410256,4224.102564,4485.641025,4232.820512,4630.769230,3982.564103,4030.256410
40,4413.333333,4528.205128,4524.102564,4269.230769,4500.000000,4205.641025,4431.282051,4203.589743,4227.692307,4485.128205,4234.358974,4635.384615,3987.692308,4034.871794
41,4410.769230,4528.205128,4527.692307,4270.256410,4500.000000,4206.153846,4430.256410,4200.000000,4226.666666,4485.641025,4227.179487,4635.897435,3983.589744,4032.307692
42,4409.230769,4520.000000,4533.846153,4270.256410,4496.410256,4202.564102,4430.256410,4202.051282,4226.153846,4492.820512,4227.692307,4636.923076,3982.051283,4030.256410
43,4414.871794,4513.333333,4537.435897,4269.230769,4498.461538,4204.102564,4435.384615,4207.179487,4233.333333,4497.435897,4233.333333,4641.025641,3989.743590,4033.333333
44,4419.487179,4517.948717,4537.948717,4270.256410,4501.538461,4208.717948,4435.897435,4205.128205,4235.897435,4496.410256,4240.000000,4647.179487,3995.384616,4041.025641
45,4422.564102,4526.666666,4537.948717,4269.743589,4503.589743,4207.179487,4431.794871,4205.128205,4230.769230,4495.384615,4241.025641,4649.743589,3996.923077,4048.717948
46,4419.487179,4527.179487,4530.256410,4265.641025,4500.512820,4198.461538,4424.102564,4201.538461,4225.128205,4485.641025,4225.128205,4642.051282,3995.897436,4046.153846
47,4411.794871,4523.589743,4522.564102,4265.128205,4493.846153,4194.358974,4415.384615,4189.230769,4218.974358,4475.897435,4205.641025,4631.794871,3994.358975,4038.461538
48,4411.282051,4524.102564,4526.153846,4268.205128,4493.846153,4200.512820,4418.974358,4190.769230,4217.948717,4481.025641,4208.717948,4634.358974,3993.333334,4044.615384
49,4412.307692,4522.564102,4527.692307,4265.128205,4499.487179,4204.615384,4426.666666,4199.487179,4223.076923,4486.666666,4219.487179,4635.384615,3990.769231,4053.333333
50,4406.666666,4519.487179,4522.564102,4261.025641,4498.974358,4203.589743,4426.666666,4197.435897,4223.589743,4485.641025,4210.256410,4626.666666,3985.128206,4047.179487
51,4402.564102,4519.487179,4523.589743,4260.512820,4495.384615,4205.128205,4429.743589,4196.410256,4223.589743,4491.282051,4197.948717,4624.102564,3979.487180,4044.615384
52,4402.564102,4521.025641,4524.102564,4259.487179,4495.384615,4207.692307,4440.512820,4203.589743,4231.282051,4493.846153,4200.000000,4628.205128,3978.974359,4056.923076
53,4398.461538,4521.538461,4522.564102,4256.923076,4496.923076,4212.307692,4444.102564,4210.769230,4240.512820,4493.333333,4203.589743,4630.256410,3982.564103,4062.051282
54,4392.820512,4514.871794,4525.128205,4257.948717,4498.461538,4215.384615,4443.589743,4212.820512,4240.512820,4495.384615,4196.923076,4629.743589,3985.641026,4054.871794
55,4388.205128,4508.205128,4517.948717,4253.846153,4494.358974,4209.230769,4443.589743,4206.153846,4231.794871,4492.307692,4183.589743,4624.102564,3983.589744,4051.794871
56,4384.615384,4511.282051,4510.769230,4245.128205,4484.615384,4204.102564,4441.025641,4196.410256,4222.051282,4484.615384,4175.384615,4617.948717,3972.307693,4051.282051
57,4383.076923,4512.820512,4516.410256,4248.205128,4484.102564,4209.743589,4442.564102,4198.974358,4221.538461,4476.923076,4173.846153,4618.461538,3961.538462,4048.205128
58,4386.666666,4510.256410,4523.589743,4257.435897,4493.846153,4215.897435,4447.692307,4207.692307,4227.179487,4475.897435,4176.923076,4624.102564,3964.102565,4049.230769
59,4388.205128,4510.769230,4520.512820,4257.948717,4496.410256,4213.846153,4450.256410,4208.717948,4226.666666,4481.538461,4178.461538,4626.153846,3971.282052,4052.307692
60,4385.641025,4509.743589,4520.000000,4254.358974,4490.256410,4211.794871,4449.743589,4204.102564,4222.564102,4487.692307,4175.897435,4628.205128,3970.769231,4050.256410
61,4383.589743,4505.641025,4521.025641,4254.871794,4483.589743,4210.769230,4444.102564,4196.923076,4220.512820,4484.102564,4171.282051,4627.179487,3965.641026,4046.153846
62,4382.564102,4510.769230,4521.025641,4255.384615,4485.641025,4206.666666,4436.923076,4190.769230,4217.948717,4477.435897,4170.256410,4622.564102,3969.230770,4048.717948
63,4383.589743,4519.487179,4522.051282,4252.820512,4492.820512,4204.102564,4435.384615,4192.307692,4217.435897,4476.923076,4178.974358,4624.615384,3977.435898,4055.897435
64,4387.692307,4520.000000,4521.538461,4251.794871,4488.717948,4203.589743,4440.000000,4194.358974,4222.564102,4483.589743,4186.153846,4629.743589,3981.025642,4061.025641
65,4397.435897,4523.076923,4524.615384,4260.000000,4484.102564,4206.666666,4444.615384,4196.410256,4232.307692,4496.410256,4189.743589,4636.410256,3984.102565,4067.179487
66,4403.589743,4530.256410,4531.794871,4270.769230,4492.820512,4212.307692,4445.128205,4204.102564,4238.974358,4498.974358,4194.358974,4641.538461,3986.666667,4071.794871
67,4401.025641,4528.205128,4529.743589,4268.717948,4498.974358,4213.846153,4445.128205,4207.179487,4238.461538,4491.794871,4192.820512,4641.025641,3985.128206,4069.743589
68,4395.897435,4522.564102,4524.102564,4262.051282,4495.897435,4212.820512,4446.666666,4207.179487,4240.000000,4494.358974,4182.051282,4635.384615,3987.179488,4066.666666
69,4391.282051,4520.512820,4523.589743,4260.000000,4494.871794,4211.794871,4445.128205,4205.641025,4242.564102,4500.000000,4175.897435,4629.230769,3988.717949,4063.589743
70,4388.717948,4518.461538,4522.051282,4257.435897,4495.384615,4210.769230,4440.512820,4197.948717,4234.358974,4492.820512,4178.974358,4627.179487,3983.589744,4056.410256
71,4388.717948,4514.871794,4520.512820,4256.410256,4495.384615,4211.794871,4437.948717,4192.307692,4225.128205,4482.051282,4178.461538,4627.692307,3977.948718,4052.307692
72,4390.256410,4516.410256,4523.076923,4258.461538,4499.487179,4212.820512,4441.538461,4193.846153,4228.717948,4484.615384,4178.974358,4633.333333,3977.435898,4055.897435
73,4393.846153,4522.051282,4525.641025,4260.512820,4500.000000,4209.230769,4444.102564,4195.897435,4234.871794,4495.384615,4187.692307,4637.435897,3981.538462,4060.000000
74,4398.974358,4526.153846,4530.256410,4263.076923,4495.384615,4209.743589,4444.102564,4200.512820,4237.948717,4501.025641,4194.358974,4638.974358,3987.179488,4064.615384
75,4406.666666,4529.743589,4538.974358,4271.794871,4497.948717,4214.358974,4447.179487,4208.717948,4243.589743,4498.461538,4194.871794,4646.666666,3991.282052,4070.769230
76,4409.230769,4526.153846,4541.025641,4275.897435,4502.564102,4211.282051,4446.153846,4208.717948,4242.564102,4495.384615,4194.871794,4653.333333,3988.205129,4070.256410
77,4403.076923,4519.487179,4536.410256,4267.179487,4496.410256,4205.641025,4440.000000,4203.589743,4235.897435,4497.435897,4193.333333,4650.769230,3984.102565,4062.051282
78,4403.589743,4523.076923,4535.384615,4261.538461,4493.333333,4210.256410,4440.000000,4206.666666,4236.923076,4498.974358,4195.897435,4649.743589,3989.743590,4064.615384
79,4409.230769,4527.179487,4536.923076,4263.589743,4496.410256,4211.282051,4443.589743,4207.692307,4240.000000,4498.461538,4204.102564,4653.846153,3996.410257,4071.282051
80,4408.717948,4525.641025,4538.974358,4260.512820,4493.846153,4206.153846,4442.051282,4205.128205,4240.000000,4502.051282,4209.230769,4654.358974,3994.871795,4066.153846
81,4404.615384,4523.589743,4536.923076,4256.410256,4492.820512,4207.692307,4442.564102,4208.717948,4242.564102,4506.666666,4207.692307,4649.230769,3996.923077,4060.512820
82,4401.025641,4519.487179,4528.205128,4255.384615,4494.871794,4208.205128,4443.589743,4209.230769,4244.102564,4503.076923,4203.076923,4642.564102,4000.512820,4057.948717
83,4399.487179,4512.820512,4520.000000,4253.333333,4490.769230,4203.076923,4439.487179,4204.102564,4239.487179,4500.512820,4201.538461,4638.461538,3993.846154,4052.820512
84,4402.051282,4513.333333,4525.641025,4255.384615,4492.820512,4206.153846,4443.589743,4205.128205,4238.461538,4507.179487,4206.666666,4643.589743,3990.769231,4054.358974
85,4409.743589,4524.102564,4536.410256,4261.538461,4504.102564,4217.435897,4451.794871,4212.820512,4244.615384,4509.230769,4213.333333,4651.282051,3997.948718,4064.102564
86,4409.743589,4526.153846,4537.435897,4260.000000,4503.589743,4214.358974,4450.769230,4213.333333,4245.128205,4502.051282,4212.820512,4649.230769,3998.461539,4065.128205
87,4404.615384,4517.435897,4535.384615,4258.974358,4497.435897,4210.256410,4445.128205,4210.256410,4237.948717,4497.948717,4209.743589,4643.076923,3991.794872,4058.461538
88,4408.717948,4522.564102,4537.435897,4266.153846,4503.589743,4218.461538,4448.717948,4213.846153,4242.051282,4504.102564,4210.256410,4646.153846,3991.282052,4060.512820
89,4412.307692,4535.897435,4541.025641,4271.794871,4509.230769,4222.051282,4455.384615,4214.871794,4248.717948,4507.179487,4207.179487,4650.769230,3996.410257,4064.615384
90,4404.615384,4526.666666,4537.435897,4268.205128,4504.102564,4214.871794,4450.256410,4204.615384,4236.410256,4497.435897,4198.974358,4644.615384,3992.307693,4057.948717
91,4393.846153,4508.717948,4526.666666,4259.487179,4493.846153,4208.717948,4440.000000,4192.307692,4221.538461,4481.025641,4190.769230,4633.333333,3981.025642,4045.128205
92,4391.282051,4510.769230,4520.512820,4253.333333,4486.666666,4208.205128,4437.948717,4189.230769,4222.051282,4481.538461,4184.615384,4628.717948,3977.435898,4040.000000
93,4394.871794,4516.923076,4522.564102,4255.384615,4490.256410,4209.743589,4441.025641,4196.923076,4230.256410,4495.897435,4185.128205,4632.307692,3982.051283,4042.051282
94,4397.435897,4516.410256,4525.641025,4259.487179,4496.923076,4208.717948,4440.512820,4201.025641,4234.358974,4493.333333,4194.358974,4634.871794,3983.076924,4045.641025
95,4397.435897,4519.487179,4525.641025,4257.948717,4495.384615,4205.128205,4439.487179,4197.948717,4235.384615,4486.153846,4202.564102,4634.871794,3978.974359,4047.179487
96,4394.871794,4518.974358,4523.589743,4256.923076,4494.871794,4206.666666,4441.538461,4195.384615,4233.333333,4492.820512,4199.487179,4632.820512,3976.410257,4045.128205
97,4397.435897,4517.948717,4521.025641,4261.538461,4499.487179,4211.794871,4441.025641,4196.923076,4233.846153,4498.974358,4194.358974,4630.769230,3981.025642,4044.102564
98,4402.051282,4521.538461,4522.564102,4262.051282,4499.487179,4210.769230,4441.538461,4201.538461,4235.897435,4496.410256,4199.487179,4627.692307,3993.846154,4046.153846
99,4396.923076,4521.025641,4518.974358,4255.384615,4498.461538,4207.692307,4442.564102,4200.512820,4231.282051,4494.358974,4201.025641,4622.564102,3997.435898,4045.641025
100,4389.230769,4515.897435,4511.282051,4251.282051,4496.923076,4205.641025,4436.410256,4193.333333,4223.589743,4491.794871,4194.871794,4619.487179,3983.589744,4041.025641
101,4393.333333,4521.025641,4516.923076,4257.948717,4497.435897,4206.153846,4433.333333,4190.769230,4227.692307,4491.282051,4201.538461,4625.641025,3983.076924,4044.102564
102,4404.615384,4529.230769,4527.692307,4263.076923,4499.487179,4207.179487,4438.974358,4196.410256,4235.897435,4498.974358,4212.820512,4635.384615,3998.974359,4051.794871
103,4407.692307,4525.128205,4524.615384,4259.487179,4495.897435,4206.666666,4438.974358,4199.487179,4230.769230,4497.435897,4210.256410,4636.410256,4001.538461,4051.794871
104,4405.128205,4519.487179,4522.564102,4257.948717,4492.307692,4206.666666,4434.358974,4197.948717,4225.128205,4492.820512,4208.205128,4634.358974,3989.743590,4050.769230
105,4407.179487,4518.974358,4534.871794,4263.589743,4494.871794,4207.692307,4439.487179,4197.948717,4227.179487,4491.794871,4215.384615,4637.948717,3987.692308,4051.794871
106,4406.153846,4516.923076,4538.974358,4267.692307,4496.923076,4208.717948,4446.153846,4198.461538,4225.128205,4486.153846,4218.974358,4639.487179,3988.205129,4049.230769
107,4403.589743,4516.410256,4533.846153,4264.615384,4496.410256,4207.692307,4443.076923,4201.538461,4223.076923,4486.666666,4215.384615,4638.974358,3984.102565,4047.179487
108,4410.256410,4521.538461,4534.871794,4263.589743,4501.025641,4207.179487,4441.025641,4202.051282,4226.153846,4495.384615,4211.282051,4641.025641,3989.743590,4048.205128
109,4416.923076,4527.692307,4538.974358,4266.666666,4503.076923,4208.717948,4440.000000,4198.974358,4229.230769,4495.897435,4213.846153,4644.102564,3993.333334,4048.205128
110,4412.307692,4527.692307,4538.461538,4265.641025,4495.384615,4209.230769,4441.538461,4201.025641,4225.641025,4486.666666,4218.461538,4643.589743,3982.564103,4046.666666
111,4409.230769,4522.564102,4535.384615,4260.000000,4494.358974,4205.641025,4444.615384,4204.615384,4225.641025,4485.641025,4217.948717,4643.076923,3980.512821,4047.179487
112,4414.871794,4520.000000,4536.410256,4258.974358,4501.538461,4206.666666,4444.102564,4205.641025,4233.333333,4497.435897,4221.025641,4647.179487,3989.230770,4048.717948
113,4418.974358,4522.564102,4538.974358,4264.615384,4504.615384,4210.769230,4444.615384,4208.717948,4240.000000,4507.179487,4228.205128,4651.282051,3990.769231,4053.333333
114,4418.974358,4524.102564,4538.974358,4267.179487,4500.000000,4210.769230,4446.153846,4212.820512,4238.461538,4502.051282,4227.692307,4650.769230,3987.692308,4055.384615
115,4420.000000,4528.717948,4537.435897,4267.692307,4499.487179,4208.717948,4445.128205,4209.743589,4236.410256,4495.384615,4227.692307,4651.282051,3991.282052,4057.435897
116,4420.512820,4527.179487,4537.435897,4263.589743,4504.102564,4207.692307,4445.641025,4209.743589,4240.512820,4500.000000,4236.923076,4655.384615,3998.974359,4063.076923
117,4416.923076,4512.307692,4536.923076,4253.333333,4500.000000,4206.666666,4445.128205,4211.794871,4237.435897,4501.025641,4235.897435,4651.282051,3997.435898,4055.384615
118,4415.384615,4513.846153,4536.410256,4256.410256,4493.333333,4207.179487,4441.538461,4211.282051,4231.282051,4493.846153,4225.641025,4644.615384,3985.641026,4044.615384
119,4422.564102,4534.358974,4538.974358,4271.794871,4497.435897,4211.794871,4444.102564,4213.333333,4236.923076,4497.948717,4230.256410,4647.179487,3986.153847,4053.846153
120,4428.717948,4542.564102,4538.974358,4274.871794,4504.102564,4212.307692,4447.179487,4214.871794,4245.128205,4510.769230,4243.589743,4653.846153,4003.589743,4064.615384
121,4428.205128,4533.846153,4538.461538,4270.769230,4506.666666,4209.230769,4441.025641,4213.333333,4244.615384,4510.769230,4244.615384,4654.871794,4009.230769,4062.051282
122,4424.102564,4528.717948,4535.384615,4269.230769,4505.128205,4208.205128,4436.923076,4207.692307,4233.846153,4497.948717,4232.820512,4647.692307,3994.871795,4054.358974
123,4417.948717,4529.230769,4529.743589,4265.641025,4498.461538,4207.179487,4441.538461,4202.051282,4229.743589,4493.333333,4225.641025,4641.025641,3982.564103,4045.641025
124,4418.461538,4529.743589,4532.820512,4264.615384,4496.410256,4208.717948,4445.128205,4203.589743,4234.358974,4498.974358,4231.794871,4644.615384,3983.589744,4044.102564
125,4423.076923,4530.769230,4540.512820,4267.179487,4501.538461,4209.230769,4443.589743,4206.666666,4233.333333,4495.384615,4238.461538,4650.256410,3986.666667,4052.307692
126,4425.128205,4530.256410,4541.025641,4269.230769,4504.102564,4208.717948,4444.102564,4206.153846,4232.307692,4491.794871,4234.358974,4650.256410,3987.692308,4053.846153
127,4424.102564,4531.282051,4538.974358,4271.282051,4502.564102,4209.743589,4446.666666,4209.230769,4235.384615,4493.846153,4230.769230,4647.179487,3990.256411,4049.743589
128,4420.000000,4530.769230,4539.487179,4267.179487,4501.025641,4208.205128,4444.615384,4206.666666,4230.769230,4484.615384,4224.615384,4643.589743,3989.743590,4045.128205
129,4415.384615,4525.128205,4536.923076,4264.102564,4496.410256,4203.076923,4441.025641,4198.461538,4221.025641,4478.461538,4218.461538,4645.128205,3983.589744,4040.000000
130,4418.974358,4526.666666,4537.948717,4269.230769,4497.948717,4204.615384,4441.538461,4200.000000,4221.025641,4489.743589,4227.692307,4651.794871,3985.128206,4043.589743
131,4424.102564,4531.794871,4547.179487,4271.282051,4504.102564,4212.307692,4445.641025,4207.692307,4229.743589,4496.410256,4241.025641,4655.384615,3987.692308,4051.794871
132,4422.564102,4531.282051,4547.179487,4268.717948,4505.641025,4214.358974,4447.692307,4211.794871,4240.000000,4491.794871,4242.051282,4657.948717,3985.641026,4051.794871
133,4421.538461,4525.641025,4540.000000,4268.205128,4503.589743,4210.769230,4445.128205,4210.769230,4242.051282,4492.307692,4236.410256,4660.000000,3986.666667,4048.205128
134,4425.641025,4526.153846,4543.589743,4266.153846,4501.025641,4208.205128,4444.102564,4207.692307,4236.923076,4497.435897,4236.923076,4657.948717,3993.846154,4050.769230
135,4429.743589,4532.820512,4549.230769,4264.615384,4501.538461,4207.179487,4444.102564,4207.179487,4240.512820,4501.025641,4242.564102,4660.512820,3995.897436,4056.410256
136,4430.769230,4534.871794,4544.102564,4266.666666,4503.076923,4205.641025,4439.487179,4207.179487,4240.512820,4497.948717,4244.102564,4663.076923,3993.846154,4058.461538
137,4427.692307,4531.282051,4537.948717,4268.717948,4500.512820,4205.128205,4437.948717,4203.076923,4230.769230,4489.230769,4243.076923,4654.871794,3996.410257,4057.435897
138,4424.615384,4529.230769,4538.974358,4268.205128,4497.435897,4207.179487,4443.589743,4201.025641,4231.794871,4488.205128,4242.051282,4651.282051,3997.948718,4052.820512
139,4423.076923,4530.256410,4535.897435,4263.076923,4500.512820,4208.205128,4443.076923,4206.153846,4238.974358,4494.871794,4240.512820,4655.897435,3991.794872,4047.179487
140,4421.538461,4530.769230,4533.333333,4258.974358,4503.589743,4207.179487,4441.025641,4209.230769,4239.487179,4500.512820,4240.512820,4653.333333,3986.666667,4045.128205
141,4419.487179,4530.256410,4532.820512,4262.564102,4502.051282,4206.153846,4444.102564,4206.153846,4236.923076,4497.948717,4240.512820,4649.230769,3988.205129,4045.641025
142,4417.948717,4528.205128,4525.128205,4265.641025,4502.564102,4206.153846,4443.076923,4198.461538,4234.358974,4488.205128,4237.435897,4649.230769,3994.358975,4043.589743
143,4418.461538,4525.641025,4525.128205,4262.564102,4502.051282,4206.153846,4438.974358,4195.897435,4231.282051,4487.692307,4234.871794,4648.717948,3996.410257,4041.025641
144,4420.000000,4528.205128,4531.282051,4259.487179,4500.512820,4206.666666,4438.974358,4200.000000,4233.333333,4497.948717,4238.974358,4647.692307,3995.384616,4043.589743
145,4418.461538,4525.128205,4526.666666,4256.923076,4500.000000,4201.025641,4438.974358,4198.461538,4231.794871,4492.307692,4237.948717,4645.641025,3991.282052,4041.025641
146,4414.358974,4518.461538,4519.487179,4252.820512,4494.871794,4195.897435,4432.307692,4191.282051,4222.051282,4477.435897,4228.205128,4638.974358,3983.076924,4030.256410
147,4414.358974,4520.512820,4523.589743,4253.846153,4490.769230,4198.461538,4429.230769,4189.743589,4218.974358,4478.974358,4226.153846,4633.846153,3977.435898,4029.230769
148,4411.794871,4521.538461,4524.102564,4257.435897,4492.307692,4196.923076,4429.230769,4190.256410,4221.538461,4483.076923,4227.692307,4633.846153,3975.897436,4033.333333
149,4411.282051,4519.487179,4521.538461,4255.897435,4494.358974,4192.820512,4427.179487,4188.717948,4222.051282,4480.000000,4224.615384,4636.923076,3978.461539,4032.307692
150,4420.000000,4525.641025,4532.307692,4256.923076,4495.897435,4194.871794,4432.307692,4191.794871,4225.641025,4488.717948,4230.769230,4644.615384,3987.179488,4038.461538
151,4424.102564,4531.794871,4539.487179,4260.512820,4498.461538,4198.974358,4438.461538,4195.897435,4231.282051,4496.410256,4243.076923,4651.282051,3997.435898,4045.641025
152,4420.512820,4528.205128,4532.307692,4262.051282,4503.076923,4203.076923,4438.461538,4196.923076,4234.358974,4489.230769,4242.051282,4651.282051,3998.461539,4041.538461
153,4420.512820,4529.743589,4531.282051,4262.051282,4505.641025,4207.692307,4437.948717,4200.512820,4235.897435,4485.128205,4234.871794,4648.205128,3991.282052,4041.025641
154,4424.102564,4532.820512,4536.410256,4257.435897,4502.564102,4205.641025,4440.512820,4201.025641,4235.897435,4495.897435,4229.743589,4648.717948,3985.128206,4046.666666
155,4425.128205,4529.743589,4536.410256,4253.846153,4496.923076,4204.615384,4441.025641,4201.025641,4238.461538,4505.128205,4225.128205,4652.820512,3990.256411,4049.230769
156,4425.641025,4530.769230,4537.435897,4258.974358,4497.435897,4210.256410,4443.076923,4204.102564,4241.025641,4496.923076,4223.589743,4653.846153,4002.051282,4056.923076
157,4422.564102,4530.256410,4538.461538,4262.051282,4498.461538,4209.743589,4444.102564,4199.487179,4232.820512,4481.025641,4217.948717,4652.307692,3998.461539,4063.076923
158,4416.410256,4527.179487,4536.923076,4255.384615,4495.384615,4204.102564,4438.461538,4189.230769,4223.589743,4476.923076,4203.589743,4651.282051,3983.076924,4059.487179
159,4415.897435,4528.717948,4535.897435,4251.282051,4496.410256,4204.615384,4438.461538,4191.282051,4225.641025,4483.589743,4198.974358,4650.256410,3978.461539,4060.000000
160,4414.358974,4530.256410,4530.769230,4253.846153,4496.923076,4208.717948,4444.102564,4196.410256,4231.282051,4482.564102,4207.692307,4647.692307,3981.025642,4064.615384
161,4410.256410,4527.692307,4530.769230,4256.410256,4494.871794,4210.256410,4444.102564,4194.358974,4233.846153,4480.000000,4210.256410,4645.641025,3980.000000,4065.641025
162,4411.794871,4529.743589,4535.897435,4257.435897,4498.461538,4208.717948,4444.615384,4202.051282,4238.461538,4493.846153,4205.641025,4647.692307,3981.538462,4067.179487
163,4411.282051,4526.666666,4529.230769,4250.256410,4494.871794,4206.666666,4445.641025,4205.128205,4237.948717,4498.461538,4200.512820,4646.666666,3984.615385,4066.666666
164,4403.076923,4518.461538,4520.000000,4244.615384,4485.641025,4206.153846,4442.564102,4197.948717,4232.820512,4486.666666,4193.333333,4640.512820,3980.000000,4062.051282
165,4401.025641,4524.102564,4524.102564,4250.256410,4490.769230,4210.769230,4446.153846,4202.051282,4238.461538,4487.692307,4191.794871,4639.487179,3979.487180,4062.564102
166,4406.666666,4530.256410,4526.153846,4253.846153,4500.512820,4212.307692,4453.846153,4209.743589,4244.615384,4498.461538,4195.384615,4645.128205,3984.102565,4065.128205
167,4407.179487,4527.179487,4524.615384,4251.794871,4497.948717,4209.743589,4452.820512,4208.205128,4242.051282,4499.487179,4196.410256,4647.179487,3981.538462,4063.076923
168,4404.102564,4528.205128,4527.179487,4252.820512,4494.358974,4209.230769,4450.769230,4203.076923,4242.051282,4493.333333,4194.358974,4643.589743,3977.948718,4062.051282
169,4402.051282,4532.820512,4527.179487,4253.846153,4495.384615,4208.717948,4450.769230,4201.538461,4243.589743,4494.358974,4193.846153,4641.538461,3980.512821,4064.102564
170,4401.538461,4529.230769,4523.076923,4252.820512,4495.384615,4208.205128,4447.179487,4201.025641,4244.102564,4498.461538,4195.897435,4644.102564,3984.615385,4066.666666
171,4403.589743,4522.051282,4526.153846,4256.410256,4497.435897,4210.769230,4446.153846,4205.641025,4246.666666,4502.051282,4201.025641,4649.743589,3984.102565,4067.692307
172,4402.564102,4520.512820,4531.282051,4255.384615,4496.410256,4210.256410,4449.743589,4209.230769,4245.641025,4502.051282,4201.538461,4650.769230,3980.000000,4065.641025
173,4393.333333,4517.435897,4526.153846,4242.564102,4486.153846,4200.512820,4444.102564,4202.051282,4238.974358,4497.948717,4191.794871,4645.128205,3978.461539,4061.538461
174,4389.743589,4517.948717,4523.076923,4238.974358,4480.512820,4195.897435,4437.948717,4196.410256,4237.435897,4493.846153,4187.179487,4645.641025,3981.025642,4061.025641
175,4400.000000,4527.179487,4534.358974,4251.282051,4487.692307,4205.641025,4444.615384,4202.564102,4241.025641,4497.948717,4197.948717,4655.897435,3985.128206,4066.666666
176,4409.230769,4529.743589,4543.589743,4258.461538,4493.333333,4210.256410,4448.717948,4207.692307,4241.025641,4503.076923,4208.717948,4663.076923,3986.666667,4071.282051
177,4403.589743,4520.512820,4538.974358,4253.333333,4488.717948,4202.564102,4445.128205,4201.025641,4238.461538,4498.461538,4204.615384,4658.974358,3988.205129,4069.230769
178,4399.487179,4520.000000,4536.410256,4249.230769,4484.102564,4200.000000,4443.589743,4195.897435,4238.461538,4494.358974,4197.435897,4655.384615,3989.230770,4067.179487
179,4403.076923,4528.717948,4541.538461,4252.820512,4490.256410,4205.128205,4444.615384,4199.487179,4239.487179,4496.410256,4196.923076,4659.487179,3986.153847,4068.205128
180,4403.076923,4529.743589,4537.435897,4256.410256,4497.948717,4205.128205,4445.128205,4197.948717,4239.487179,4492.820512,4195.384615,4657.948717,3982.564103,4064.615384
181,4399.487179,4525.128205,4530.769230,4254.358974,4491.794871,4201.538461,4444.615384,4192.307692,4235.897435,4484.615384,4191.282051,4649.743589,3981.538462,4060.000000
182,4400.512820,4524.102564,4533.846153,4252.307692,4486.153846,4202.564102,4444.615384,4197.948717,4233.846153,4485.641025,4193.333333,4648.717948,3980.512821,4062.564102
183,4406.666666,4528.205128,4540.000000,4257.948717,4493.846153,4207.692307,4450.769230,4206.153846,4240.000000,4493.333333,4202.564102,4655.897435,3978.974359,4066.153846
184,4407.179487,4532.307692,4537.948717,4263.076923,4498.461538,4210.256410,4457.948717,4203.076923,4245.128205,4497.948717,4206.153846,4656.923076,3985.128206,4064.615384
185,4404.102564,4529.743589,4536.923076,4262.564102,4496.410256,4210.769230,4457.948717,4201.025641,4242.051282,4500.000000,4205.128205,4653.333333,3995.384616,4065.128205
186,4402.051282,4528.205128,4536.410256,4261.025641,4500.000000,4212.820512,4457.435897,4203.589743,4239.487179,4499.487179,4204.102564,4649.230769,3994.871795,4066.666666
187,4398.461538,4530.769230,4526.666666,4256.410256,4500.000000,4209.743589,4454.358974,4198.974358,4240.512820,4500.000000,4200.000000,4645.128205,3986.153847,4063.589743
188,4396.923076,4531.282051,4521.538461,4251.282051,4494.871794,4204.615384,4452.820512,4197.435897,4238.974358,4498.974358,4195.897435,4643.589743,3984.102565,4059.487179
189,4396.923076,4527.179487,4525.128205,4252.307692,4497.948717,4204.615384,4454.358974,4200.000000,4234.358974,4491.282051,4194.358974,4644.102564,3982.051283,4056.923076
190,4396.923076,4523.589743,4523.589743,4256.923076,4497.948717,4206.153846,4452.307692,4192.820512,4233.846153,4489.230769,4198.461538,4646.153846,3977.435898,4056.923076
191,4401.025641,4526.153846,4524.102564,4257.948717,4493.333333,4204.102564,4447.179487,4189.743589,4238.461538,4499.487179,4206.666666,4648.717948,3983.076924,4061.025641
192,4402.564102,4529.743589,4535.897435,4254.871794,4494.358974,4201.538461,4444.615384,4194.358974,4235.897435,4497.948717,4206.153846,4650.256410,3987.179488,4061.538461
193,4398.461538,4528.717948,4535.897435,4252.820512,4497.435897,4203.589743,4444.615384,4194.358974,4228.205128,4489.230769,4197.435897,4649.230769,3978.974359,4056.410256
194,4399.487179,4525.641025,4527.179487,4254.871794,4496.410256,4207.179487,4449.230769,4196.923076,4231.282051,4494.871794,4199.487179,4649.230769,3981.538462,4056.410256
195,4403.076923,4526.153846,4529.743589,4256.410256,4496.410256,4207.692307,4452.820512,4201.025641,4239.487179,4500.000000,4206.666666,4651.282051,3988.205129,4058.461538
196,4397.435897,4521.025641,4531.282051,4252.307692,4497.435897,4207.179487,4449.230769,4202.564102,4239.487179,4494.871794,4206.153846,4648.717948,3980.512821,4055.897435
197,4400.000000,4518.461538,4532.307692,4254.871794,4496.923076,4207.179487,4449.743589,4208.717948,4241.538461,4504.102564,4208.717948,4651.282051,3982.564103,4060.512820
198,4418.974358,4527.692307,4541.025641,4268.205128,4501.538461,4209.230769,4453.333333,4214.871794,4250.256410,4520.512820,4214.358974,4664.102564,4003.589743,4076.923076
199,4418.974358,4527.692307,4543.589743,4267.692307,4502.564102,4207.179487,4448.717948,4202.564102,4244.615384,4510.769230,4209.230769,4666.153846,4005.128205,4077.948717
200,4401.538461,4517.435897,4537.948717,4252.820512,4493.333333,4202.051282,4444.102564,4187.179487,4232.307692,4493.846153,4204.615384,4654.358974,3986.666667,4060.000000
201,4397.435897,4520.000000,4533.846153,4253.333333,4489.743589,4203.076923,4445.641025,4192.307692,4233.333333,4495.897435,4209.743589,4651.794871,3981.538462,4054.358974
202,4403.589743,4528.717948,4529.743589,4259.487179,4494.871794,4208.205128,4446.153846,4196.923076,4238.461538,4507.179487,4209.230769,4652.820512,3982.051283,4061.538461
203,4403.589743,4526.153846,4524.102564,4255.897435,4497.948717,4208.205128,4445.641025,4194.358974,4237.948717,4512.307692,4204.102564,4647.179487,3981.538462,4060.000000
204,4404.102564,4527.692307,4525.641025,4257.435897,4500.512820,4206.153846,4445.641025,4201.025641,4240.000000,4509.743589,4206.666666,4649.743589,3995.384616,4057.948717
205,4407.692307,4534.871794,4527.179487,4268.717948,4503.589743,4208.205128,4445.641025,4205.128205,4242.564102,4504.102564,4213.333333,4656.923076,4003.589743,4061.538461
206,4403.589743,4532.307692,4523.076923,4268.205128,4501.538461,4206.666666,4444.615384,4194.871794,4237.435897,4501.538461,4213.846153,4652.820512,3990.256411,4059.487179
207,4400.512820,4525.641025,4522.564102,4257.435897,4498.974358,4201.538461,4444.102564,4189.743589,4233.333333,4502.564102,4209.230769,4648.717948,3986.666667,4056.410256
208,4405.641025,4526.153846,4530.769230,4255.384615,4500.000000,4203.589743,4446.153846,4196.410256,4236.410256,4505.128205,4209.230769,4654.871794,3998.974359,4060.000000
209,4408.717948,4529.743589,4533.846153,4261.025641,4500.000000,4205.128205,4446.153846,4196.923076,4239.487179,4508.205128,4212.307692,4661.025641,3997.948718,4062.564102
210,4407.179487,4529.230769,4530.769230,4265.128205,4497.435897,4202.564102,4442.564102,4196.410256,4238.461538,4505.128205,4214.871794,4657.948717,3989.230770,4061.538461
211,4410.256410,4532.307692,4533.333333,4269.743589,4501.025641,4208.205128,4449.230769,4205.128205,4238.974358,4505.128205,4222.564102,4652.820512,3996.923077,4064.102564
212,4413.846153,4537.435897,4535.897435,4274.358974,4508.205128,4215.384615,4459.487179,4207.692307,4241.538461,4511.282051,4228.205128,4652.307692,4003.589743,4063.589743
213,4409.743589,4534.871794,4530.769230,4270.256410,4506.666666,4210.769230,4451.794871,4197.435897,4237.435897,4505.641025,4218.974358,4650.769230,3997.435898,4057.948717
214,4406.666666,4530.256410,4525.641025,4264.102564,4500.512820,4200.512820,4438.974358,4191.794871,4227.692307,4496.410256,4212.307692,4649.743589,3994.871795,4057.948717
215,4408.717948,4531.282051,4524.615384,4266.666666,4500.512820,4198.974358,4437.435897,4195.384615,4225.128205,4495.897435,4221.025641,4650.256410,3995.384616,4058.974358
216,4407.179487,4533.333333,4524.615384,4270.256410,4504.102564,4204.102564,4443.076923,4192.820512,4226.666666,4491.282051,4225.641025,4649.230769,3988.717949,4057.435897
217,4398.974358,4528.205128,4524.102564,4263.076923,4498.974358,4201.025641,4441.538461,4184.615384,4221.538461,4481.538461,4214.871794,4645.128205,3984.615385,4052.307692
218,4393.846153,4518.461538,4520.000000,4250.256410,4488.205128,4191.794871,4433.846153,4183.589743,4215.897435,4483.589743,4206.666666,4637.435897,3987.179488,4046.153846
219,4399.487179,4515.897435,4517.435897,4248.205128,4487.692307,4191.794871,4433.846153,4190.256410,4220.512820,4493.846153,4213.333333,4637.435897,3988.717949,4048.717948
220,4407.692307,4523.076923,4527.179487,4257.948717,4495.897435,4201.025641,4443.076923,4192.820512,4226.153846,4498.974358,4224.615384,4647.179487,3992.820513,4058.461538
221,4413.333333,4532.307692,4535.384615,4268.717948,4500.000000,4204.615384,4446.153846,4192.820512,4230.769230,4498.461538,4229.230769,4655.897435,4000.512820,4064.102564
222,4414.871794,4533.846153,4530.769230,4272.307692,4499.487179,4202.051282,4441.025641,4197.435897,4235.897435,4495.384615,4225.641025,4655.384615,3996.410257,4059.487179
223,4414.871794,4527.692307,4529.230769,4265.128205,4501.538461,4203.076923,4442.051282,4201.025641,4237.948717,4493.846153,4231.794871,4655.384615,3991.794872,4057.435897
224,4413.846153,4526.666666,4536.923076,4262.051282,4503.589743,4204.102564,4446.153846,4198.461538,4238.461538,4496.410256,4240.000000,4658.974358,3996.923077,4062.564102
225,4408.717948,4529.743589,4532.307692,4265.128205,4501.025641,4200.000000,4443.589743,4194.871794,4235.897435,4496.923076,4231.282051,4657.435897,3997.948718,4058.974358
226,4405.641025,4529.230769,4522.051282,4259.487179,4498.461538,4198.461538,4435.897435,4191.794871,4228.205128,4492.307692,4222.564102,4651.282051,3993.333334,4050.256410
227,4406.153846,4526.666666,4523.589743,4252.307692,4498.461538,4198.461538,4429.230769,4184.102564,4220.000000,4483.589743,4229.230769,4649.230769,3993.333334,4051.282051
228,4404.102564,4523.076923,4525.641025,4253.846153,4492.820512,4190.769230,4426.666666,4181.025641,4216.410256,4486.153846,4230.769230,4651.282051,3992.820513,4052.820512
229,4403.076923,4517.435897,4523.076923,4253.333333,4485.641025,4188.205128,4428.717948,4187.692307,4220.512820,4497.948717,4223.589743,4649.230769,3986.666667,4045.641025
230,4407.179487,4517.435897,4524.102564,4249.743589,4489.230769,4193.333333,4429.230769,4195.384615,4233.333333,4496.923076,4224.102564,4648.717948,3988.205129,4045.128205
231,4409.230769,4523.076923,4525.128205,4255.897435,4495.897435,4194.871794,4429.743589,4204.102564,4242.564102,4490.256410,4229.743589,4653.846153,3994.871795,4053.846153
232,4407.692307,4522.564102,4526.153846,4263.589743,4495.897435,4196.923076,4440.000000,4206.153846,4236.410256,4490.256410,4230.769230,4655.384615,3990.256411,4054.358974
233,4408.717948,4529.230769,4525.641025,4265.641025,4498.461538,4200.512820,4441.025641,4195.897435,4225.128205,4486.153846,4225.128205,4649.743589,3981.538462,4048.205128
234,4410.769230,4537.948717,4522.564102,4266.153846,4501.538461,4196.410256,4431.794871,4187.692307,4223.076923,4481.538461,4218.974358,4643.076923,3984.102565,4047.179487
235,4412.820512,4534.358974,4523.589743,4266.153846,4495.897435,4193.846153,4433.333333,4192.307692,4227.692307,4491.282051,4223.589743,4644.615384,3996.410257,4051.794871
236,4417.948717,4536.923076,4525.641025,4268.717948,4496.410256,4198.461538,4438.461538,4195.897435,4230.769230,4500.000000,4235.384615,4650.769230,4002.564102,4056.923076
237,4418.974358,4544.102564,4524.102564,4268.717948,4500.512820,4199.487179,4435.384615,4192.820512,4228.205128,4493.333333,4241.025641,4648.717948,3992.307693,4054.871794
238,4410.256410,4535.897435,4521.025641,4260.000000,4493.333333,4193.846153,4431.282051,4191.794871,4225.128205,4490.769230,4235.384615,4641.538461,3984.615385,4047.179487
239,4407.692307,4525.641025,4519.487179,4255.384615,4488.205128,4192.820512,4431.282051,4195.384615,4228.717948,4497.435897,4228.717948,4641.538461,3993.333334,4046.153846
240,4414.871794,4528.717948,4521.538461,4257.948717,4494.871794,4197.435897,4432.820512,4200.000000,4236.923076,4501.025641,4232.820512,4648.205128,4003.589743,4051.282051
241,4414.358974,4528.205128,4523.589743,4258.461538,4498.461538,4195.897435,4434.358974,4197.435897,4237.948717,4495.897435,4236.923076,4653.333333,3996.410257,4050.256410
242,4411.794871,4523.076923,4522.051282,4258.974358,4493.846153,4191.282051,4430.769230,4191.794871,4229.743589,4486.666666,4229.230769,4649.743589,3984.615385,4046.153846
243,4414.358974,4521.538461,4521.538461,4259.487179,4493.333333,4190.769230,4426.666666,4189.743589,4223.076923,4482.564102,4221.538461,4643.589743,3984.102565,4046.153846
244,4415.897435,4523.589743,4525.128205,4255.897435,4493.846153,4189.743589,4429.743589,4190.256410,4224.102564,4484.615384,4225.641025,4646.666666,3987.692308,4046.666666
245,4413.333333,4525.641025,4526.153846,4252.820512,4486.666666,4186.666666,4428.205128,4188.717948,4225.641025,4485.641025,4229.230769,4652.820512,3984.102565,4048.205128
246,4415.384615,4525.641025,4525.128205,4255.897435,4487.179487,4188.205128,4425.128205,4186.666666,4225.641025,4486.153846,4225.641025,4652.820512,3980.000000,4050.769230
247,4421.025641,4528.717948,4525.128205,4261.538461,4496.410256,4193.333333,4426.153846,4190.256410,4228.205128,4489.230769,4224.102564,4651.794871,3986.666667,4049.230769
248,4418.974358,4530.769230,4524.102564,4260.000000,4495.897435,4192.307692,4425.641025,4191.282051,4228.205128,4486.153846,4225.128205,4649.230769,3989.230770,4044.102564
249,4410.769230,4526.153846,4522.564102,4255.897435,4490.256410,4188.717948,4424.615384,4189.230769,4223.589743,4482.051282,4224.102564,4648.205128,3983.589744,4040.512820
250,4410.256410,4525.641025,4520.000000,4258.461538,4492.307692,4189.743589,4427.179487,4189.230769,4224.102564,4483.589743,4225.641025,4648.717948,3983.076924,4040.000000
251,4419.487179,4531.794871,4526.153846,4258.974358,4495.897435,4192.307692,4429.230769,4190.769230,4232.307692,4487.692307,4230.256410,4650.256410,3989.743590,4046.666666
252,4426.153846,4534.358974,4534.871794,4256.923076,4495.897435,4194.871794,4431.794871,4194.358974,4233.846153,4490.769230,4233.846153,4654.871794,3997.435898,4053.846153
253,4421.538461,4529.743589,4529.230769,4258.974358,4495.897435,4193.333333,4433.846153,4193.333333,4227.692307,4489.230769,4229.230769,4652.820512,3994.358975,4047.179487
254,4412.307692,4524.615384,4520.000000,4261.538461,4492.307692,4190.769230,4432.820512,4187.692307,4224.615384,4482.564102,4221.025641,4640.512820,3982.051283,4039.487179
255,4409.230769,4522.051282,4521.538461,4258.461538,4492.820512,4191.282051,4435.384615,4185.128205,4224.102564,4478.974358,4216.410256,4638.461538,3977.435898,4041.538461
256,4409.230769,4518.974358,4523.589743,4250.769230,4495.897435,4189.743589,4432.307692,4184.615384,4221.025641,4477.435897,4206.153846,4641.025641,3976.410257,4041.025641
257,4407.692307,4520.000000,4519.487179,4251.794871,4488.205128,4187.179487,4425.128205,4183.589743,4221.025641,4475.384615,4196.923076,4637.435897,3973.333334,4038.461538
258,4408.717948,4523.589743,4522.051282,4258.974358,4481.538461,4191.282051,4429.230769,4186.666666,4223.589743,4477.435897,4202.564102,4644.102564,3973.846154,4046.153846
259,4413.846153,4526.666666,4532.307692,4258.974358,4489.743589,4197.435897,4438.461538,4192.307692,4223.589743,4482.051282,4211.794871,4656.410256,3976.923077,4057.435897
