,AF3,F7,F3,FC5,T7,P7,O1,O2,P8,T8,FC6,F4,F8,AF4
0,4424.102564,4529.743589,4515.897435,4267.692307,4437.948717,4283.076923,4433.846153,4209.230769,4232.820512,4530.769230,4184.102564,4644.102564,4012.307692,4012.820512
1,4422.564102,4524.615384,4511.794871,4259.487179,4437.948717,4280.000000,4431.282051,4208.205128,4223.589743,4527.179487,4194.871794,4641.025641,4005.128205,4013.333333
2,4427.692307,4517.948717,4517.435897,4263.589743,4435.897435,4281.538461,4435.384615,4212.307692,4224.102564,4528.205128,4204.615384,4645.641025,4012.820512,4015.384615
3,4429.230769,4520.000000,4522.051282,4273.846153,4437.435897,4284.102564,4440.000000,4220.512820,4234.358974,4539.487179,4207.179487,4651.794871,4027.692307,4022.564102
4,4428.717948,4529.230769,4521.538461,4274.871794,4437.948717,4281.538461,4443.076923,4226.153846,4242.564102,4551.794871,4200.000000,4655.384615,4036.410256,4029.230769
5,4430.769230,4531.282051,4525.641025,4271.794871,4436.923076,4280.000000,4442.051282,4224.615384,4242.051282,4551.282051,4196.410256,4654.358974,4038.974358,4029.230769
6,4418.974358,4513.333333,4520.512820,4263.076923,4438.461538,4278.974358,4431.282051,4210.256410,4228.717948,4532.820512,4194.871794,4644.615384,4030.769230,4017.435897
7,4402.564102,4501.538461,4506.153846,4253.333333,4435.897435,4273.846153,4421.538461,4193.333333,4211.794871,4517.435897,4187.179487,4636.410256,4019.487179,4004.102564
8,4409.230769,4512.307692,4506.153846,4262.564102,4433.846153,4270.256410,4422.051282,4192.307692,4212.307692,4523.589743,4192.307692,4641.538461,4021.538461,4007.692307
9,4424.615384,4520.000000,4513.333333,4274.871794,4436.410256,4268.205128,4427.179487,4198.461538,4223.589743,4531.282051,4199.487179,4646.666666,4035.897435,4020.512820
10,4425.128205,4517.435897,4509.743589,4267.692307,4433.846153,4266.666666,4428.717948,4196.410256,4224.102564,4526.666666,4183.589743,4644.102564,4042.564102,4021.025641
11,4422.564102,4522.051282,4506.153846,4263.589743,4433.333333,4270.769230,4430.256410,4194.871794,4218.974358,4525.128205,4181.025641,4642.051282,4036.410256,4014.358974
12,4427.179487,4532.820512,4515.384615,4270.769230,4443.076923,4275.384615,4435.897435,4204.615384,4224.615384,4534.871794,4203.589743,4648.717948,4039.487179,4020.000000
13,4425.641025,4529.230769,4516.410256,4268.205128,4445.641025,4274.358974,4432.820512,4206.666666,4227.692307,4531.282051,4208.205128,4648.205128,4042.051282,4025.641025
14,4415.897435,4517.435897,4506.153846,4264.615384,4436.923076,4267.692307,4426.666666,4194.358974,4215.384615,4517.435897,4194.358974,4637.435897,4032.307692,4016.923076
15,4407.692307,4516.410256,4504.102564,4267.692307,4432.307692,4261.025641,4425.128205,4190.256410,4207.692307,4515.384615,4181.025641,4631.794871,4031.794871,4006.153846
16,4403.076923,4515.897435,4503.589743,4263.589743,4431.794871,4256.410256,4426.153846,4194.358974,4214.871794,4521.025641,4171.282051,4630.256410,4038.461538,3999.487180
17,4405.128205,4511.282051,4503.076923,4256.923076,4435.897435,4261.025641,4433.333333,4198.974358,4221.025641,4524.102564,4178.461538,4631.282051,4038.974358,4001.538461
18,4418.974358,4520.000000,4516.410256,4263.076923,4449.230769,4273.846153,4446.666666,4212.307692,4229.230769,4526.153846,4195.897435,4645.641025,4043.076923,4014.358974
19,4426.153846,4531.794871,4526.666666,4270.769230,4455.897435,4280.000000,4448.717948,4224.102564,4238.974358,4531.794871,4199.487179,4656.923076,4051.282051,4019.487179
20,4414.871794,4520.000000,4512.307692,4265.128205,4445.641025,4271.282051,4437.948717,4215.897435,4235.384615,4534.871794,4196.410256,4644.102564,4052.820512,4010.769230
21,4403.589743,4496.923076,4498.974358,4253.846153,4435.897435,4260.512820,4426.666666,4197.948717,4217.435897,4523.076923,4189.230769,4626.666666,4046.153846,4003.589743
22,4409.230769,4504.102564,4507.692307,4257.948717,4442.051282,4265.128205,4427.179487,4197.435897,4212.307692,4514.871794,4181.538461,4634.358974,4038.974358,4006.153846
23,4423.076923,4530.769230,4523.076923,4274.358974,4450.769230,4270.256410,4440.512820,4211.282051,4229.230769,4529.743589,4194.871794,4656.410256,4048.717948,4015.384615
24,4428.717948,4535.897435,4526.666666,4276.923076,4449.743589,4265.641025,4447.179487,4214.871794,4234.871794,4538.461538,4214.871794,4663.589743,4065.641025,4024.615384
25,4427.692307,4524.102564,4522.564102,4271.282051,4449.230769,4264.615384,4438.974358,4207.179487,4223.589743,4528.717948,4212.820512,4653.333333,4062.051282,4025.128205
26,4426.666666,4526.666666,4522.564102,4280.000000,4454.358974,4270.769230,4436.410256,4206.666666,4220.512820,4529.743589,4200.000000,4649.743589,4053.846153,4021.538461
27,4428.717948,4534.358974,4524.102564,4288.717948,4456.410256,4273.846153,4437.435897,4211.794871,4226.153846,4536.410256,4197.948717,4655.897435,4063.076923,4023.076923
28,4428.717948,4532.307692,4520.512820,4283.076923,4451.282051,4266.666666,4432.820512,4207.179487,4226.153846,4529.230769,4194.358974,4650.769230,4063.589743,4024.615384
29,4427.692307,4529.230769,4518.974358,4281.538461,4451.794871,4262.051282,4428.717948,4202.564102,4222.564102,4527.692307,4192.307692,4643.589743,4052.307692,4023.076923
30,4427.692307,4526.666666,4522.051282,4284.615384,4456.923076,4265.641025,4429.743589,4204.615384,4220.512820,4532.820512,4204.102564,4647.692307,4053.333333,4020.512820
31,4426.666666,4526.666666,4523.589743,4280.512820,4459.487179,4269.230769,4435.384615,4206.153846,4220.512820,4532.307692,4205.641025,4650.256410,4061.538461,4024.615384
32,4428.205128,4533.333333,4524.615384,4280.000000,4463.076923,4272.307692,4441.538461,4210.256410,4226.153846,4537.948717,4198.974358,4649.743589,4065.128205,4032.307692
33,4426.153846,4537.948717,4524.615384,4283.076923,4467.179487,4277.435897,4441.538461,4214.871794,4230.256410,4544.102564,4200.512820,4650.256410,4059.487179,4027.692307
34,4425.641025,4534.358974,4524.102564,4286.153846,4466.153846,4275.897435,4437.435897,4213.846153,4233.333333,4542.564102,4204.102564,4649.743589,4053.846153,4019.487179
35,4421.538461,4527.179487,4520.000000,4286.666666,4462.564102,4268.205128,4433.333333,4210.769230,4233.846153,4536.410256,4198.461538,4647.692307,4051.794871,4021.538461
36,4416.410256,4527.692307,4515.384615,4282.051282,4457.435897,4261.538461,4430.769230,4204.102564,4227.692307,4531.282051,4189.230769,4643.076923,4046.666666,4023.076923
37,4420.000000,4538.974358,4520.000000,4281.025641,4458.461538,4263.589743,4436.410256,4197.948717,4227.179487,4534.871794,4191.794871,4640.512820,4047.179487,4020.000000
38,4420.512820,4539.487179,4520.512820,4285.641025,4466.153846,4268.717948,4437.435897,4197.435897,4227.179487,4535.384615,4204.615384,4640.512820,4050.256410,4018.974358
39,4416.410256,4530.256410,4513.846153,4282.564102,4463.076923,4265.128205,4426.666666,4194.871794,4222.564102,4527.179487,4202.051282,4634.358974,4037.948717,4014.871794
40,4417.948717,4531.794871,4517.435897,4278.461538,4454.358974,4256.923076,4426.153846,4197.948717,4227.179487,4528.205128,4185.641025,4632.820512,4031.282051,4011.282051
41,4423.589743,4533.333333,4522.051282,4280.000000,4455.897435,4257.948717,4432.307692,4204.615384,4231.282051,4539.487179,4188.717948,4642.051282,4045.641025,4017.948717
42,4417.435897,4527.692307,4509.230769,4274.358974,4460.000000,4260.000000,4428.717948,4198.974358,4213.846153,4527.692307,4197.435897,4637.435897,4042.564102,4016.923076
43,4407.692307,4524.615384,4501.025641,4266.153846,4457.435897,4253.846153,4426.153846,4196.923076,4203.076923,4509.230769,4189.230769,4623.076923,4026.153846,4007.692307
44,4407.179487,4527.179487,4506.153846,4270.769230,4455.384615,4249.230769,4429.743589,4208.205128,4220.512820,4518.974358,4184.102564,4626.666666,4031.282051,4005.641025
45,4409.743589,4530.256410,4508.205128,4273.846153,4455.384615,4250.256410,4427.179487,4211.282051,4229.230769,4531.794871,4185.128205,4633.846153,4040.512820,4008.205128
46,4412.307692,4531.282051,4512.820512,4271.282051,4456.410256,4249.230769,4423.589743,4207.692307,4221.025641,4528.205128,4186.666666,4632.820512,4038.461538,4011.282051
47,4416.410256,4531.282051,4524.102564,4274.358974,4462.051282,4247.179487,4427.692307,4212.307692,4225.128205,4527.692307,4194.871794,4641.538461,4037.948717,4016.923076
48,4420.000000,4531.794871,4525.128205,4274.358974,4465.641025,4245.128205,4430.769230,4211.282051,4232.307692,4528.717948,4197.948717,4646.666666,4036.923076,4017.948717
49,4415.897435,4531.282051,4519.487179,4266.666666,4461.025641,4244.102564,4429.230769,4202.564102,4221.538461,4519.487179,4190.769230,4635.384615,4027.179487,4014.358974
50,4411.794871,4530.256410,4518.974358,4267.692307,4458.461538,4241.025641,4431.794871,4200.000000,4210.256410,4514.871794,4190.256410,4630.769230,4025.128205,4012.820512
51,4415.897435,4533.333333,4523.076923,4272.307692,4462.051282,4239.487179,4436.410256,4205.641025,4215.897435,4523.076923,4190.769230,4637.435897,4035.897435,4014.871794
52,4414.871794,4531.794871,4521.538461,4264.102564,4463.076923,4240.000000,4430.769230,4206.153846,4219.487179,4526.666666,4182.051282,4638.461538,4037.948717,4012.820512
53,4411.282051,4527.692307,4518.461538,4260.000000,4462.564102,4240.000000,4424.102564,4203.076923,4215.384615,4524.102564,4180.512820,4636.410256,4027.692307,4011.794871
54,4416.923076,4537.435897,4522.051282,4272.307692,4469.743589,4243.076923,4433.846153,4210.256410,4222.564102,4529.230769,4195.897435,4638.974358,4029.743589,4017.435897
55,4418.461538,4546.666666,4525.641025,4277.435897,4473.846153,4245.641025,4439.487179,4216.410256,4228.717948,4529.743589,4200.000000,4637.948717,4039.487179,4017.435897
56,4409.230769,4537.435897,4521.025641,4268.717948,4471.282051,4244.102564,4430.256410,4206.153846,4216.410256,4518.974358,4187.179487,4631.794871,4028.717948,4008.205128
57,4405.641025,4526.153846,4516.923076,4266.666666,4469.743589,4241.025641,4423.076923,4200.000000,4208.205128,4516.410256,4181.538461,4628.205128,4006.153846,4003.589743
58,4412.307692,4534.358974,4520.512820,4273.333333,4468.205128,4237.948717,4428.205128,4213.333333,4221.538461,4529.743589,4181.538461,4630.256410,3998.461539,4011.794871
59,4415.384615,4543.589743,4523.076923,4274.358974,4467.692307,4238.974358,4437.948717,4224.615384,4229.743589,4529.743589,4180.000000,4635.384615,4002.051282,4017.948717
60,4414.358974,4542.051282,4523.589743,4271.794871,4472.307692,4242.051282,4442.564102,4221.538461,4225.641025,4515.384615,4184.615384,4636.923076,3998.461539,4015.384615
61,4416.410256,4541.025641,4523.589743,4272.307692,4478.461538,4245.128205,4446.153846,4222.051282,4230.256410,4524.102564,4195.384615,4634.871794,3993.333334,4016.923076
62,4419.487179,4537.948717,4525.128205,4266.666666,4480.000000,4246.666666,4449.743589,4226.153846,4233.333333,4538.461538,4191.794871,4633.333333,3989.743590,4017.435897
63,4415.384615,4531.282051,4523.589743,4260.512820,4477.435897,4246.153846,4448.717948,4220.512820,4225.128205,4526.666666,4173.846153,4628.717948,3982.051283,4010.256410
64,4411.794871,4533.333333,4520.000000,4267.692307,4477.435897,4245.128205,4447.179487,4220.512820,4222.051282,4514.871794,4173.846153,4626.153846,3976.410257,4007.179487
65,4416.410256,4543.076923,4521.025641,4276.923076,4481.538461,4244.615384,4449.230769,4226.153846,4227.179487,4522.564102,4191.282051,4628.717948,3980.512821,4013.846153
66,4414.358974,4543.076923,4517.948717,4271.282051,4481.025641,4241.538461,4447.179487,4218.461538,4225.128205,4518.974358,4192.820512,4626.666666,3977.435898,4012.307692
67,4405.128205,4534.871794,4508.205128,4260.000000,4473.846153,4237.948717,4442.564102,4207.179487,4215.897435,4506.153846,4181.538461,4619.487179,3959.487180,4001.538461
68,4408.205128,4536.410256,4505.641025,4258.974358,4475.384615,4241.025641,4446.666666,4212.307692,4215.897435,4512.820512,4180.000000,4623.589743,3956.923077,3999.487180
69,4415.384615,4545.641025,4509.743589,4263.076923,4480.000000,4238.461538,4449.743589,4217.435897,4220.512820,4519.487179,4180.000000,4630.769230,3970.769231,4002.564102
70,4409.743589,4545.128205,4508.717948,4258.974358,4476.410256,4230.256410,4440.512820,4210.256410,4216.410256,4514.358974,4177.435897,4626.666666,3972.307693,3999.487180
71,4404.615384,4538.461538,4507.692307,4252.820512,4471.794871,4231.794871,4432.307692,4212.820512,4210.256410,4513.333333,4178.974358,4623.076923,3963.076924,3996.923077
72,4408.205128,4541.538461,4509.743589,4254.871794,4473.846153,4235.384615,4436.410256,4221.025641,4211.794871,4516.410256,4177.948717,4626.666666,3959.487180,4000.512820
73,4407.179487,4548.717948,4510.256410,4262.051282,4470.256410,4227.692307,4436.410256,4216.923076,4217.435897,4515.384615,4181.538461,4626.153846,3960.000000,4001.025641
74,4403.589743,4546.153846,4510.256410,4257.435897,4464.615384,4221.538461,4427.692307,4214.358974,4218.974358,4517.435897,4183.589743,4623.589743,3964.615385,3997.435898
75,4402.051282,4542.051282,4506.153846,4244.102564,4465.128205,4222.564102,4423.589743,4213.333333,4209.230769,4514.358974,4170.769230,4620.000000,3968.205129,3997.948718
76,4396.410256,4539.487179,4503.076923,4241.025641,4467.179487,4222.051282,4416.410256,4198.974358,4197.948717,4502.051282,4160.000000,4612.820512,3962.051283,3994.358975
77,4388.717948,4531.794871,4503.076923,4247.179487,4468.717948,4222.564102,4406.666666,4190.769230,4197.948717,4497.948717,4166.666666,4606.153846,3951.794872,3987.692308
78,4393.846153,4531.794871,4503.589743,4251.282051,4470.769230,4224.102564,4415.384615,4203.076923,4207.692307,4508.717948,4175.384615,4609.230769,3954.871795,3992.820513
79,4412.307692,4550.769230,4511.794871,4261.025641,4477.435897,4228.717948,4431.794871,4218.461538,4225.128205,4525.641025,4180.000000,4623.589743,3973.846154,4010.256410
80,4422.051282,4566.153846,4525.128205,4274.871794,4484.615384,4236.410256,4431.282051,4224.615384,4231.794871,4531.282051,4182.051282,4632.307692,3986.153847,4017.948717
81,4416.410256,4564.615384,4525.128205,4276.410256,4484.615384,4238.974358,4428.717948,4218.974358,4222.051282,4522.564102,4182.564102,4627.179487,3980.000000,4012.307692
82,4409.230769,4555.897435,4512.820512,4267.692307,4484.102564,4235.384615,4431.794871,4208.717948,4213.846153,4513.846153,4183.589743,4622.051282,3973.333334,4010.256410
83,4411.282051,4547.179487,4507.692307,4265.641025,4485.641025,4229.743589,4426.666666,4208.717948,4214.871794,4515.897435,4185.641025,4623.589743,3982.051283,4008.205128
84,4411.794871,4544.102564,4510.769230,4269.230769,4483.076923,4230.256410,4419.487179,4211.794871,4215.897435,4520.512820,4185.128205,4624.102564,3987.692308,4003.589743
85,4401.025641,4539.487179,4508.717948,4266.153846,4481.538461,4230.769230,4418.974358,4200.512820,4214.358974,4514.358974,4170.256410,4616.923076,3975.384616,3997.435898
86,4390.256410,4533.846153,4502.564102,4258.461538,4482.564102,4224.615384,4415.384615,4189.230769,4209.230769,4501.025641,4152.307692,4606.666666,3962.564103,3991.282052
87,4396.923076,4541.025641,4503.076923,4254.358974,4477.948717,4218.974358,4416.410256,4192.820512,4206.153846,4502.051282,4161.538461,4610.256410,3969.743590,3993.846154
88,4408.205128,4549.230769,4507.692307,4260.512820,4474.358974,4221.025641,4422.564102,4198.461538,4209.230769,4512.820512,4180.512820,4623.076923,3982.564103,4000.512820
89,4405.128205,4544.102564,4506.666666,4269.230769,4476.410256,4221.025641,4420.000000,4193.846153,4207.179487,4504.615384,4176.923076,4622.051282,3979.487180,3998.461539
90,4396.923076,4534.358974,4504.615384,4265.641025,4474.358974,4217.435897,4419.487179,4190.769230,4202.564102,4493.333333,4165.641025,4616.410256,3969.743590,3995.897436
91,4396.923076,4526.666666,4505.641025,4255.897435,4471.282051,4216.923076,4425.128205,4197.435897,4208.717948,4508.205128,4166.153846,4622.564102,3965.641026,3997.435898
92,4397.948717,4525.128205,4506.153846,4256.410256,4471.282051,4213.333333,4421.025641,4200.512820,4214.358974,4516.923076,4165.128205,4624.102564,3965.641026,3994.871795
93,4395.897435,4531.282051,4505.128205,4259.487179,4469.743589,4209.230769,4417.435897,4194.871794,4209.743589,4501.025641,4165.641025,4624.102564,3969.230770,3994.358975
94,4396.923076,4530.769230,4506.666666,4255.897435,4472.307692,4214.871794,4424.102564,4189.743589,4204.102564,4495.384615,4173.846153,4631.282051,3975.384616,3997.948718
95,4401.025641,4526.666666,4506.666666,4256.410256,4480.512820,4225.128205,4425.641025,4195.384615,4208.205128,4506.666666,4169.743589,4631.794871,3979.487180,3996.923077
96,4406.153846,4533.846153,4505.641025,4265.128205,4485.641025,4227.179487,4423.076923,4204.615384,4218.461538,4515.384615,4163.589743,4629.230769,3984.615385,3998.461539
97,4412.307692,4542.051282,4514.358974,4276.923076,4482.564102,4221.025641,4429.743589,4207.692307,4225.641025,4518.461538,4175.384615,4635.897435,3992.307693,4008.717948
98,4417.948717,4542.564102,4524.102564,4282.051282,4480.512820,4219.487179,4433.333333,4209.743589,4227.179487,4519.487179,4190.256410,4642.564102,3991.282052,4016.410256
99,4425.128205,4551.282051,4525.641025,4280.000000,4488.205128,4231.282051,4432.307692,4213.333333,4230.256410,4521.538461,4192.307692,4646.153846,3992.307693,4021.025641
100,4430.256410,4560.512820,4526.153846,4280.512820,4498.974358,4238.974358,4436.923076,4215.384615,4235.384615,4528.717948,4188.717948,4647.179487,4003.076923,4025.128205
101,4422.051282,4550.256410,4519.487179,4282.564102,4500.000000,4233.846153,4434.871794,4212.307692,4230.256410,4527.179487,4184.615384,4639.487179,4001.025641,4020.512820
102,4409.743589,4535.384615,4506.666666,4277.435897,4496.923076,4231.282051,4426.666666,4207.179487,4220.000000,4514.871794,4178.461538,4629.743589,3983.076924,4007.179487
103,4413.333333,4537.948717,4504.615384,4275.384615,4498.461538,4231.794871,4431.282051,4211.794871,4226.666666,4513.846153,4180.000000,4631.282051,3979.487180,4003.076923
104,4417.435897,4545.641025,4512.307692,4276.410256,4497.948717,4225.641025,4437.948717,4217.435897,4238.461538,4521.025641,4184.615384,4636.923076,3986.153847,4011.794871
105,4407.692307,4541.025641,4504.102564,4267.692307,4490.769230,4223.589743,4429.743589,4210.769230,4231.794871,4516.923076,4176.410256,4634.358974,3982.564103,4009.743589
106,4400.000000,4531.794871,4492.307692,4262.564102,4490.256410,4225.641025,4423.076923,4202.051282,4221.025641,4511.282051,4167.692307,4626.666666,3981.538462,3998.461539
107,4408.205128,4529.230769,4497.948717,4269.743589,4495.384615,4225.128205,4429.230769,4205.641025,4223.589743,4515.897435,4177.948717,4626.153846,3992.820513,4004.102564
108,4417.435897,4533.846153,4508.717948,4275.384615,4490.769230,4224.615384,4431.794871,4213.333333,4227.692307,4519.487179,4189.230769,4634.871794,4004.615384,4017.948717
109,4411.794871,4534.358974,4508.717948,4270.256410,4489.743589,4222.564102,4429.230769,4212.307692,4226.153846,4514.358974,4181.025641,4639.487179,4004.615384,4015.897435
110,4402.564102,4530.769230,4506.153846,4260.512820,4492.820512,4221.025641,4429.743589,4208.205128,4227.692307,4512.820512,4173.333333,4632.820512,3991.282052,4009.743589
111,4405.128205,4529.230769,4509.743589,4263.589743,4492.820512,4225.641025,4432.307692,4209.230769,4229.743589,4517.435897,4179.487179,4629.230769,3980.512821,4013.333333
112,4411.282051,4534.358974,4511.794871,4276.410256,4492.307692,4226.153846,4432.307692,4211.794871,4228.205128,4520.512820,4188.717948,4637.435897,3981.025642,4014.871794
113,4403.076923,4535.384615,4508.717948,4270.769230,4490.769230,4217.435897,4422.564102,4204.615384,4218.461538,4512.820512,4188.205128,4634.358974,3977.435898,4006.153846
114,4392.820512,4526.666666,4503.076923,4254.871794,4486.666666,4214.358974,4412.307692,4195.897435,4209.743589,4497.948717,4169.743589,4620.512820,3969.230770,3993.333334
115,4402.051282,4522.564102,4507.179487,4265.641025,4491.794871,4222.564102,4420.000000,4202.051282,4215.897435,4498.461538,4155.384615,4622.564102,3975.384616,3996.923077
116,4413.333333,4531.282051,4519.487179,4280.000000,4499.487179,4227.179487,4432.820512,4210.769230,4227.179487,4511.794871,4169.743589,4633.846153,3981.538462,4013.333333
117,4412.307692,4541.025641,4523.589743,4271.282051,4493.333333,4223.076923,4429.230769,4210.256410,4227.692307,4512.307692,4187.692307,4631.282051,3976.923077,4015.384615
118,4409.230769,4540.000000,4515.384615,4268.205128,4491.794871,4221.025641,4423.589743,4202.051282,4217.435897,4505.641025,4184.102564,4627.179487,3982.564103,4010.256410
119,4411.794871,4534.358974,4511.794871,4276.923076,4499.487179,4223.589743,4425.128205,4194.871794,4211.794871,4510.769230,4181.025641,4631.282051,3991.282052,4014.358974
120,4412.820512,4534.358974,4516.923076,4275.897435,4492.820512,4217.948717,4424.615384,4193.846153,4218.974358,4513.333333,4182.051282,4631.282051,3983.589744,4016.410256
121,4413.846153,4538.461538,4520.512820,4272.820512,4483.589743,4214.358974,4423.076923,4203.076923,4234.358974,4514.871794,4177.435897,4630.256410,3977.948718,4015.384615
122,4418.461538,4543.589743,4524.102564,4279.487179,4491.794871,4222.564102,4429.230769,4212.820512,4239.487179,4523.589743,4185.128205,4633.333333,3985.128206,4019.487179
123,4413.333333,4542.564102,4517.948717,4271.794871,4496.923076,4221.538461,4431.282051,4204.102564,4227.692307,4516.923076,4190.769230,4625.641025,3982.564103,4013.333333
124,4405.128205,4533.846153,4508.205128,4256.410256,4487.179487,4211.794871,4423.589743,4191.282051,4214.871794,4507.179487,4175.897435,4617.948717,3975.897436,4005.128205
125,4410.256410,4532.820512,4514.358974,4268.205128,4491.282051,4216.410256,4425.128205,4200.000000,4221.025641,4522.564102,4181.538461,4627.692307,3988.717949,4016.410256
126,4419.487179,4545.641025,4527.179487,4290.256410,4506.666666,4229.230769,4435.897435,4216.410256,4237.948717,4538.974358,4201.538461,4641.538461,4008.205128,4028.205128
127,4416.410256,4549.743589,4522.051282,4287.179487,4507.179487,4230.256410,4433.333333,4214.358974,4240.000000,4531.282051,4190.769230,4635.897435,4008.205128,4024.102564
128,4414.871794,4543.589743,4518.461538,4282.564102,4507.179487,4228.717948,4430.769230,4210.256410,4237.948717,4529.230769,4184.615384,4635.384615,4006.666666,4024.102564
129,4426.153846,4547.179487,4536.410256,4293.846153,4517.948717,4237.948717,4445.128205,4225.128205,4252.307692,4546.666666,4209.230769,4654.358974,4022.564102,4039.487179
130,4431.794871,4554.358974,4542.051282,4294.358974,4514.871794,4239.487179,4451.794871,4233.333333,4258.461538,4550.256410,4217.948717,4661.025641,4026.153846,4045.128205
131,4426.666666,4554.358974,4527.179487,4285.641025,4505.128205,4227.179487,4443.589743,4220.512820,4239.487179,4528.717948,4204.615384,4649.743589,4005.641025,4036.410256
132,4420.000000,4546.666666,4522.564102,4283.589743,4511.794871,4228.205128,4438.974358,4207.179487,4226.153846,4513.333333,4189.230769,4648.205128,3990.769231,4030.256410
133,4417.435897,4535.384615,4527.179487,4281.025641,4514.358974,4237.948717,4441.025641,4206.666666,4231.282051,4523.589743,4180.000000,4651.282051,3993.333334,4029.743589
134,4418.974358,4535.384615,4526.153846,4279.487179,4505.128205,4231.794871,4438.974358,4207.692307,4228.205128,4527.179487,4184.102564,4646.153846,3994.358975,4029.230769
135,4426.666666,4546.153846,4530.769230,4283.589743,4505.641025,4224.102564,4435.897435,4207.692307,4224.102564,4520.000000,4191.282051,4648.717948,3987.692308,4029.230769
136,4427.179487,4541.538461,4537.435897,4283.589743,4511.282051,4227.692307,4437.435897,4209.743589,4228.205128,4519.487179,4193.846153,4655.897435,3985.641026,4031.282051
137,4418.974358,4531.282051,4528.205128,4281.025641,4504.615384,4226.666666,4435.384615,4205.641025,4225.641025,4517.435897,4193.846153,4652.307692,3986.666667,4029.743589
138,4415.897435,4537.948717,4520.000000,4281.538461,4496.410256,4217.435897,4427.179487,4197.435897,4221.538461,4510.256410,4183.076923,4642.051282,3982.564103,4027.179487
139,4416.923076,4544.102564,4522.051282,4273.333333,4495.897435,4213.333333,4422.564102,4194.871794,4224.102564,4511.282051,4173.846153,4636.410256,3977.435898,4026.666666
140,4418.974358,4538.461538,4524.102564,4268.205128,4496.410256,4213.333333,4428.205128,4203.076923,4228.205128,4523.589743,4186.666666,4643.589743,3985.641026,4030.256410
141,4422.051282,4533.333333,4525.128205,4272.307692,4500.512820,4212.820512,4436.410256,4206.153846,4226.666666,4527.692307,4193.333333,4650.769230,3994.358975,4036.410256
142,4417.948717,4532.307692,4522.051282,4269.230769,4501.025641,4213.846153,4434.871794,4199.487179,4217.435897,4515.384615,4178.974358,4642.051282,3986.666667,4032.820512
143,4415.384615,4534.358974,4519.487179,4268.205128,4498.974358,4218.974358,4430.769230,4198.974358,4212.307692,4510.769230,4175.384615,4634.358974,3980.512821,4025.641025
144,4421.538461,4540.512820,4522.051282,4273.846153,4500.512820,4218.974358,4430.256410,4203.589743,4220.000000,4515.897435,4182.564102,4638.461538,3984.615385,4027.179487
145,4417.948717,4538.974358,4520.512820,4271.282051,4497.948717,4210.769230,4427.179487,4202.051282,4226.153846,4514.871794,4178.461538,4635.897435,3987.179488,4026.666666
146,4412.307692,4537.948717,4517.948717,4269.743589,4493.846153,4210.769230,4425.641025,4203.076923,4221.538461,4512.820512,4176.410256,4632.307692,3989.230770,4025.641025
147,4421.538461,4547.692307,4524.615384,4278.974358,4502.564102,4221.025641,4430.769230,4212.820512,4221.025641,4514.358974,4189.743589,4640.000000,3994.358975,4033.333333
148,4422.051282,4549.743589,4527.179487,4281.538461,4512.307692,4223.076923,4433.846153,4210.256410,4223.589743,4516.410256,4195.384615,4642.564102,3997.948718,4033.846153
149,4414.358974,4542.564102,4521.538461,4274.871794,4506.153846,4221.538461,4434.358974,4204.102564,4226.666666,4523.076923,4188.717948,4639.487179,4002.051282,4029.230769
150,4423.589743,4544.615384,4526.666666,4278.974358,4503.589743,4221.025641,4440.000000,4209.230769,4232.820512,4531.794871,4187.692307,4646.666666,4009.230769,4037.948717
151,4431.282051,4550.256410,4535.897435,4283.589743,4507.692307,4219.487179,4442.051282,4212.307692,4230.256410,4526.153846,4189.230769,4651.282051,4007.179487,4044.615384
152,4424.615384,4546.666666,4535.384615,4278.974358,4507.692307,4219.487179,4440.000000,4210.256410,4224.102564,4517.948717,4190.769230,4648.717948,4000.512820,4037.948717
153,4420.000000,4542.564102,4534.358974,4270.769230,4507.692307,4222.051282,4442.564102,4213.846153,4230.769230,4523.076923,4202.051282,4646.153846,3998.974359,4033.846153
154,4422.564102,4547.179487,4537.435897,4270.769230,4509.743589,4223.076923,4444.615384,4220.000000,4241.538461,4533.333333,4205.128205,4647.692307,3990.769231,4036.410256
155,4424.615384,4547.179487,4536.923076,4276.410256,4513.333333,4226.153846,4443.076923,4215.384615,4238.461538,4535.384615,4190.769230,4647.692307,3981.025642,4038.974358
156,4428.717948,4547.692307,4535.384615,4278.461538,4518.974358,4232.307692,4444.615384,4209.743589,4233.846153,4530.256410,4188.205128,4647.179487,3986.666667,4039.487179
157,4436.923076,4558.461538,4540.512820,4284.102564,4523.076923,4236.923076,4451.794871,4218.461538,4243.076923,4531.794871,4204.615384,4654.358974,3999.487180,4043.589743
158,4434.358974,4564.615384,4541.025641,4283.589743,4518.974358,4236.923076,4453.846153,4225.641025,4247.692307,4529.230769,4207.179487,4655.897435,3996.410257,4044.615384
159,4423.589743,4554.358974,4535.384615,4273.846153,4517.435897,4230.256410,4445.641025,4215.384615,4233.846153,4521.025641,4189.230769,4646.153846,3979.487180,4034.871794
160,4423.076923,4545.128205,4533.846153,4269.230769,4519.487179,4229.230769,4441.025641,4208.717948,4223.589743,4525.641025,4180.000000,4643.076923,3976.410257,4031.282051
161,4429.230769,4549.230769,4533.846153,4266.666666,4517.948717,4234.871794,4445.641025,4215.897435,4227.692307,4531.794871,4185.128205,4650.769230,3990.256411,4038.461538
162,4434.871794,4560.000000,4535.384615,4266.153846,4518.974358,4235.384615,4451.794871,4223.076923,4240.000000,4531.794871,4197.948717,4657.435897,4003.589743,4047.179487
163,4445.128205,4569.230769,4544.102564,4278.974358,4526.153846,4236.923076,4457.948717,4229.230769,4252.820512,4541.025641,4211.794871,4660.512820,4008.717948,4053.846153
164,4446.153846,4567.692307,4549.743589,4287.692307,4530.769230,4243.076923,4460.512820,4232.307692,4252.820512,4544.615384,4213.333333,4658.974358,4010.769230,4052.307692
165,4430.769230,4555.897435,4539.487179,4274.358974,4527.179487,4238.974358,4450.769230,4226.153846,4241.538461,4533.333333,4201.538461,4653.333333,4011.794871,4044.102564
166,4429.743589,4552.307692,4537.948717,4272.307692,4526.153846,4233.333333,4445.128205,4227.692307,4243.076923,4537.948717,4203.076923,4658.461538,4017.435897,4048.717948
167,4443.076923,4563.589743,4552.820512,4289.743589,4528.717948,4238.974358,4453.846153,4237.435897,4255.384615,4551.794871,4217.435897,4669.230769,4025.641025,4060.512820
168,4441.538461,4569.230769,4554.358974,4289.743589,4528.717948,4242.564102,4456.923076,4234.358974,4254.871794,4546.153846,4214.358974,4668.205128,4021.538461,4057.435897
169,4429.743589,4557.435897,4541.538461,4277.948717,4523.589743,4233.846153,4446.666666,4224.102564,4245.128205,4533.846153,4202.564102,4657.948717,4009.230769,4046.666666
170,4424.102564,4546.666666,4534.871794,4274.358974,4522.051282,4228.205128,4441.538461,4220.512820,4240.512820,4530.769230,4193.846153,4649.230769,4004.615384,4041.538461
171,4423.589743,4548.205128,4536.410256,4272.307692,4524.615384,4233.333333,4445.128205,4220.000000,4236.923076,4532.820512,4190.769230,4650.256410,4009.743589,4041.538461
172,4431.282051,4552.307692,4542.051282,4272.307692,4521.538461,4233.333333,4450.769230,4220.000000,4239.487179,4538.974358,4202.564102,4660.000000,4010.769230,4047.179487
173,4439.487179,4551.794871,4550.256410,4276.410256,4515.384615,4226.666666,4453.846153,4228.205128,4253.333333,4544.615384,4223.589743,4668.205128,4005.641025,4055.897435
174,4437.948717,4547.179487,4550.769230,4272.307692,4519.487179,4227.692307,4453.333333,4234.358974,4256.410256,4542.564102,4224.615384,4666.153846,4007.692307,4060.512820
175,4434.358974,4545.128205,4544.615384,4268.205128,4529.743589,4236.410256,4453.333333,4229.230769,4244.102564,4535.897435,4211.794871,4663.076923,4016.923076,4056.923076
176,4434.871794,4543.589743,4541.538461,4271.794871,4530.256410,4238.974358,4456.923076,4227.179487,4241.538461,4534.358974,4206.666666,4665.641025,4020.512820,4055.897435
177,4432.307692,4542.564102,4540.000000,4271.794871,4521.025641,4232.307692,4455.384615,4227.692307,4244.102564,4536.923076,4208.717948,4663.589743,4011.794871,4056.410256
178,4428.717948,4545.641025,4542.564102,4275.384615,4520.000000,4229.230769,4446.153846,4220.512820,4234.358974,4531.794871,4207.692307,4656.923076,4001.538461,4053.846153
179,4431.794871,4550.256410,4550.769230,4283.589743,4528.205128,4234.358974,4442.051282,4216.410256,4237.948717,4530.256410,4201.025641,4657.948717,4003.589743,4053.846153
180,4436.923076,4549.743589,4551.794871,4280.000000,4530.769230,4238.974358,4448.717948,4220.512820,4249.743589,4536.410256,4201.538461,4663.076923,4007.692307,4055.384615
181,4438.974358,4545.641025,4550.256410,4274.358974,4526.153846,4236.410256,4453.846153,4224.102564,4244.102564,4539.487179,4209.230769,4662.051282,4008.717948,4054.871794
182,4439.487179,4548.205128,4552.820512,4279.487179,4527.692307,4232.820512,4453.846153,4230.769230,4243.076923,4543.589743,4213.333333,4663.589743,4014.871794,4056.923076
183,4438.974358,4547.692307,4546.666666,4282.051282,4530.256410,4231.794871,4456.410256,4235.384615,4252.820512,4547.692307,4212.820512,4664.102564,4018.461538,4058.974358
184,4436.923076,4535.384615,4540.000000,4280.000000,4528.205128,4234.871794,4460.512820,4233.846153,4254.358974,4545.641025,4213.333333,4658.461538,4018.461538,4055.897435
185,4441.538461,4535.897435,4550.256410,4281.025641,4530.256410,4240.000000,4467.179487,4245.128205,4263.589743,4553.333333,4221.538461,4664.102564,4030.256410,4063.589743
186,4451.794871,4551.282051,4560.000000,4285.641025,4533.333333,4239.487179,4477.948717,4262.564102,4280.000000,4568.717948,4229.230769,4678.974358,4041.538461,4078.974358
187,4449.230769,4548.717948,4554.871794,4286.153846,4533.333333,4237.948717,4481.538461,4255.384615,4270.769230,4562.051282,4225.641025,4676.923076,4028.717948,4075.384615
188,4436.410256,4529.230769,4550.256410,4278.974358,4530.769230,4237.948717,4467.179487,4238.974358,4252.820512,4543.076923,4218.974358,4664.102564,4010.769230,4060.512820
189,4435.384615,4531.794871,4554.358974,4281.538461,4531.282051,4237.435897,4462.051282,4243.076923,4259.487179,4545.128205,4223.589743,4663.589743,4010.256410,4062.564102
190,4436.923076,4544.102564,4552.307692,4292.820512,4533.333333,4239.487179,4472.820512,4249.743589,4267.692307,4553.846153,4228.717948,4666.666666,4010.256410,4068.205128
191,4426.153846,4530.256410,4538.974358,4284.102564,4532.307692,4235.384615,4466.153846,4237.948717,4251.794871,4542.051282,4214.358974,4654.871794,3995.384616,4054.358974
192,4417.435897,4513.846153,4530.769230,4271.282051,4527.692307,4229.230769,4449.743589,4224.615384,4234.358974,4521.538461,4193.333333,4644.102564,3987.179488,4040.000000
193,4419.487179,4522.051282,4535.384615,4273.846153,4518.974358,4224.102564,4447.179487,4224.615384,4236.410256,4516.410256,4186.153846,4644.615384,3994.871795,4042.564102
194,4422.564102,4529.743589,4537.948717,4272.820512,4512.820512,4220.512820,4449.230769,4228.205128,4242.564102,4525.128205,4192.820512,4648.717948,3997.948718,4049.230769
195,4424.102564,4520.000000,4537.948717,4267.179487,4513.846153,4220.000000,4448.205128,4226.666666,4240.512820,4532.820512,4205.641025,4652.307692,4000.000000,4052.820512
196,4428.205128,4515.384615,4544.102564,4269.743589,4519.487179,4223.076923,4450.256410,4226.666666,4236.410256,4531.282051,4218.974358,4654.358974,4004.615384,4054.871794
197,4429.743589,4518.974358,4551.282051,4275.384615,4521.538461,4226.666666,4451.282051,4230.256410,4241.538461,4529.743589,4220.000000,4653.333333,3997.948718,4057.948717
198,4425.128205,4514.871794,4548.205128,4273.846153,4518.974358,4226.153846,4447.179487,4228.717948,4246.153846,4534.358974,4206.153846,4653.846153,3987.692308,4056.923076
199,4421.025641,4512.820512,4543.589743,4266.153846,4517.435897,4222.564102,4445.641025,4227.692307,4240.000000,4535.897435,4210.769230,4656.923076,3991.794872,4053.333333
200,4425.128205,4520.000000,4548.205128,4267.179487,4515.897435,4222.051282,4450.256410,4234.871794,4240.512820,4538.461538,4229.230769,4657.435897,4000.512820,4055.897435
201,4427.179487,4522.564102,4555.384615,4281.538461,4520.512820,4226.666666,4457.435897,4238.974358,4253.333333,4542.051282,4224.615384,4655.384615,4000.000000,4060.512820
202,4420.000000,4512.820512,4551.282051,4285.641025,4523.076923,4224.615384,4452.307692,4229.743589,4254.358974,4539.487179,4203.589743,4651.282051,3995.384616,4053.333333
203,4417.948717,4509.743589,4546.666666,4276.410256,4519.487179,4219.487179,4446.153846,4222.051282,4240.512820,4535.897435,4202.564102,4649.743589,3997.948718,4048.717948
204,4430.256410,4527.692307,4554.871794,4282.051282,4523.589743,4230.769230,4457.435897,4231.794871,4244.102564,4543.076923,4221.025641,4661.025641,4015.384615,4065.128205
205,4442.564102,4534.871794,4561.025641,4291.282051,4534.871794,4237.948717,4467.692307,4247.179487,4260.000000,4558.461538,4230.769230,4672.307692,4030.769230,4078.974358
206,4440.512820,4523.589743,4556.923076,4283.589743,4537.948717,4232.820512,4461.538461,4249.743589,4260.000000,4562.051282,4231.282051,4667.692307,4031.282051,4073.333333
207,4433.333333,4521.538461,4550.256410,4277.948717,4530.256410,4233.333333,4453.846153,4241.025641,4252.820512,4552.307692,4227.179487,4657.435897,4028.205128,4065.128205
208,4429.230769,4525.128205,4543.589743,4282.051282,4522.051282,4232.307692,4450.769230,4231.282051,4252.820512,4546.153846,4217.435897,4655.384615,4029.230769,4064.102564
209,4425.641025,4517.948717,4538.461538,4279.487179,4517.435897,4221.025641,4447.179487,4223.589743,4248.717948,4543.589743,4218.461538,4653.846153,4029.743589,4061.025641
210,4421.538461,4513.846153,4536.410256,4271.794871,4517.435897,4217.948717,4444.615384,4223.076923,4245.641025,4537.435897,4221.025641,4646.666666,4027.692307,4055.384615
211,4424.615384,4518.461538,4537.948717,4271.794871,4519.487179,4224.615384,4447.179487,4227.692307,4253.846153,4544.102564,4213.846153,4645.641025,4028.717948,4055.897435
212,4427.692307,4518.461538,4537.435897,4273.333333,4516.923076,4222.564102,4448.205128,4224.615384,4251.282051,4548.205128,4208.205128,4647.692307,4029.743589,4057.435897
213,4426.666666,4514.871794,4537.435897,4273.333333,4511.794871,4214.358974,4443.076923,4218.461538,4236.923076,4535.384615,4211.282051,4643.076923,4031.282051,4055.897435
214,4423.589743,4510.769230,4538.461538,4273.333333,4510.256410,4209.743589,4438.974358,4221.025641,4234.358974,4530.769230,4215.384615,4640.000000,4030.256410,4057.435897
215,4413.846153,4502.564102,4535.384615,4268.205128,4506.666666,4206.153846,4440.000000,4222.564102,4237.948717,4529.743589,4214.358974,4643.076923,4022.051282,4056.923076
216,4412.820512,4497.948717,4538.461538,4265.641025,4502.564102,4207.179487,4442.564102,4225.128205,4242.564102,4530.769230,4217.435897,4650.256410,4020.512820,4054.871794
217,4428.205128,4507.179487,4552.820512,4270.256410,4507.692307,4215.897435,4449.230769,4234.871794,4255.897435,4547.692307,4233.333333,4663.589743,4033.846153,4067.179487
218,4431.794871,4517.435897,4555.897435,4272.307692,4516.923076,4218.974358,4452.820512,4236.923076,4258.461538,4552.820512,4237.948717,4670.256410,4040.512820,4080.000000
219,4415.897435,4512.307692,4543.589743,4265.641025,4514.871794,4210.256410,4446.666666,4222.564102,4236.923076,4531.794871,4218.974358,4661.025641,4023.076923,4068.205128
220,4403.589743,4495.384615,4535.384615,4255.384615,4507.692307,4205.641025,4437.948717,4206.666666,4212.307692,4512.307692,4202.051282,4646.666666,3996.410257,4043.589743
221,4400.000000,4483.076923,4531.794871,4252.307692,4508.205128,4209.230769,4435.384615,4203.589743,4206.153846,4506.153846,4193.846153,4636.923076,3975.384616,4034.358974
222,4406.666666,4485.641025,4534.358974,4256.410256,4511.794871,4211.282051,4446.153846,4214.358974,4222.564102,4514.871794,4197.435897,4640.512820,3976.923077,4047.692307
223,4422.564102,4499.487179,4548.205128,4262.051282,4512.307692,4213.846153,4461.025641,4227.179487,4238.974358,4534.871794,4221.538461,4655.384615,4005.641025,4069.230769
224,4428.205128,4505.641025,4552.307692,4269.230769,4515.384615,4217.435897,4459.487179,4233.333333,4238.461538,4538.461538,4230.256410,4662.051282,4026.153846,4073.846153
225,4422.564102,4498.461538,4541.538461,4278.461538,4514.358974,4213.333333,4448.717948,4230.769230,4235.897435,4529.230769,4209.743589,4655.384615,4015.897435,4065.128205
226,4420.512820,4498.974358,4537.948717,4275.384615,4504.615384,4207.692307,4448.205128,4228.205128,4241.025641,4529.743589,4203.076923,4653.846153,4003.076923,4061.025641
227,4427.179487,4507.179487,4542.051282,4270.769230,4506.153846,4214.358974,4457.948717,4232.820512,4244.102564,4535.384615,4213.846153,4660.000000,4009.230769,4064.102564
228,4431.282051,4505.641025,4541.538461,4277.435897,4520.000000,4220.000000,4461.025641,4235.897435,4244.102564,4535.897435,4212.820512,4658.974358,4015.897435,4062.564102
229,4422.051282,4499.487179,4537.435897,4273.333333,4518.974358,4214.358974,4453.846153,4231.282051,4236.923076,4528.205128,4204.102564,4647.692307,4005.641025,4054.358974
230,4412.820512,4501.538461,4534.871794,4262.051282,4509.230769,4210.769230,4446.153846,4223.076923,4224.102564,4517.948717,4201.025641,4641.538461,3993.333334,4048.717948
231,4415.384615,4504.615384,4534.871794,4266.666666,4510.256410,4210.769230,4443.589743,4220.512820,4221.025641,4519.487179,4205.641025,4644.615384,3994.871795,4046.666666
232,4415.384615,4498.974358,4533.846153,4273.333333,4510.256410,4206.666666,4442.564102,4220.000000,4229.230769,4525.641025,4204.615384,4640.000000,3996.923077,4043.076923
233,4412.820512,4496.410256,4533.846153,4268.717948,4508.205128,4206.153846,4442.051282,4221.025641,4232.820512,4526.666666,4192.307692,4636.410256,3997.948718,4045.128205
234,4418.974358,4505.128205,4537.435897,4264.102564,4512.820512,4208.205128,4444.102564,4224.102564,4231.282051,4526.153846,4189.230769,4644.102564,4006.666666,4052.307692
235,4423.589743,4512.820512,4537.948717,4258.974358,4512.307692,4206.153846,4446.666666,4226.666666,4234.358974,4528.205128,4205.641025,4649.230769,4015.897435,4050.769230
236,4418.974358,4508.717948,4539.487179,4252.820512,4506.153846,4205.641025,4450.256410,4230.769230,4236.923076,4529.743589,4214.358974,4648.205128,4018.461538,4049.230769
237,4411.282051,4493.846153,4537.435897,4252.307692,4503.076923,4204.615384,4450.769230,4229.743589,4230.769230,4524.102564,4200.512820,4644.615384,4011.794871,4049.230769
238,4402.564102,4481.538461,4524.615384,4250.256410,4501.025641,4197.948717,4443.589743,4220.512820,4223.076923,4515.897435,4186.666666,4636.923076,4001.025641,4040.000000
239,4407.179487,4487.692307,4523.076923,4250.256410,4500.000000,4193.333333,4438.461538,4212.307692,4221.025641,4516.410256,4190.256410,4634.871794,4001.025641,4038.461538
240,4425.128205,4507.179487,4539.487179,4263.589743,4504.615384,4200.000000,4445.128205,4217.948717,4224.615384,4525.128205,4202.564102,4647.179487,4011.282051,4053.846153
241,4432.307692,4514.358974,4545.128205,4269.743589,4505.128205,4205.641025,4453.333333,4229.230769,4231.794871,4530.256410,4207.179487,4657.435897,4014.871794,4063.589743
242,4422.051282,4503.589743,4535.897435,4260.000000,4504.615384,4205.128205,4447.692307,4224.102564,4234.871794,4526.666666,4201.025641,4652.307692,4012.307692,4057.948717
243,4418.974358,4500.000000,4535.384615,4256.923076,4512.820512,4208.205128,4437.948717,4210.256410,4227.692307,4522.564102,4203.076923,4646.153846,4011.282051,4052.307692
244,4424.615384,4508.717948,4538.461538,4261.025641,4517.435897,4213.333333,4438.974358,4209.230769,4223.589743,4523.589743,4208.205128,4647.179487,4012.820512,4053.333333
245,4421.538461,4510.769230,4530.769230,4255.384615,4512.307692,4210.769230,4440.512820,4212.307692,4225.128205,4522.564102,4188.205128,4642.051282,4010.256410,4051.794871
246,4415.897435,4502.051282,4521.025641,4248.205128,4505.128205,4200.512820,4434.871794,4207.692307,4223.589743,4513.333333,4169.743589,4632.307692,3995.384616,4046.666666
247,4421.025641,4501.025641,4523.076923,4254.871794,4504.615384,4196.410256,4438.461538,4210.256410,4222.564102,4513.846153,4189.743589,4634.871794,3992.820513,4051.282051
248,4430.256410,4512.820512,4530.256410,4265.128205,4511.794871,4207.179487,4447.692307,4225.641025,4229.743589,4531.282051,4212.820512,4645.128205,4009.230769,4057.948717
249,4424.102564,4505.641025,4521.538461,4261.025641,4516.410256,4213.333333,4444.615384,4230.256410,4229.743589,4534.871794,4202.051282,4641.538461,4009.743589,4049.743589
250,4414.871794,4482.051282,4506.666666,4250.769230,4511.794871,4206.153846,4439.487179,4223.076923,4223.589743,4522.051282,4184.102564,4632.307692,3993.846154,4042.051282
251,4421.025641,4481.025641,4505.128205,4254.358974,4510.769230,4207.179487,4443.589743,4224.102564,4229.230769,4526.153846,4189.230769,4638.974358,3996.923077,4052.820512
252,4424.615384,4483.589743,4502.051282,4264.615384,4516.923076,4211.282051,4444.102564,4228.205128,4234.871794,4536.410256,4202.051282,4647.692307,4006.153846,4058.974358
253,4414.358974,4470.769230,4489.230769,4257.435897,4512.820512,4200.000000,4435.384615,4221.538461,4224.615384,4525.128205,4206.666666,4638.974358,3998.974359,4047.179487
254,4410.256410,4470.256410,4482.564102,4243.076923,4502.051282,4192.307692,4435.384615,4215.897435,4216.410256,4515.897435,4204.615384,4630.256410,3993.333334,4045.128205
255,4421.538461,4480.000000,4482.564102,4246.666666,4505.128205,4201.025641,4443.589743,4222.564102,4222.564102,4522.051282,4197.948717,4636.410256,3996.923077,4056.923076
