,AF3,F7,F3,FC5,T7,P7,O1,O2,P8,T8,FC6,F4,F8,AF4
0,4396.410256,4542.051282,4547.692307,4282.051282,4496.410256,4217.948717,4448.205128,4210.256410,4233.846153,4514.871794,4218.461538,4667.692307,4005.641025,4046.153846
1,4395.384615,4544.102564,4547.692307,4287.692307,4505.128205,4227.179487,4456.410256,4219.487179,4234.871794,4507.179487,4220.512820,4668.717948,4009.230769,4051.794871
2,4383.076923,4536.410256,4537.435897,4280.000000,4498.461538,4224.102564,4448.717948,4211.794871,4224.615384,4503.076923,4197.435897,4658.974358,3994.358975,4042.051282
3,4385.641025,4534.358974,4534.358974,4269.743589,4493.333333,4214.358974,4440.000000,4209.230769,4219.487179,4514.358974,4201.025641,4657.948717,3993.333334,4036.410256
4,4396.923076,4538.461538,4544.102564,4272.307692,4498.974358,4213.333333,4445.128205,4217.948717,4229.743589,4522.564102,4216.410256,4664.615384,4004.615384,4044.102564
5,4395.897435,4540.000000,4548.717948,4279.487179,4498.974358,4217.435897,4448.205128,4220.512820,4237.435897,4512.307692,4205.641025,4663.589743,4000.000000,4048.205128
6,4391.282051,4542.051282,4543.589743,4281.025641,4497.948717,4223.589743,4445.641025,4216.410256,4234.871794,4506.666666,4198.461538,4658.461538,3995.384616,4044.102564
7,4389.230769,4539.487179,4537.948717,4280.000000,4502.051282,4222.051282,4445.128205,4211.794871,4228.717948,4507.692307,4208.205128,4658.461538,4001.025641,4040.512820
8,4382.051282,4531.794871,4536.923076,4277.435897,4495.897435,4211.282051,4443.589743,4202.564102,4223.589743,4497.948717,4206.666666,4658.461538,3992.820513,4034.358974
9,4382.051282,4533.333333,4538.461538,4273.333333,4488.717948,4209.230769,4443.589743,4198.461538,4226.666666,4497.948717,4201.025641,4660.512820,3986.153847,4033.333333
10,4393.846153,4541.538461,4540.512820,4274.358974,4493.333333,4217.948717,4444.615384,4203.589743,4229.743589,4514.358974,4206.153846,4666.153846,3998.461539,4044.102564
11,4389.743589,4541.025641,4536.923076,4273.846153,4493.846153,4217.948717,4443.076923,4202.564102,4220.000000,4509.743589,4203.589743,4659.487179,3999.487180,4042.051282
12,4373.333333,4530.769230,4531.794871,4269.230769,4491.282051,4209.230769,4442.564102,4196.923076,4212.820512,4491.282051,4194.358974,4642.051282,3981.025642,4026.666666
13,4375.897435,4527.692307,4534.358974,4271.282051,4492.307692,4209.743589,4444.615384,4202.051282,4222.564102,4492.820512,4197.948717,4639.487179,3977.435898,4025.641025
14,4395.897435,4536.923076,4542.564102,4278.461538,4489.743589,4214.871794,4447.179487,4212.820512,4232.307692,4505.641025,4206.666666,4649.743589,3990.769231,4042.051282
15,4400.512820,4544.102564,4552.820512,4279.487179,4489.743589,4215.897435,4446.666666,4218.461538,4232.820512,4509.743589,4206.666666,4657.948717,3995.897436,4046.666666
16,4390.769230,4539.487179,4551.794871,4276.410256,4492.820512,4216.410256,4445.641025,4215.897435,4229.230769,4507.692307,4208.717948,4657.435897,3991.794872,4039.487179
17,4388.205128,4533.846153,4545.128205,4278.461538,4490.256410,4213.846153,4444.615384,4205.128205,4220.512820,4500.512820,4213.333333,4651.282051,3992.820513,4038.974358
18,4394.871794,4537.435897,4545.641025,4281.025641,4488.205128,4210.256410,4442.051282,4202.051282,4222.051282,4498.461538,4212.820512,4648.717948,3998.974359,4046.153846
19,4400.512820,4543.076923,4547.692307,4280.000000,4492.307692,4210.769230,4443.589743,4210.256410,4232.307692,4507.179487,4211.794871,4654.358974,3998.974359,4053.846153
20,4396.410256,4537.948717,4540.000000,4277.435897,4491.282051,4208.717948,4442.051282,4208.205128,4223.076923,4503.076923,4208.717948,4649.743589,3995.384616,4046.153846
21,4388.205128,4527.179487,4534.358974,4273.333333,4484.615384,4199.487179,4432.307692,4195.384615,4203.076923,4492.820512,4200.512820,4637.435897,3988.717949,4026.666666
22,4388.205128,4529.743589,4538.974358,4272.820512,4481.025641,4197.948717,4428.205128,4196.410256,4207.692307,4494.871794,4197.435897,4641.538461,3982.564103,4028.717948
23,4395.384615,4538.974358,4541.538461,4278.974358,4482.051282,4203.076923,4434.871794,4204.102564,4219.487179,4494.871794,4201.538461,4648.205128,3987.179488,4045.641025
24,4397.948717,4539.487179,4538.974358,4279.487179,4486.666666,4205.641025,4440.000000,4200.512820,4213.333333,4484.102564,4204.102564,4643.589743,3993.333334,4045.128205
25,4395.384615,4538.974358,4541.538461,4276.923076,4491.282051,4212.820512,4441.025641,4198.974358,4213.333333,4489.743589,4212.820512,4646.153846,3992.820513,4042.051282
26,4397.435897,4544.615384,4549.230769,4285.128205,4497.435897,4218.974358,4443.076923,4211.282051,4230.256410,4512.307692,4220.512820,4657.948717,3994.871795,4053.333333
27,4402.051282,4548.717948,4552.307692,4289.743589,4498.461538,4215.384615,4443.076923,4218.974358,4235.897435,4519.487179,4217.948717,4660.512820,4004.615384,4056.410256
28,4403.076923,4550.256410,4549.230769,4282.564102,4495.384615,4214.358974,4441.538461,4209.743589,4223.076923,4510.256410,4214.871794,4657.435897,4009.230769,4046.666666
29,4400.000000,4554.358974,4545.128205,4282.051282,4498.461538,4216.923076,4442.051282,4203.589743,4217.948717,4504.102564,4208.717948,4657.948717,4001.538461,4042.051282
30,4398.974358,4552.820512,4541.538461,4288.717948,4499.487179,4212.307692,4442.051282,4207.692307,4226.153846,4502.564102,4204.615384,4653.333333,3993.846154,4046.666666
31,4398.461538,4543.589743,4538.461538,4283.076923,4496.410256,4206.666666,4442.051282,4205.641025,4220.512820,4496.923076,4203.076923,4645.128205,3990.256411,4045.641025
32,4393.846153,4536.410256,4534.871794,4271.794871,4495.897435,4205.641025,4442.051282,4196.410256,4209.230769,4496.923076,4196.923076,4642.564102,3990.256411,4034.871794
33,4393.846153,4537.948717,4537.948717,4278.974358,4495.384615,4206.666666,4442.051282,4199.487179,4217.435897,4508.205128,4201.538461,4647.692307,3992.820513,4033.846153
34,4398.974358,4546.153846,4544.615384,4291.794871,4489.743589,4212.307692,4443.076923,4210.769230,4227.179487,4510.769230,4217.435897,4653.333333,3987.692308,4042.564102
35,4403.589743,4548.205128,4545.128205,4288.717948,4493.333333,4218.461538,4445.641025,4208.717948,4220.000000,4501.025641,4215.897435,4653.846153,3983.589744,4045.641025
36,4403.076923,4544.615384,4539.487179,4281.538461,4497.948717,4216.923076,4447.179487,4204.102564,4214.871794,4500.000000,4205.641025,4651.282051,3995.897436,4044.102564
37,4396.410256,4537.948717,4537.435897,4278.461538,4490.256410,4211.794871,4444.102564,4206.153846,4220.512820,4501.538461,4208.717948,4649.230769,4002.051282,4044.102564
38,4398.461538,4537.435897,4542.564102,4277.435897,4489.743589,4212.307692,4442.051282,4208.717948,4226.666666,4497.948717,4215.384615,4650.256410,3995.897436,4042.564102
39,4409.743589,4545.641025,4549.230769,4283.589743,4498.974358,4216.410256,4445.641025,4211.282051,4228.717948,4503.076923,4215.897435,4655.897435,3996.923077,4045.641025
40,4411.282051,4547.692307,4551.282051,4287.692307,4499.487179,4211.794871,4447.179487,4214.358974,4225.641025,4510.256410,4210.769230,4660.512820,3998.974359,4048.205128
41,4401.025641,4537.948717,4546.666666,4279.487179,4491.794871,4203.589743,4444.102564,4207.692307,4218.461538,4500.000000,4200.512820,4653.846153,3992.307693,4042.564102
42,4399.487179,4533.846153,4543.589743,4275.384615,4490.256410,4205.641025,4442.051282,4198.974358,4211.794871,4491.282051,4197.948717,4650.256410,3982.564103,4039.487179
43,4405.128205,4539.487179,4546.666666,4280.512820,4491.282051,4210.256410,4443.076923,4200.000000,4211.282051,4492.307692,4203.589743,4656.410256,3976.410257,4041.025641
44,4409.743589,4543.076923,4549.743589,4281.025641,4488.717948,4209.743589,4443.589743,4208.205128,4221.025641,4494.871794,4210.769230,4664.102564,3985.128206,4044.615384
45,4412.820512,4538.974358,4552.820512,4281.538461,4492.820512,4213.846153,4446.153846,4212.820512,4231.282051,4504.102564,4215.897435,4662.051282,3996.410257,4046.153846
46,4404.615384,4529.743589,4547.179487,4280.512820,4496.923076,4218.461538,4446.153846,4208.717948,4224.102564,4501.025641,4211.794871,4650.256410,3984.615385,4038.461538
47,4395.897435,4529.230769,4539.487179,4276.923076,4492.820512,4216.410256,4443.589743,4207.179487,4213.333333,4484.615384,4206.153846,4645.128205,3974.358975,4031.282051
48,4403.589743,4541.025641,4544.615384,4278.974358,4488.205128,4216.923076,4444.102564,4211.282051,4216.923076,4489.743589,4207.692307,4651.282051,3989.743590,4040.512820
49,4413.333333,4544.102564,4550.769230,4281.538461,4493.333333,4217.948717,4446.153846,4206.153846,4218.974358,4497.435897,4205.128205,4651.794871,3999.487180,4049.743589
50,4408.205128,4538.974358,4550.256410,4283.589743,4501.025641,4214.358974,4444.102564,4197.435897,4212.820512,4486.666666,4201.025641,4646.666666,3987.692308,4042.564102
51,4402.051282,4540.512820,4548.205128,4288.205128,4499.487179,4214.871794,4441.538461,4199.487179,4209.743589,4486.666666,4203.076923,4645.641025,3977.435898,4035.897435
52,4401.538461,4541.538461,4544.615384,4289.230769,4490.256410,4215.897435,4442.051282,4201.538461,4207.692307,4496.923076,4200.512820,4641.025641,3976.923077,4035.897435
53,4398.974358,4537.948717,4538.461538,4280.000000,4488.205128,4211.794871,4441.538461,4198.974358,4202.051282,4486.666666,4194.358974,4636.410256,3976.410257,4036.410256
54,4395.897435,4537.948717,4535.384615,4274.871794,4493.333333,4211.282051,4440.512820,4204.615384,4203.076923,4477.435897,4200.512820,4637.948717,3974.358975,4035.384615
55,4390.769230,4536.410256,4535.897435,4274.871794,4494.358974,4213.846153,4442.564102,4210.769230,4209.743589,4481.025641,4202.051282,4637.948717,3975.384616,4026.666666
56,4386.666666,4534.871794,4531.282051,4272.307692,4491.794871,4214.358974,4444.102564,4209.230769,4214.871794,4483.076923,4189.230769,4630.769230,3974.358975,4016.410256
57,4388.717948,4535.384615,4526.666666,4272.820512,4492.307692,4220.000000,4444.615384,4209.743589,4218.461538,4483.076923,4180.000000,4622.564102,3970.769231,4022.051282
58,4389.743589,4529.743589,4528.205128,4271.282051,4490.256410,4222.564102,4449.230769,4215.897435,4219.487179,4486.666666,4182.051282,4622.564102,3968.717949,4029.230769
59,4389.743589,4524.102564,4534.871794,4267.692307,4492.307692,4219.487179,4456.410256,4222.564102,4221.538461,4496.410256,4190.256410,4633.846153,3967.179488,4022.051282
60,4394.871794,4530.769230,4538.461538,4269.743589,4498.974358,4222.564102,4459.487179,4227.692307,4230.769230,4502.564102,4203.076923,4642.564102,3968.717949,4022.051282
61,4406.666666,4541.025641,4542.564102,4280.512820,4497.435897,4225.128205,4460.000000,4227.692307,4234.871794,4499.487179,4211.282051,4646.153846,3983.076924,4039.487179
62,4412.307692,4544.615384,4546.153846,4283.589743,4496.410256,4223.076923,4456.410256,4218.461538,4225.641025,4495.384615,4204.102564,4648.717948,3994.871795,4042.051282
63,4402.051282,4536.923076,4544.102564,4275.897435,4500.512820,4223.076923,4448.717948,4214.358974,4223.076923,4493.846153,4200.000000,4648.205128,3985.128206,4033.846153
64,4395.384615,4530.256410,4545.641025,4276.410256,4496.923076,4221.538461,4451.282051,4219.487179,4231.794871,4496.923076,4205.641025,4646.666666,3972.307693,4041.538461
65,4406.153846,4533.846153,4546.153846,4283.076923,4491.794871,4215.897435,4457.435897,4218.974358,4228.717948,4500.512820,4203.076923,4643.076923,3977.948718,4043.076923
66,4407.692307,4534.358974,4536.923076,4276.410256,4492.820512,4216.410256,4449.230769,4213.846153,4213.846153,4496.410256,4196.923076,4638.974358,3981.025642,4028.205128
67,4394.871794,4532.820512,4534.358974,4267.692307,4489.743589,4216.923076,4443.076923,4213.846153,4214.358974,4487.692307,4200.000000,4642.564102,3974.871795,4029.743589
68,4399.487179,4533.333333,4540.512820,4273.333333,4488.717948,4216.410256,4455.897435,4218.461538,4225.641025,4490.256410,4203.076923,4648.205128,3976.923077,4040.512820
69,4410.256410,4528.205128,4539.487179,4275.897435,4494.871794,4220.512820,4462.051282,4218.974358,4223.589743,4498.461538,4200.000000,4648.717948,3982.564103,4036.923076
70,4403.589743,4528.205128,4536.923076,4269.230769,4491.794871,4219.487179,4450.769230,4216.410256,4221.538461,4503.076923,4196.410256,4648.205128,3983.589744,4032.307692
71,4395.897435,4536.923076,4539.487179,4270.769230,4489.743589,4212.307692,4443.076923,4215.897435,4221.025641,4505.641025,4190.769230,4647.179487,3984.615385,4034.358974
72,4393.333333,4530.769230,4533.333333,4269.743589,4495.384615,4208.717948,4442.564102,4210.769230,4209.230769,4494.871794,4188.205128,4637.948717,3977.948718,4023.589743
73,4391.282051,4517.948717,4524.615384,4261.025641,4493.333333,4211.794871,4442.051282,4209.743589,4201.025641,4481.025641,4193.846153,4632.307692,3971.282052,4016.923076
74,4395.897435,4528.205128,4529.230769,4266.153846,4491.794871,4216.923076,4443.076923,4215.384615,4209.743589,4487.692307,4192.307692,4638.974358,3990.769231,4027.179487
75,4407.692307,4545.128205,4540.512820,4282.051282,4501.538461,4217.435897,4445.128205,4218.461538,4215.384615,4503.076923,4189.743589,4647.179487,4010.256410,4036.410256
76,4412.820512,4551.794871,4542.051282,4287.179487,4505.641025,4217.435897,4444.615384,4217.435897,4217.948717,4510.256410,4200.000000,4651.282051,4003.589743,4037.435897
77,4406.666666,4548.717948,4538.974358,4283.076923,4498.974358,4218.974358,4443.589743,4216.410256,4221.025641,4509.743589,4204.102564,4650.769230,3995.384616,4034.358974
78,4393.333333,4538.461538,4537.948717,4277.948717,4491.794871,4215.897435,4443.076923,4215.897435,4218.461538,4508.717948,4195.384615,4650.256410,3996.410257,4029.230769
79,4387.179487,4533.333333,4537.948717,4271.282051,4490.769230,4215.384615,4444.102564,4215.384615,4220.000000,4510.256410,4188.717948,4650.769230,3992.820513,4027.179487
80,4393.846153,4535.897435,4535.897435,4267.692307,4497.435897,4218.974358,4446.153846,4214.871794,4219.487179,4506.666666,4189.743589,4651.282051,3989.230770,4031.282051
81,4398.461538,4538.461538,4538.461538,4273.846153,4500.512820,4216.923076,4444.102564,4215.384615,4214.358974,4503.076923,4197.948717,4655.897435,3993.333334,4033.846153
82,4397.435897,4536.410256,4544.615384,4278.461538,4501.025641,4220.000000,4447.179487,4218.461538,4221.025641,4507.692307,4206.153846,4663.076923,3999.487180,4035.384615
83,4397.948717,4541.538461,4546.666666,4277.435897,4503.076923,4228.717948,4458.461538,4218.974358,4229.230769,4511.794871,4203.589743,4664.615384,4001.025641,4039.487179
84,4399.487179,4549.230769,4541.538461,4277.435897,4497.948717,4225.128205,4457.948717,4214.871794,4222.051282,4503.076923,4197.435897,4657.435897,3995.897436,4036.410256
85,4397.948717,4550.256410,4536.923076,4277.435897,4493.333333,4215.897435,4446.666666,4212.820512,4213.846153,4494.358974,4198.974358,4653.333333,3985.641026,4029.230769
86,4395.384615,4546.153846,4537.948717,4279.487179,4497.435897,4216.923076,4441.538461,4213.846153,4214.871794,4500.512820,4197.948717,4655.384615,3982.051283,4026.666666
87,4395.384615,4543.589743,4539.487179,4281.025641,4497.435897,4218.461538,4445.128205,4216.410256,4217.435897,4509.743589,4193.846153,4660.512820,3988.717949,4031.282051
88,4397.948717,4541.025641,4539.487179,4276.923076,4489.743589,4213.333333,4444.615384,4217.435897,4218.461538,4507.692307,4197.948717,4662.051282,3992.820513,4036.410256
89,4395.897435,4538.461538,4537.948717,4276.923076,4488.717948,4213.333333,4442.051282,4215.897435,4219.487179,4502.051282,4199.487179,4658.974358,3988.717949,4034.358974
90,4397.435897,4542.564102,4538.461538,4282.051282,4498.974358,4224.615384,4447.692307,4222.051282,4224.615384,4511.282051,4199.487179,4660.512820,3994.871795,4036.923076
91,4407.179487,4547.692307,4543.076923,4281.025641,4502.051282,4227.179487,4456.410256,4232.307692,4232.307692,4520.000000,4205.641025,4665.128205,4005.128205,4043.589743
92,4411.794871,4551.794871,4544.615384,4280.512820,4500.000000,4220.512820,4459.487179,4234.358974,4235.384615,4518.461538,4211.282051,4663.076923,4001.538461,4043.076923
93,4407.179487,4555.897435,4542.564102,4282.564102,4502.564102,4221.538461,4455.897435,4229.743589,4229.743589,4517.435897,4213.333333,4659.487179,3996.410257,4038.461538
94,4401.025641,4548.205128,4538.974358,4274.871794,4500.512820,4225.128205,4449.230769,4223.589743,4227.692307,4511.282051,4208.205128,4660.512820,4001.538461,4041.538461
95,4396.410256,4542.051282,4534.871794,4273.846153,4493.333333,4220.000000,4441.538461,4219.487179,4232.307692,4509.230769,4200.512820,4660.000000,4002.051282,4041.538461
96,4401.538461,4546.153846,4538.974358,4287.692307,4500.512820,4215.897435,4442.051282,4217.948717,4232.820512,4516.410256,4204.102564,4660.000000,3995.897436,4034.871794
97,4409.230769,4549.743589,4545.641025,4289.743589,4508.717948,4222.564102,4451.794871,4218.974358,4229.743589,4516.923076,4215.897435,4665.128205,3998.974359,4037.948717
98,4407.179487,4544.615384,4545.128205,4280.000000,4495.384615,4228.205128,4453.333333,4222.564102,4229.230769,4509.743589,4218.461538,4667.692307,4004.615384,4045.128205
99,4404.615384,4541.538461,4547.179487,4276.923076,4486.153846,4225.128205,4446.666666,4223.589743,4230.769230,4508.205128,4214.358974,4665.641025,4003.076923,4043.589743
100,4410.256410,4547.692307,4548.717948,4282.051282,4496.923076,4217.435897,4443.589743,4217.435897,4225.128205,4512.307692,4214.358974,4662.564102,3996.410257,4041.538461
101,4413.333333,4552.307692,4548.717948,4290.256410,4502.564102,4215.897435,4446.153846,4213.846153,4227.692307,4515.384615,4215.384615,4661.538461,3996.410257,4047.179487
102,4412.307692,4547.692307,4548.205128,4286.666666,4501.025641,4220.512820,4446.153846,4217.948717,4233.846153,4515.384615,4212.307692,4660.000000,4007.179487,4050.769230
103,4410.256410,4539.487179,4543.076923,4269.230769,4503.076923,4219.487179,4442.051282,4215.384615,4222.051282,4506.153846,4203.076923,4653.333333,4007.179487,4038.974358
104,4410.256410,4536.923076,4535.897435,4267.179487,4497.948717,4212.820512,4441.025641,4209.743589,4209.743589,4499.487179,4196.410256,4645.128205,3989.230770,4028.717948
105,4409.743589,4537.948717,4536.410256,4281.025641,4491.794871,4213.846153,4443.076923,4211.794871,4220.512820,4506.666666,4203.589743,4647.692307,3985.641026,4036.923076
106,4410.769230,4544.102564,4541.538461,4280.512820,4494.358974,4220.512820,4444.615384,4217.435897,4233.846153,4517.948717,4215.384615,4659.487179,4001.025641,4046.153846
107,4417.948717,4552.307692,4547.179487,4277.435897,4497.948717,4223.076923,4443.589743,4218.461538,4228.717948,4518.461538,4213.846153,4663.076923,4008.205128,4045.641025
108,4424.615384,4552.820512,4552.820512,4287.692307,4500.000000,4223.076923,4445.128205,4218.974358,4227.692307,4512.820512,4210.256410,4659.487179,4008.205128,4045.641025
109,4416.923076,4547.179487,4545.128205,4286.153846,4501.538461,4224.615384,4445.641025,4216.410256,4231.282051,4507.179487,4210.769230,4656.410256,4004.615384,4041.538461
110,4407.179487,4542.051282,4534.871794,4269.743589,4501.025641,4219.487179,4442.564102,4211.794871,4225.128205,4497.948717,4208.205128,4651.794871,3992.307693,4031.282051
111,4411.282051,4542.051282,4537.435897,4271.794871,4501.025641,4214.358974,4442.051282,4214.871794,4224.615384,4498.461538,4209.230769,4650.256410,3991.794872,4032.820512
112,4413.333333,4543.076923,4537.948717,4279.487179,4498.974358,4218.461538,4443.589743,4214.871794,4230.256410,4508.205128,4209.743589,4649.230769,3997.435898,4037.948717
113,4405.128205,4538.461538,4529.743589,4270.769230,4495.384615,4219.487179,4441.538461,4210.256410,4227.692307,4506.666666,4200.000000,4646.153846,3988.717949,4031.282051
114,4404.615384,4534.871794,4528.205128,4264.102564,4498.461538,4215.384615,4441.538461,4212.820512,4225.128205,4500.512820,4194.871794,4646.666666,3985.641026,4027.692307
115,4409.743589,4539.487179,4535.897435,4275.384615,4498.974358,4217.435897,4445.128205,4218.461538,4233.846153,4508.717948,4203.589743,4649.230769,3993.333334,4031.794871
116,4411.794871,4540.512820,4539.487179,4281.538461,4490.769230,4218.461538,4445.641025,4220.512820,4239.487179,4518.974358,4209.743589,4649.743589,3995.384616,4033.333333
117,4413.333333,4539.487179,4536.923076,4275.384615,4489.743589,4216.923076,4444.102564,4221.538461,4236.410256,4521.025641,4205.641025,4652.307692,3994.358975,4033.333333
118,4416.410256,4543.076923,4537.948717,4276.923076,4497.948717,4215.897435,4444.102564,4221.538461,4232.820512,4514.358974,4205.641025,4656.410256,3997.948718,4038.974358
119,4415.384615,4540.000000,4537.948717,4276.923076,4499.487179,4215.384615,4443.076923,4216.923076,4227.692307,4502.564102,4211.282051,4653.333333,3995.897436,4033.333333
120,4411.282051,4536.410256,4533.846153,4269.230769,4494.358974,4214.871794,4442.564102,4218.461538,4230.256410,4508.717948,4212.820512,4650.769230,3990.769231,4022.051282
121,4414.358974,4538.461538,4536.410256,4273.846153,4499.487179,4217.948717,4445.128205,4225.128205,4240.512820,4524.102564,4204.102564,4654.871794,3995.384616,4033.846153
122,4417.435897,4538.461538,4541.025641,4280.512820,4507.179487,4218.461538,4446.153846,4220.512820,4234.871794,4516.410256,4198.974358,4655.384615,4000.000000,4047.692307
123,4412.820512,4538.974358,4537.435897,4273.846153,4496.923076,4212.307692,4440.512820,4216.410256,4223.076923,4503.589743,4207.179487,4652.307692,3998.461539,4035.384615
124,4415.897435,4543.589743,4538.974358,4273.333333,4493.333333,4212.307692,4442.051282,4224.615384,4230.769230,4513.846153,4216.923076,4657.435897,4002.564102,4032.307692
125,4430.256410,4546.666666,4553.333333,4286.666666,4505.128205,4220.000000,4456.923076,4236.410256,4250.256410,4529.743589,4218.974358,4669.230769,4007.179487,4053.333333
126,4430.769230,4543.076923,4556.923076,4286.666666,4500.000000,4220.512820,4458.461538,4237.435897,4249.230769,4526.666666,4212.820512,4667.179487,3996.923077,4051.794871
127,4414.871794,4535.897435,4543.076923,4270.769230,4488.717948,4214.358974,4443.589743,4226.153846,4235.897435,4515.384615,4202.564102,4653.846153,3988.205129,4034.871794
128,4411.282051,4533.846153,4536.923076,4264.102564,4491.282051,4212.307692,4441.538461,4222.051282,4233.333333,4508.205128,4202.051282,4652.307692,3995.897436,4034.358974
129,4420.000000,4536.410256,4540.512820,4275.384615,4492.307692,4215.897435,4449.230769,4228.205128,4235.897435,4507.692307,4212.307692,4659.487179,3999.487180,4036.410256
130,4418.974358,4538.461538,4539.487179,4281.025641,4491.282051,4216.923076,4446.666666,4226.153846,4229.743589,4508.717948,4214.358974,4658.974358,3992.820513,4036.410256
131,4413.333333,4537.948717,4535.384615,4270.256410,4492.820512,4215.384615,4441.538461,4215.384615,4224.102564,4512.307692,4201.538461,4655.384615,3990.256411,4034.871794
132,4415.384615,4537.435897,4537.435897,4268.205128,4492.307692,4214.871794,4444.102564,4215.897435,4229.230769,4520.000000,4197.435897,4657.435897,3988.717949,4029.230769
133,4416.410256,4537.435897,4538.974358,4281.538461,4493.846153,4215.384615,4445.128205,4221.538461,4232.820512,4510.769230,4206.666666,4656.923076,3981.538462,4029.743589
134,4412.307692,4535.897435,4535.897435,4278.461538,4494.871794,4216.410256,4443.589743,4218.461538,4228.717948,4491.282051,4205.641025,4651.282051,3975.384616,4033.846153
135,4410.256410,4531.282051,4536.923076,4264.102564,4492.820512,4212.820512,4443.076923,4219.487179,4230.256410,4492.820512,4199.487179,4648.205128,3976.923077,4028.205128
136,4411.794871,4529.743589,4536.410256,4262.564102,4497.435897,4209.743589,4443.589743,4221.025641,4229.743589,4505.128205,4200.000000,4648.205128,3977.435898,4023.076923
137,4411.794871,4530.769230,4532.307692,4266.153846,4498.461538,4213.333333,4442.051282,4214.358974,4221.025641,4501.538461,4198.461538,4645.641025,3972.820513,4026.666666
138,4411.794871,4528.205128,4534.358974,4266.666666,4489.743589,4217.435897,4447.179487,4218.461538,4224.102564,4496.923076,4196.923076,4647.179487,3977.435898,4030.769230
139,4414.358974,4532.820512,4542.051282,4269.743589,4491.794871,4216.923076,4458.461538,4232.307692,4233.333333,4504.102564,4203.076923,4653.333333,3986.666667,4033.333333
140,4412.307692,4536.410256,4539.487179,4270.256410,4503.076923,4216.410256,4455.897435,4230.256410,4232.307692,4507.179487,4205.128205,4650.769230,3982.051283,4028.205128
141,4409.230769,4527.179487,4532.820512,4269.230769,4498.974358,4216.410256,4450.256410,4223.589743,4234.871794,4507.179487,4196.923076,4645.641025,3977.435898,4018.974358
142,4411.282051,4524.615384,4534.871794,4274.358974,4489.230769,4215.384615,4453.846153,4229.743589,4243.076923,4508.717948,4201.025641,4649.743589,3982.564103,4023.076923
143,4413.846153,4531.282051,4539.487179,4273.333333,4489.230769,4214.871794,4451.282051,4230.769230,4237.435897,4510.769230,4211.282051,4651.282051,3981.538462,4031.282051
144,4411.794871,4526.153846,4533.333333,4262.051282,4489.230769,4215.384615,4442.564102,4223.589743,4227.692307,4507.692307,4207.179487,4645.128205,3978.974359,4028.205128
145,4410.256410,4520.512820,4528.205128,4262.051282,4488.205128,4211.282051,4444.102564,4221.025641,4227.692307,4497.948717,4196.410256,4645.128205,3983.076924,4026.153846
146,4412.307692,4523.589743,4530.769230,4268.205128,4490.256410,4207.179487,4446.666666,4226.666666,4230.256410,4499.487179,4200.000000,4648.717948,3982.051283,4030.769230
147,4411.794871,4521.025641,4529.743589,4263.589743,4488.205128,4205.641025,4444.102564,4229.230769,4237.435897,4513.333333,4211.794871,4648.717948,3977.948718,4029.230769
148,4411.794871,4522.051282,4530.256410,4261.025641,4488.717948,4207.179487,4444.615384,4225.128205,4243.076923,4516.923076,4206.666666,4650.256410,3984.615385,4023.076923
149,4412.820512,4526.666666,4534.358974,4263.589743,4490.769230,4211.794871,4445.128205,4221.025641,4234.871794,4504.615384,4198.974358,4652.307692,3993.846154,4022.051282
150,4413.846153,4523.589743,4534.358974,4263.589743,4491.794871,4212.307692,4445.128205,4222.564102,4229.230769,4502.051282,4209.230769,4653.333333,3995.384616,4032.307692
151,4415.384615,4525.128205,4534.358974,4266.153846,4491.794871,4209.743589,4445.128205,4221.538461,4233.333333,4510.769230,4220.512820,4655.897435,3994.358975,4038.461538
152,4416.410256,4533.333333,4538.974358,4275.384615,4488.717948,4212.820512,4445.128205,4220.512820,4233.846153,4514.358974,4214.871794,4659.487179,3990.769231,4029.743589
153,4416.410256,4532.307692,4541.025641,4281.025641,4489.743589,4218.461538,4446.153846,4223.589743,4232.307692,4507.692307,4208.205128,4659.487179,3986.153847,4027.692307
154,4416.410256,4529.743589,4536.923076,4273.846153,4492.307692,4212.307692,4445.641025,4219.487179,4233.333333,4498.974358,4205.641025,4652.307692,3983.589744,4037.435897
155,4414.358974,4529.230769,4534.871794,4266.153846,4488.717948,4200.512820,4443.076923,4215.897435,4229.743589,4502.051282,4201.538461,4648.205128,3984.102565,4037.435897
156,4414.358974,4530.769230,4535.384615,4265.128205,4486.666666,4204.615384,4443.076923,4218.461538,4229.230769,4510.769230,4204.102564,4650.769230,3986.153847,4032.307692
157,4417.948717,4532.307692,4538.974358,4264.102564,4491.794871,4215.897435,4446.153846,4217.435897,4230.256410,4506.153846,4207.179487,4652.307692,3988.717949,4036.410256
158,4415.897435,4526.153846,4538.461538,4264.102564,4492.307692,4213.846153,4447.179487,4217.948717,4222.564102,4493.333333,4200.000000,4646.666666,3986.153847,4033.846153
159,4410.769230,4518.461538,4530.769230,4266.153846,4492.820512,4206.666666,4445.128205,4218.461538,4221.025641,4494.358974,4194.358974,4640.512820,3974.358975,4024.102564
160,4412.820512,4522.051282,4526.153846,4266.153846,4489.230769,4209.230769,4443.076923,4216.923076,4230.769230,4503.076923,4202.564102,4644.102564,3968.717949,4024.102564
161,4412.307692,4528.717948,4525.641025,4263.589743,4478.461538,4207.692307,4442.564102,4216.410256,4228.205128,4499.487179,4202.051282,4647.692307,3973.846154,4024.102564
162,4405.641025,4520.000000,4524.102564,4257.435897,4480.512820,4198.974358,4441.025641,4213.846153,4214.358974,4488.205128,4190.256410,4640.000000,3972.820513,4016.410256
163,4405.641025,4509.743589,4522.564102,4253.333333,4487.179487,4200.512820,4441.538461,4213.333333,4212.820512,4488.205128,4193.333333,4635.897435,3968.717949,4016.923076
164,4409.743589,4513.846153,4522.051282,4257.435897,4483.076923,4210.769230,4443.589743,4217.435897,4224.615384,4501.025641,4205.641025,4644.615384,3974.871795,4026.666666
165,4411.794871,4523.589743,4525.128205,4266.666666,4484.102564,4212.820512,4445.128205,4217.948717,4227.692307,4507.179487,4203.076923,4650.256410,3980.000000,4028.717948
166,4415.384615,4528.205128,4534.358974,4270.256410,4491.794871,4208.717948,4445.128205,4215.897435,4224.615384,4499.487179,4198.461538,4648.205128,3976.923077,4027.179487
167,4417.435897,4524.615384,4536.410256,4266.666666,4490.256410,4208.205128,4444.615384,4215.897435,4224.102564,4489.743589,4204.102564,4648.205128,3974.358975,4027.692307
168,4413.846153,4520.000000,4530.256410,4262.564102,4486.666666,4206.666666,4443.076923,4210.769230,4218.974358,4486.153846,4196.410256,4646.153846,3973.846154,4024.102564
169,4410.256410,4518.461538,4528.205128,4262.564102,4489.743589,4204.102564,4441.538461,4206.666666,4218.461538,4486.153846,4185.641025,4645.128205,3971.282052,4017.948717
170,4414.358974,4523.589743,4534.871794,4267.179487,4490.256410,4209.743589,4442.564102,4214.871794,4229.230769,4489.743589,4196.923076,4650.769230,3969.743590,4022.051282
171,4412.820512,4526.153846,4538.461538,4268.205128,4483.589743,4211.282051,4445.128205,4217.948717,4227.692307,4491.794871,4208.205128,4651.282051,3971.794872,4030.256410
172,4398.974358,4518.974358,4533.333333,4261.025641,4478.974358,4206.666666,4445.128205,4209.743589,4215.897435,4484.615384,4198.461538,4646.666666,3972.307693,4028.205128
173,4396.923076,4520.000000,4532.820512,4260.000000,4485.128205,4208.717948,4443.076923,4210.769230,4224.102564,4485.641025,4195.897435,4650.256410,3973.846154,4026.666666
174,4404.615384,4526.666666,4536.410256,4267.692307,4492.307692,4213.846153,4442.564102,4218.974358,4237.435897,4498.461538,4208.205128,4654.871794,3981.025642,4029.230769
175,4398.974358,4524.102564,4530.256410,4266.666666,4488.717948,4210.256410,4443.076923,4218.974358,4230.769230,4497.435897,4206.153846,4649.230769,3984.615385,4029.230769
176,4393.333333,4521.025641,4526.666666,4260.000000,4485.641025,4205.128205,4442.564102,4214.871794,4226.666666,4485.128205,4197.435897,4643.589743,3978.461539,4026.666666
177,4398.461538,4522.051282,4531.794871,4263.589743,4489.230769,4206.153846,4442.564102,4218.461538,4230.256410,4494.358974,4200.512820,4647.692307,3974.358975,4026.666666
178,4402.051282,4518.974358,4533.333333,4267.179487,4489.743589,4209.230769,4443.589743,4223.589743,4231.282051,4505.641025,4203.076923,4651.282051,3975.384616,4030.256410
179,4405.128205,4525.128205,4536.923076,4268.717948,4489.230769,4213.333333,4446.153846,4223.589743,4236.923076,4503.076923,4201.025641,4655.384615,3980.000000,4038.974358
180,4406.153846,4535.384615,4540.000000,4270.769230,4492.307692,4213.333333,4448.717948,4221.025641,4239.487179,4501.538461,4203.589743,4657.948717,3979.487180,4038.461538
181,4396.410256,4521.538461,4529.743589,4262.051282,4487.692307,4206.153846,4444.615384,4213.846153,4224.615384,4488.717948,4196.923076,4649.743589,3971.282052,4021.538461
182,4392.307692,4508.717948,4526.666666,4252.820512,4481.538461,4201.538461,4439.487179,4209.743589,4213.846153,4481.538461,4186.666666,4644.102564,3971.794872,4017.435897
183,4400.000000,4519.487179,4537.948717,4259.487179,4487.179487,4207.179487,4442.564102,4215.384615,4224.102564,4497.435897,4188.717948,4650.256410,3981.025642,4029.230769
184,4400.512820,4525.641025,4541.025641,4270.256410,4492.307692,4216.410256,4447.179487,4222.051282,4237.435897,4505.128205,4194.358974,4653.846153,3979.487180,4028.205128
185,4395.897435,4521.025641,4532.820512,4267.692307,4491.282051,4215.384615,4444.615384,4219.487179,4232.307692,4498.974358,4193.846153,4649.230769,3972.820513,4018.461538
186,4396.923076,4516.410256,4529.230769,4255.897435,4487.179487,4206.153846,4441.025641,4210.769230,4220.512820,4500.512820,4189.230769,4646.153846,3975.897436,4017.435897
187,4393.846153,4510.769230,4529.743589,4251.794871,4478.974358,4200.512820,4440.512820,4206.666666,4216.410256,4499.487179,4186.153846,4645.641025,3978.461539,4017.948717
188,4389.230769,4513.333333,4530.769230,4258.461538,4479.487179,4206.153846,4442.564102,4211.282051,4216.410256,4490.769230,4187.179487,4647.179487,3981.025642,4017.435897
189,4392.820512,4523.589743,4535.384615,4266.666666,4490.769230,4213.333333,4445.128205,4218.974358,4217.948717,4498.461538,4190.769230,4652.820512,3989.230770,4022.564102
190,4394.358974,4523.589743,4532.820512,4265.128205,4491.794871,4211.282051,4444.102564,4217.435897,4220.512820,4504.102564,4192.307692,4651.282051,3990.769231,4024.102564
191,4387.179487,4517.948717,4527.179487,4261.538461,4485.128205,4211.794871,4442.051282,4213.846153,4217.948717,4494.358974,4183.589743,4643.589743,3983.589744,4017.435897
192,4387.692307,4521.025641,4530.256410,4264.615384,4489.230769,4215.384615,4442.564102,4214.871794,4220.512820,4493.846153,4175.384615,4645.641025,3985.641026,4016.410256
193,4397.435897,4527.692307,4532.820512,4267.692307,4492.820512,4214.871794,4446.153846,4216.923076,4231.794871,4507.179487,4180.512820,4653.333333,3992.307693,4023.076923
194,4397.948717,4527.179487,4527.179487,4266.153846,4488.717948,4214.358974,4445.641025,4217.435897,4230.769230,4512.820512,4196.410256,4652.307692,3990.769231,4021.538461
195,4398.974358,4527.179487,4530.256410,4265.641025,4493.846153,4215.384615,4442.564102,4219.487179,4225.641025,4510.769230,4202.564102,4650.769230,3990.256411,4021.025641
196,4410.256410,4534.358974,4542.564102,4276.410256,4502.051282,4218.974358,4451.794871,4228.205128,4237.948717,4514.358974,4201.538461,4662.051282,4000.512820,4037.948717
197,4413.846153,4538.461538,4541.538461,4280.512820,4497.435897,4220.000000,4456.410256,4234.358974,4242.564102,4517.435897,4198.461538,4668.205128,4005.641025,4047.179487
198,4412.307692,4535.897435,4542.051282,4274.358974,4494.358974,4216.923076,4449.743589,4231.794871,4231.282051,4514.871794,4199.487179,4664.615384,4002.564102,4037.435897
199,4420.000000,4536.923076,4548.717948,4277.948717,4500.512820,4216.410256,4451.794871,4228.205128,4232.820512,4520.512820,4214.358974,4667.692307,4003.076923,4036.410256
200,4423.076923,4539.487179,4548.205128,4283.076923,4505.128205,4219.487179,4460.512820,4228.717948,4238.974358,4527.179487,4220.512820,4671.282051,4004.102564,4043.076923
201,4413.846153,4537.435897,4540.000000,4274.358974,4498.461538,4216.923076,4457.948717,4226.153846,4232.820512,4522.051282,4206.153846,4665.641025,4002.564102,4037.435897
202,4412.307692,4536.923076,4534.358974,4269.230769,4491.282051,4216.410256,4454.358974,4224.615384,4228.205128,4514.358974,4195.384615,4663.076923,4002.564102,4032.820512
203,4423.076923,4541.025641,4540.512820,4278.974358,4498.974358,4224.615384,4460.512820,4232.307692,4235.897435,4520.000000,4202.051282,4669.230769,4008.205128,4042.564102
204,4422.051282,4536.923076,4542.564102,4278.974358,4504.102564,4223.589743,4456.410256,4230.769230,4238.974358,4523.589743,4205.128205,4667.692307,4003.589743,4038.974358
205,4408.717948,4523.076923,4533.333333,4271.794871,4493.333333,4216.410256,4443.589743,4217.948717,4230.769230,4509.230769,4197.435897,4657.948717,3989.743590,4023.589743
206,4413.333333,4528.717948,4534.871794,4277.435897,4489.230769,4220.000000,4446.153846,4220.000000,4227.692307,4507.692307,4201.538461,4659.487179,3995.897436,4031.794871
207,4429.230769,4546.153846,4546.153846,4287.692307,4499.487179,4225.641025,4461.025641,4231.794871,4234.871794,4527.692307,4210.769230,4671.282051,4014.871794,4048.717948
208,4424.615384,4543.076923,4544.615384,4286.153846,4497.435897,4222.564102,4462.051282,4226.153846,4235.384615,4526.153846,4209.230769,4672.820512,4014.358974,4041.538461
209,4414.358974,4532.820512,4536.410256,4269.230769,4486.666666,4212.820512,4445.641025,4214.358974,4227.179487,4503.076923,4200.000000,4664.102564,4003.076923,4031.282051
210,4424.102564,4537.948717,4537.435897,4265.641025,4491.794871,4212.820512,4440.000000,4220.000000,4229.230769,4507.179487,4202.564102,4664.615384,4006.666666,4036.410256
211,4432.820512,4542.564102,4542.051282,4285.128205,4499.487179,4223.589743,4452.307692,4231.794871,4241.538461,4527.179487,4216.410256,4668.717948,4013.333333,4038.461538
212,4428.717948,4541.538461,4546.153846,4295.384615,4498.461538,4228.205128,4460.512820,4235.384615,4243.589743,4528.205128,4222.564102,4670.256410,4014.871794,4044.615384
213,4427.692307,4541.025641,4545.641025,4283.589743,4496.410256,4221.025641,4455.384615,4231.794871,4237.435897,4521.538461,4221.025641,4668.717948,4018.461538,4053.333333
214,4425.641025,4537.435897,4539.487179,4274.871794,4495.384615,4217.948717,4452.307692,4227.692307,4235.897435,4522.564102,4214.358974,4663.076923,4011.282051,4045.128205
215,4417.435897,4536.923076,4535.384615,4278.461538,4492.820512,4222.564102,4453.333333,4223.589743,4238.974358,4523.589743,4203.589743,4658.974358,3996.923077,4033.846153
216,4412.820512,4534.871794,4537.435897,4280.000000,4491.794871,4218.974358,4447.692307,4216.923076,4233.846153,4520.000000,4195.384615,4657.435897,3989.230770,4027.179487
217,4412.820512,4527.692307,4535.897435,4270.256410,4489.743589,4209.743589,4440.512820,4215.384615,4220.000000,4506.666666,4201.025641,4649.743589,3989.743590,4020.512820
218,4409.743589,4521.025641,4530.256410,4258.461538,4477.948717,4206.153846,4438.974358,4214.358974,4215.384615,4489.743589,4205.128205,4642.564102,3991.282052,4020.000000
219,4409.230769,4522.564102,4529.743589,4265.128205,4473.846153,4211.794871,4440.512820,4213.333333,4224.615384,4500.512820,4200.000000,4650.769230,3990.769231,4025.641025
220,4417.435897,4528.205128,4538.974358,4278.974358,4486.666666,4219.487179,4444.615384,4226.666666,4237.435897,4528.717948,4202.051282,4662.564102,3994.871795,4035.384615
221,4418.461538,4525.641025,4543.589743,4275.384615,4492.307692,4216.410256,4446.153846,4234.358974,4234.358974,4525.641025,4205.128205,4658.461538,3998.461539,4036.410256
222,4410.769230,4521.025641,4536.410256,4268.205128,4485.641025,4212.820512,4445.128205,4220.512820,4222.051282,4505.641025,4198.461538,4651.794871,3994.871795,4026.153846
223,4410.256410,4525.641025,4534.871794,4269.230769,4486.153846,4216.410256,4448.717948,4217.948717,4222.564102,4503.589743,4198.974358,4653.846153,3988.717949,4023.589743
224,4412.820512,4528.205128,4538.461538,4265.128205,4486.153846,4211.794871,4448.717948,4228.717948,4230.256410,4507.179487,4207.179487,4652.820512,3983.076924,4027.692307
225,4410.769230,4522.051282,4537.435897,4262.564102,4480.512820,4205.641025,4443.589743,4229.230769,4233.333333,4507.179487,4206.153846,4649.743589,3984.102565,4021.538461
226,4413.333333,4523.076923,4535.384615,4267.179487,4485.128205,4212.307692,4444.615384,4228.205128,4233.846153,4507.692307,4201.025641,4654.358974,3990.256411,4023.589743
227,4412.820512,4523.589743,4536.410256,4269.230769,4486.153846,4215.897435,4445.128205,4230.256410,4233.846153,4504.615384,4195.897435,4652.820512,3989.743590,4031.794871
228,4407.179487,4515.384615,4531.794871,4265.128205,4480.512820,4211.794871,4441.025641,4222.051282,4228.717948,4504.102564,4189.230769,4644.102564,3981.538462,4026.666666
229,4405.641025,4515.897435,4527.179487,4261.538461,4480.512820,4212.307692,4441.538461,4215.897435,4227.179487,4508.205128,4190.769230,4645.641025,3982.564103,4023.589743
230,4407.179487,4522.564102,4531.794871,4264.615384,4483.589743,4215.897435,4446.153846,4217.948717,4233.333333,4507.179487,4201.025641,4651.282051,3990.769231,4028.205128
231,4403.589743,4523.076923,4533.333333,4267.179487,4484.615384,4214.871794,4444.615384,4216.923076,4234.871794,4506.153846,4202.564102,4650.769230,3989.743590,4025.641025
232,4398.974358,4514.871794,4526.153846,4258.974358,4484.102564,4207.692307,4440.512820,4215.897435,4227.179487,4506.666666,4192.820512,4649.743589,3979.487180,4019.487179
233,4396.923076,4509.230769,4521.025641,4252.820512,4481.538461,4200.000000,4440.000000,4214.871794,4224.102564,4504.615384,4192.820512,4648.717948,3975.384616,4017.948717
234,4397.435897,4513.333333,4526.666666,4258.461538,4477.435897,4204.615384,4440.512820,4213.333333,4230.256410,4501.025641,4196.410256,4649.230769,3982.564103,4022.564102
235,4402.051282,4520.000000,4533.846153,4265.641025,4481.025641,4216.410256,4446.153846,4222.051282,4234.358974,4502.051282,4197.948717,4653.333333,3988.205129,4025.128205
236,4409.743589,4525.641025,4536.410256,4270.256410,4486.666666,4218.974358,4454.358974,4232.820512,4237.948717,4512.307692,4198.974358,4656.923076,3982.564103,4025.641025
237,4414.871794,4531.282051,4540.000000,4277.435897,4491.794871,4218.974358,4460.000000,4236.410256,4245.641025,4521.538461,4200.000000,4661.025641,3985.641026,4033.846153
238,4415.897435,4529.230769,4540.000000,4279.487179,4495.384615,4221.025641,4460.000000,4234.358974,4245.128205,4516.923076,4205.128205,4663.589743,3997.948718,4040.512820
239,4410.769230,4521.025641,4534.871794,4274.358974,4490.769230,4218.974358,4455.897435,4229.743589,4230.256410,4500.512820,4210.769230,4660.000000,3994.871795,4031.282051
240,4404.615384,4520.512820,4532.820512,4269.230769,4488.717948,4217.435897,4455.384615,4229.230769,4227.179487,4497.948717,4207.692307,4656.923076,3985.641026,4023.076923
241,4403.076923,4524.102564,4533.846153,4263.589743,4493.333333,4220.000000,4456.923076,4232.820512,4243.076923,4518.461538,4199.487179,4658.461538,3988.717949,4029.230769
242,4408.205128,4521.538461,4532.307692,4261.538461,4488.717948,4217.948717,4453.846153,4234.358974,4247.692307,4525.128205,4205.128205,4660.000000,3993.333334,4033.846153
243,4413.333333,4524.615384,4534.358974,4266.666666,4480.512820,4215.897435,4452.307692,4231.794871,4241.025641,4508.717948,4218.461538,4660.000000,3993.846154,4031.794871
244,4412.820512,4529.743589,4540.000000,4272.820512,4486.153846,4224.102564,4458.461538,4234.358974,4244.615384,4505.641025,4220.000000,4662.051282,3997.435898,4036.410256
245,4410.769230,4525.641025,4539.487179,4270.769230,4497.435897,4228.717948,4462.051282,4236.410256,4246.153846,4514.871794,4214.871794,4662.564102,3996.923077,4042.051282
246,4410.256410,4524.615384,4535.897435,4267.692307,4494.871794,4221.025641,4454.358974,4233.846153,4240.000000,4517.948717,4212.307692,4661.025641,3995.897436,4037.435897
247,4409.743589,4530.769230,4533.846153,4267.179487,4489.743589,4214.871794,4446.153846,4228.205128,4240.512820,4517.948717,4210.256410,4658.461538,4001.538461,4031.794871
248,4409.743589,4529.743589,4532.820512,4266.153846,4491.794871,4215.384615,4445.128205,4220.512820,4241.538461,4512.307692,4205.641025,4656.410256,3998.974359,4034.358974
249,4413.333333,4522.051282,4536.923076,4267.179487,4490.256410,4216.410256,4448.205128,4222.051282,4238.461538,4508.205128,4210.256410,4659.487179,3991.282052,4035.384615
250,4410.769230,4520.000000,4537.435897,4267.692307,4487.179487,4215.384615,4445.128205,4224.102564,4235.897435,4508.717948,4209.743589,4657.948717,3990.256411,4030.769230
251,4412.307692,4532.307692,4535.384615,4272.307692,4491.794871,4220.512820,4443.589743,4224.102564,4237.948717,4508.717948,4209.230769,4655.897435,3997.948718,4035.384615
252,4427.179487,4546.153846,4546.666666,4287.179487,4496.410256,4227.692307,4456.410256,4229.743589,4245.641025,4511.794871,4229.230769,4664.615384,4009.743589,4052.820512
253,4434.871794,4546.666666,4555.897435,4291.794871,4498.461538,4226.666666,4460.000000,4237.948717,4255.384615,4518.974358,4234.871794,4668.717948,4014.871794,4060.000000
254,4422.051282,4537.435897,4546.666666,4278.974358,4502.051282,4221.025641,4447.692307,4233.846153,4250.769230,4517.435897,4209.743589,4657.948717,4004.615384,4045.641025
255,4414.871794,4534.871794,4534.871794,4273.846153,4498.974358,4218.461538,4441.025641,4220.000000,4238.974358,4510.256410,4203.589743,4648.717948,3994.358975,4034.358974
256,4423.589743,4541.538461,4537.948717,4280.512820,4490.256410,4219.487179,4446.666666,4221.538461,4235.897435,4507.179487,4224.615384,4651.794871,3996.923077,4038.974358
257,4424.102564,4543.076923,4541.538461,4281.538461,4490.769230,4222.051282,4447.692307,4228.717948,4232.820512,4507.179487,4221.025641,4652.820512,3999.487180,4037.948717
258,4415.897435,4537.948717,4535.897435,4276.923076,4493.846153,4221.538461,4444.102564,4220.000000,4227.179487,4502.564102,4201.025641,4647.179487,3994.358975,4029.743589
259,4416.410256,4535.384615,4533.846153,4276.923076,4488.717948,4216.923076,4443.076923,4214.358974,4225.641025,4496.410256,4195.384615,4645.641025,3988.717949,4033.846153
