,AF3,F7,F3,FC5,T7,P7,O1,O2,P8,T8,FC6,F4,F8,AF4
0,4283.076923,4556.923076,4523.589743,4278.974358,4489.743589,4200.000000,4440.512820,4208.717948,4229.743589,4486.666666,4214.871794,4635.897435,3934.871795,4020.512820
1,4282.051282,4555.384615,4525.128205,4273.846153,4491.794871,4197.435897,4444.102564,4212.820512,4234.871794,4494.358974,4200.000000,4635.897435,3934.358975,4018.974358
2,4277.948717,4553.846153,4516.923076,4263.076923,4490.769230,4192.820512,4443.076923,4208.717948,4233.846153,4492.820512,4186.666666,4631.282051,3936.410257,4013.333333
3,4278.461538,4552.820512,4515.384615,4260.512820,4488.205128,4194.871794,4440.512820,4205.641025,4228.205128,4487.179487,4192.820512,4629.230769,3935.897436,4006.666666
4,4276.410256,4550.769230,4516.923076,4257.948717,4486.666666,4191.794871,4443.589743,4203.589743,4228.205128,4490.256410,4197.948717,4626.153846,3926.666667,4003.076923
5,4273.846153,4546.153846,4512.820512,4260.512820,4488.717948,4187.179487,4442.051282,4198.461538,4227.692307,4491.282051,4189.743589,4622.564102,3924.102565,4004.102564
6,4275.897435,4544.615384,4511.794871,4268.205128,4490.256410,4187.179487,4432.307692,4201.538461,4223.589743,4488.717948,4185.128205,4622.051282,3927.179488,4004.615384
7,4278.461538,4552.307692,4510.769230,4265.641025,4489.230769,4186.153846,4431.794871,4202.564102,4228.205128,4493.333333,4189.743589,4624.102564,3924.102565,4003.589743
8,4278.974358,4558.974358,4510.769230,4262.564102,4490.256410,4184.615384,4440.512820,4199.487179,4235.897435,4501.538461,4196.923076,4626.666666,3932.820513,4006.153846
9,4282.051282,4557.948717,4515.384615,4264.102564,4495.384615,4190.256410,4445.641025,4207.692307,4235.384615,4504.102564,4205.128205,4631.282051,3946.666667,4011.282051
10,4285.641025,4555.897435,4518.461538,4263.589743,4494.871794,4191.794871,4444.615384,4211.282051,4232.307692,4500.512820,4202.564102,4635.384615,3941.538462,4012.820512
11,4279.487179,4553.333333,4515.897435,4264.102564,4489.230769,4185.641025,4442.564102,4201.538461,4227.692307,4493.333333,4190.769230,4632.307692,3925.641026,4005.641025
12,4274.871794,4552.820512,4516.923076,4263.589743,4489.230769,4189.230769,4442.564102,4195.897435,4225.641025,4489.230769,4191.794871,4627.692307,3926.666667,4002.051282
13,4283.076923,4558.461538,4524.102564,4268.205128,4494.358974,4197.435897,4443.076923,4201.538461,4231.282051,4491.282051,4199.487179,4633.333333,3943.076924,4008.717948
14,4286.153846,4555.897435,4521.538461,4266.153846,4493.333333,4192.820512,4437.435897,4201.025641,4227.692307,4491.282051,4192.307692,4635.897435,3942.564103,4009.743589
15,4277.435897,4547.692307,4510.769230,4251.794871,4487.179487,4183.076923,4433.846153,4195.897435,4213.846153,4487.179487,4187.179487,4626.666666,3924.615385,4002.564102
16,4275.897435,4551.794871,4509.230769,4253.333333,4487.179487,4186.153846,4441.025641,4199.487179,4215.384615,4486.666666,4197.435897,4625.128205,3918.461539,4001.538461
17,4276.923076,4550.256410,4514.358974,4268.205128,4490.256410,4186.153846,4444.615384,4204.102564,4225.641025,4488.205128,4193.333333,4629.743589,3921.538462,4000.512820
18,4274.358974,4536.410256,4514.358974,4267.179487,4489.743589,4181.538461,4440.512820,4201.025641,4227.692307,4488.717948,4178.974358,4626.153846,3922.051283,3997.435898
19,4278.461538,4538.461538,4514.871794,4261.538461,4490.256410,4192.307692,4442.051282,4202.564102,4230.256410,4492.307692,4187.179487,4630.256410,3928.717949,4002.564102
20,4283.589743,4552.307692,4514.358974,4263.076923,4493.846153,4202.564102,4443.589743,4208.717948,4234.871794,4493.846153,4200.000000,4635.897435,3929.230770,4007.692307
21,4283.589743,4554.358974,4512.307692,4261.538461,4492.820512,4198.974358,4438.974358,4204.615384,4232.820512,4491.794871,4197.435897,4630.256410,3918.974359,4004.615384
22,4290.769230,4553.333333,4515.384615,4271.282051,4494.871794,4198.974358,4438.974358,4206.153846,4231.794871,4492.820512,4198.974358,4630.769230,3927.179488,4007.179487
23,4297.948717,4551.282051,4517.435897,4280.000000,4498.974358,4198.461538,4443.076923,4214.871794,4233.333333,4492.820512,4203.589743,4637.948717,3947.179488,4012.820512
24,4294.358974,4554.358974,4515.897435,4271.282051,4497.435897,4189.743589,4443.589743,4206.666666,4231.794871,4491.282051,4200.512820,4632.820512,3948.717949,4014.358974
25,4295.384615,4564.102564,4521.025641,4265.128205,4498.461538,4190.769230,4444.102564,4201.538461,4235.897435,4497.948717,4204.102564,4631.794871,3943.589744,4017.948717
26,4306.666666,4571.794871,4527.179487,4268.205128,4506.666666,4202.051282,4447.179487,4213.333333,4245.641025,4508.717948,4214.871794,4644.102564,3948.717949,4023.076923
27,4308.205128,4569.743589,4524.615384,4274.871794,4509.743589,4203.589743,4447.179487,4210.256410,4244.615384,4510.769230,4212.820512,4646.153846,3949.743590,4023.076923
28,4300.000000,4559.487179,4520.512820,4277.435897,4506.153846,4199.487179,4443.076923,4195.384615,4229.743589,4496.923076,4204.615384,4638.461538,3940.512821,4015.384615
29,4291.282051,4550.769230,4519.487179,4275.384615,4505.641025,4198.974358,4443.076923,4197.948717,4218.974358,4478.974358,4199.487179,4630.769230,3931.794872,4006.666666
30,4283.589743,4547.179487,4515.897435,4266.153846,4504.615384,4198.974358,4443.589743,4204.615384,4222.051282,4480.512820,4192.820512,4623.589743,3926.666667,4003.076923
31,4283.076923,4549.230769,4512.307692,4251.282051,4502.051282,4197.948717,4442.051282,4203.589743,4230.256410,4488.717948,4190.769230,4624.102564,3923.076924,4000.512820
32,4293.846153,4554.358974,4516.923076,4254.358974,4506.153846,4200.512820,4444.615384,4205.128205,4234.358974,4490.769230,4201.538461,4632.820512,3926.153847,4003.076923
33,4299.487179,4557.948717,4520.000000,4274.358974,4504.615384,4201.538461,4447.692307,4206.153846,4233.846153,4493.333333,4209.743589,4635.897435,3937.435898,4008.717948
34,4291.794871,4552.307692,4515.384615,4279.487179,4496.923076,4200.000000,4443.076923,4201.025641,4230.256410,4495.897435,4205.641025,4627.692307,3940.512821,4005.641025
35,4293.846153,4550.769230,4516.410256,4269.230769,4498.974358,4198.974358,4443.076923,4202.051282,4232.307692,4497.948717,4207.692307,4626.153846,3943.589744,4007.692307
36,4306.666666,4558.461538,4526.153846,4267.179487,4508.205128,4201.538461,4451.794871,4214.358974,4238.974358,4505.128205,4217.435897,4638.974358,3953.333334,4019.487179
37,4308.717948,4560.512820,4527.692307,4271.282051,4506.666666,4200.512820,4449.743589,4219.487179,4242.051282,4509.230769,4224.102564,4644.615384,3950.256411,4020.512820
38,4306.153846,4561.538461,4525.128205,4278.974358,4501.025641,4197.948717,4446.666666,4218.461538,4241.025641,4507.179487,4225.641025,4638.974358,3940.512821,4016.410256
39,4309.743589,4563.589743,4523.076923,4283.076923,4503.076923,4199.487179,4454.871794,4220.512820,4239.487179,4502.564102,4218.461538,4636.923076,3944.615385,4021.538461
40,4308.205128,4557.948717,4516.410256,4273.333333,4506.153846,4202.564102,4453.333333,4212.820512,4235.897435,4497.435897,4204.615384,4634.871794,3950.769231,4017.435897
41,4296.923076,4547.692307,4512.307692,4266.666666,4503.076923,4197.435897,4441.025641,4194.871794,4227.179487,4495.384615,4195.897435,4625.641025,3941.538462,4003.589743
42,4289.743589,4548.205128,4515.384615,4265.641025,4494.358974,4191.282051,4440.512820,4190.769230,4222.051282,4498.461538,4202.051282,4621.025641,3925.641026,3998.974359
43,4294.358974,4553.333333,4522.564102,4262.564102,4489.743589,4194.871794,4444.615384,4198.461538,4224.102564,4501.025641,4214.358974,4630.769230,3927.692308,4004.615384
44,4305.128205,4546.153846,4523.589743,4262.564102,4492.820512,4198.974358,4441.538461,4205.641025,4232.820512,4506.666666,4223.589743,4643.076923,3950.256411,4015.384615
45,4311.282051,4536.923076,4520.000000,4264.615384,4494.871794,4196.923076,4447.179487,4218.974358,4243.076923,4509.230769,4226.666666,4645.128205,3965.128206,4024.615384
46,4315.897435,4547.179487,4525.641025,4265.641025,4492.820512,4197.948717,4459.487179,4232.820512,4249.743589,4508.717948,4227.179487,4645.641025,3961.025642,4028.205128
47,4325.128205,4561.538461,4536.923076,4264.102564,4490.769230,4203.589743,4462.564102,4237.948717,4255.384615,4517.435897,4233.333333,4652.307692,3963.589744,4032.820512
48,4323.076923,4555.384615,4535.384615,4265.128205,4497.435897,4203.076923,4460.000000,4236.923076,4254.358974,4522.564102,4233.333333,4652.307692,3960.000000,4027.179487
49,4313.333333,4555.384615,4527.692307,4274.871794,4505.128205,4201.025641,4463.589743,4229.230769,4244.102564,4508.717948,4220.512820,4641.538461,3944.615385,4011.794871
50,4304.615384,4565.641025,4522.564102,4278.461538,4500.000000,4204.615384,4461.025641,4212.820512,4227.692307,4492.820512,4204.615384,4631.282051,3938.974359,4002.051282
51,4289.743589,4553.333333,4511.282051,4265.641025,4489.743589,4198.461538,4446.153846,4192.820512,4212.820512,4481.538461,4193.333333,4623.076923,3926.666667,3987.692308
52,4278.461538,4535.897435,4501.025641,4250.256410,4488.717948,4187.179487,4438.461538,4182.564102,4210.256410,4476.410256,4192.820512,4617.948717,3908.717949,3974.358975
53,4281.025641,4536.410256,4501.538461,4246.153846,4492.307692,4193.846153,4442.051282,4189.230769,4217.948717,4485.641025,4195.384615,4619.487179,3912.820513,3978.974359
54,4290.769230,4536.923076,4509.743589,4247.179487,4492.307692,4199.487179,4442.564102,4205.128205,4228.205128,4503.589743,4197.948717,4628.717948,3925.128206,3988.717949
55,4296.923076,4534.358974,4512.820512,4250.769230,4490.256410,4192.307692,4441.025641,4216.923076,4236.410256,4508.205128,4204.615384,4638.461538,3926.153847,3994.871795
56,4298.974358,4545.128205,4514.871794,4261.025641,4491.282051,4194.871794,4448.717948,4225.128205,4241.025641,4501.025641,4218.461538,4641.025641,3932.820513,4004.102564
57,4301.025641,4548.717948,4519.487179,4267.692307,4491.282051,4198.461538,4458.461538,4230.769230,4241.538461,4495.384615,4220.512820,4638.974358,3944.615385,4009.230769
58,4300.000000,4540.000000,4513.846153,4264.615384,4487.179487,4191.282051,4460.000000,4227.692307,4236.923076,4493.333333,4205.128205,4635.897435,3944.102565,4004.102564
59,4297.948717,4544.615384,4508.205128,4258.461538,4484.102564,4192.820512,4458.461538,4222.564102,4230.769230,4498.461538,4202.051282,4634.358974,3940.000000,4002.564102
60,4303.076923,4558.461538,4516.923076,4262.051282,4491.794871,4201.025641,4460.512820,4220.512820,4233.333333,4507.692307,4217.948717,4643.589743,3942.564103,4007.692307
61,4308.205128,4561.025641,4528.205128,4272.820512,4495.897435,4200.000000,4463.589743,4217.435897,4242.564102,4512.820512,4227.692307,4657.948717,3943.076924,4006.153846
62,4300.512820,4553.333333,4525.641025,4274.358974,4485.128205,4196.923076,4458.974358,4214.358974,4241.538461,4506.153846,4218.974358,4654.871794,3936.410257,3993.846154
63,4290.256410,4545.128205,4518.461538,4266.153846,4482.051282,4197.435897,4448.717948,4214.358974,4231.794871,4491.794871,4205.128205,4641.025641,3930.256411,3984.102565
64,4285.128205,4538.461538,4514.358974,4263.076923,4484.102564,4194.871794,4449.743589,4213.846153,4227.692307,4487.692307,4196.923076,4635.384615,3923.589744,3983.589744
65,4285.128205,4537.948717,4510.769230,4263.076923,4482.051282,4196.410256,4460.512820,4213.333333,4229.743589,4495.384615,4201.538461,4634.871794,3918.461539,3984.615385
66,4293.846153,4541.538461,4510.769230,4253.333333,4484.615384,4201.538461,4465.128205,4217.948717,4238.461538,4502.051282,4212.820512,4635.897435,3930.769231,3992.820513
67,4296.923076,4538.461538,4506.153846,4243.589743,4486.153846,4196.410256,4460.000000,4220.512820,4246.666666,4507.179487,4205.641025,4635.384615,3937.948718,3998.461539
68,4290.769230,4534.871794,4504.102564,4252.307692,4487.179487,4191.794871,4459.487179,4218.974358,4243.076923,4509.743589,4195.897435,4630.256410,3932.820513,3991.282052
69,4288.205128,4537.948717,4508.717948,4264.615384,4488.205128,4195.897435,4458.974358,4214.358974,4233.333333,4498.461538,4202.564102,4627.179487,3934.358975,3989.230770
70,4288.205128,4543.076923,4508.717948,4265.641025,4484.102564,4193.333333,4448.717948,4205.128205,4222.051282,4481.025641,4198.461538,4622.564102,3935.897436,3990.256411
71,4287.692307,4542.051282,4503.589743,4260.000000,4480.512820,4185.128205,4440.000000,4196.410256,4213.846153,4473.846153,4185.128205,4616.923076,3924.102565,3978.974359
72,4290.769230,4540.000000,4508.717948,4254.871794,4484.102564,4185.641025,4440.512820,4196.410256,4213.333333,4475.384615,4194.358974,4621.538461,3920.512821,3974.871795
73,4293.333333,4548.205128,4513.846153,4255.897435,4481.538461,4188.717948,4447.692307,4203.076923,4220.512820,4476.923076,4205.641025,4630.769230,3928.717949,3986.666667
74,4297.435897,4558.461538,4512.820512,4263.589743,4474.358974,4190.256410,4454.871794,4212.820512,4224.615384,4477.435897,4198.974358,4634.871794,3928.205129,3994.871795
75,4302.051282,4551.794871,4519.487179,4271.282051,4477.435897,4192.820512,4461.538461,4218.974358,4221.538461,4478.461538,4201.538461,4639.487179,3925.641026,3993.333334
76,4294.871794,4538.461538,4521.025641,4266.153846,4476.923076,4187.692307,4460.512820,4219.487179,4221.025641,4475.897435,4201.538461,4637.435897,3923.076924,3990.256411
77,4281.538461,4535.384615,4511.282051,4253.846153,4474.358974,4184.102564,4452.307692,4216.923076,4221.025641,4472.307692,4186.666666,4626.153846,3914.871795,3984.615385
78,4276.923076,4534.871794,4506.666666,4249.230769,4473.333333,4185.128205,4446.153846,4208.205128,4218.461538,4474.358974,4181.538461,4616.923076,3909.743590,3974.871795
79,4281.538461,4536.923076,4505.641025,4246.666666,4475.897435,4181.025641,4440.512820,4196.410256,4215.897435,4478.461538,4190.256410,4613.846153,3914.358975,3973.333334
80,4288.717948,4550.256410,4506.666666,4249.743589,4487.692307,4187.179487,4440.512820,4202.564102,4224.615384,4486.153846,4202.051282,4621.538461,3929.743590,3986.153847
81,4301.538461,4558.974358,4512.307692,4265.128205,4494.871794,4202.564102,4452.820512,4219.487179,4243.076923,4503.589743,4216.410256,4636.410256,3947.179488,4004.615384
82,4307.179487,4553.846153,4517.435897,4273.333333,4490.769230,4202.051282,4459.487179,4221.538461,4244.615384,4509.230769,4216.923076,4638.461538,3947.179488,4004.615384
83,4297.435897,4552.820512,4516.410256,4265.641025,4489.743589,4189.230769,4449.743589,4215.384615,4236.923076,4494.871794,4203.076923,4630.256410,3930.769231,3994.358975
84,4292.820512,4557.435897,4514.871794,4267.692307,4489.230769,4184.102564,4440.512820,4215.897435,4229.743589,4483.076923,4200.000000,4629.230769,3925.641026,3992.820513
85,4303.589743,4555.384615,4516.923076,4272.307692,4485.641025,4188.717948,4447.692307,4216.410256,4221.538461,4482.564102,4212.820512,4632.820512,3934.358975,3999.487180
86,4310.769230,4555.384615,4522.051282,4261.538461,4489.743589,4190.769230,4457.435897,4217.435897,4225.128205,4492.307692,4220.000000,4636.410256,3944.102565,4008.205128
87,4312.820512,4563.589743,4528.205128,4266.153846,4490.256410,4188.205128,4458.461538,4224.615384,4243.589743,4505.641025,4217.435897,4640.512820,3952.307693,4013.846153
88,4317.435897,4565.128205,4529.230769,4282.564102,4478.974358,4186.153846,4458.461538,4232.307692,4253.846153,4512.307692,4215.384615,4640.512820,3944.102565,4010.769230
89,4318.974358,4556.923076,4527.692307,4277.435897,4474.871794,4187.179487,4458.974358,4233.333333,4249.230769,4507.692307,4216.410256,4638.974358,3928.717949,4005.641025
90,4310.256410,4549.230769,4524.102564,4261.025641,4478.461538,4187.692307,4452.307692,4225.641025,4242.051282,4498.461538,4208.717948,4634.871794,3928.717949,4004.615384
91,4300.000000,4544.102564,4515.384615,4253.333333,4476.923076,4184.102564,4441.538461,4209.743589,4228.717948,4491.282051,4199.487179,4627.179487,3931.794872,3996.410257
92,4296.410256,4540.000000,4506.666666,4247.179487,4474.358974,4183.589743,4437.948717,4200.000000,4217.435897,4489.743589,4198.461538,4622.564102,3930.256411,3987.692308
93,4294.871794,4536.923076,4500.512820,4241.538461,4475.897435,4186.153846,4432.820512,4198.974358,4215.897435,4486.153846,4194.358974,4621.025641,3923.589744,3989.743590
94,4294.871794,4535.384615,4500.000000,4249.743589,4478.461538,4184.102564,4425.128205,4197.435897,4213.846153,4476.410256,4189.230769,4617.948717,3913.333334,3989.743590
95,4302.564102,4544.102564,4509.230769,4264.615384,4485.641025,4183.589743,4433.333333,4197.948717,4215.384615,4475.897435,4189.230769,4621.538461,3916.923077,3990.256411
96,4310.256410,4558.461538,4516.923076,4266.153846,4492.820512,4186.666666,4443.589743,4202.564102,4218.461538,4480.512820,4188.717948,4627.179487,3929.230770,3997.948718
97,4310.769230,4559.487179,4512.820512,4265.641025,4488.205128,4184.615384,4440.000000,4197.948717,4210.256410,4476.923076,4187.692307,4624.615384,3926.153847,4004.102564
98,4310.256410,4554.871794,4512.307692,4272.820512,4479.487179,4180.512820,4437.948717,4192.820512,4207.692307,4474.358974,4196.923076,4625.128205,3925.641026,4004.615384
99,4313.333333,4557.948717,4519.487179,4270.769230,4475.897435,4185.128205,4442.051282,4198.461538,4217.435897,4476.923076,4204.102564,4633.333333,3934.871795,4007.692307
100,4311.794871,4558.461538,4513.846153,4257.435897,4474.871794,4181.538461,4432.307692,4197.948717,4211.794871,4470.256410,4194.358974,4630.256410,3927.179488,4005.128205
101,4307.692307,4551.282051,4503.076923,4258.974358,4473.333333,4169.743589,4423.589743,4190.256410,4202.564102,4463.589743,4185.128205,4619.487179,3911.794872,3997.948718
102,4306.666666,4551.282051,4506.153846,4267.179487,4471.794871,4173.333333,4435.897435,4195.897435,4212.820512,4471.282051,4184.102564,4619.487179,3908.205129,3997.948718
103,4306.666666,4553.846153,4509.743589,4260.512820,4473.846153,4184.615384,4446.666666,4207.692307,4221.025641,4478.461538,4187.692307,4625.128205,3911.794872,4001.538461
104,4305.128205,4546.666666,4508.717948,4260.512820,4475.384615,4185.128205,4445.641025,4206.666666,4222.051282,4477.948717,4190.256410,4625.641025,3922.051283,3998.461539
105,4301.538461,4543.589743,4511.282051,4265.641025,4476.410256,4182.051282,4441.025641,4202.051282,4231.282051,4484.102564,4190.256410,4627.692307,3929.230770,3993.846154
106,4296.923076,4551.282051,4509.743589,4255.897435,4475.384615,4183.589743,4432.820512,4201.538461,4230.256410,4493.846153,4185.641025,4626.153846,3920.512821,3990.256411
107,4292.820512,4551.794871,4504.615384,4249.230769,4476.410256,4182.564102,4425.641025,4199.487179,4221.538461,4494.871794,4183.076923,4619.487179,3912.307693,3986.666667
108,4302.051282,4550.769230,4507.179487,4262.051282,4486.153846,4183.589743,4433.333333,4201.025641,4225.128205,4483.076923,4194.358974,4625.641025,3920.000000,3992.307693
109,4312.820512,4557.948717,4508.205128,4268.205128,4493.333333,4191.282051,4446.153846,4205.128205,4229.230769,4476.923076,4203.076923,4636.410256,3933.333334,4007.692307
110,4304.615384,4557.948717,4500.512820,4262.564102,4490.256410,4190.769230,4440.512820,4203.589743,4222.051282,4484.102564,4198.974358,4632.307692,3934.871795,4005.128205
111,4295.384615,4549.230769,4498.461538,4262.051282,4486.666666,4182.051282,4429.743589,4196.923076,4213.846153,4481.538461,4194.871794,4621.538461,3925.128206,3990.256411
112,4303.076923,4550.256410,4504.615384,4256.410256,4489.743589,4186.666666,4435.384615,4197.948717,4210.769230,4470.256410,4200.000000,4625.641025,3920.000000,3992.820513
113,4311.794871,4553.333333,4510.769230,4252.307692,4491.282051,4194.871794,4446.153846,4208.717948,4216.410256,4479.487179,4204.102564,4636.410256,3926.153847,4005.641025
114,4308.205128,4545.641025,4510.769230,4264.102564,4492.307692,4189.743589,4444.615384,4214.871794,4224.102564,4492.820512,4197.948717,4635.897435,3930.769231,4003.589743
115,4309.230769,4548.717948,4510.769230,4275.897435,4492.820512,4185.128205,4442.051282,4214.358974,4225.641025,4489.743589,4202.564102,4634.358974,3927.179488,3998.974359
116,4321.025641,4568.717948,4517.435897,4278.461538,4489.743589,4190.256410,4445.128205,4216.410256,4233.333333,4491.282051,4213.333333,4640.512820,3926.153847,4008.205128
117,4325.128205,4575.384615,4520.000000,4278.974358,4489.230769,4190.256410,4446.666666,4219.487179,4238.461538,4498.974358,4207.179487,4644.102564,3926.153847,4016.410256
118,4316.923076,4558.974358,4517.948717,4269.743589,4489.230769,4185.128205,4445.128205,4214.871794,4226.666666,4489.230769,4198.461538,4641.025641,3926.153847,4010.769230
119,4311.282051,4551.282051,4514.871794,4258.461538,4487.692307,4185.641025,4443.589743,4209.230769,4216.923076,4475.897435,4203.589743,4638.974358,3929.743590,4002.051282
120,4313.846153,4552.820512,4512.820512,4258.974358,4488.205128,4187.692307,4444.102564,4212.820512,4226.153846,4480.512820,4202.564102,4640.000000,3928.205129,4000.512820
121,4314.358974,4542.051282,4516.410256,4262.051282,4489.743589,4188.717948,4446.666666,4216.923076,4233.846153,4490.769230,4200.000000,4644.615384,3925.641026,4004.102564
122,4315.384615,4538.974358,4521.025641,4268.717948,4488.205128,4188.717948,4445.128205,4217.435897,4230.769230,4493.333333,4215.384615,4651.794871,3925.641026,4004.615384
123,4323.076923,4552.820512,4521.025641,4275.384615,4488.717948,4186.666666,4442.051282,4215.384615,4226.666666,4489.743589,4224.102564,4650.769230,3926.666667,4004.102564
124,4326.153846,4558.974358,4521.025641,4278.461538,4491.282051,4187.179487,4443.589743,4214.871794,4228.717948,4493.333333,4210.769230,4644.615384,3936.410257,4008.205128
125,4324.102564,4555.897435,4525.128205,4278.461538,4490.769230,4186.666666,4444.102564,4217.435897,4233.333333,4503.589743,4208.205128,4648.717948,3943.589744,4011.282051
126,4327.692307,4564.102564,4528.717948,4270.769230,4489.230769,4184.615384,4441.025641,4221.538461,4237.435897,4509.743589,4230.769230,4656.923076,3943.076924,4016.923076
127,4336.410256,4573.846153,4527.692307,4266.666666,4492.307692,4187.179487,4443.076923,4222.051282,4241.538461,4509.743589,4237.435897,4658.461538,3953.846154,4028.205128
128,4333.846153,4567.179487,4520.000000,4274.871794,4490.256410,4188.717948,4440.000000,4216.923076,4240.512820,4500.000000,4218.461538,4651.794871,3956.923077,4025.641025
129,4324.102564,4556.410256,4510.769230,4277.948717,4484.615384,4183.589743,4430.256410,4213.333333,4233.333333,4496.410256,4210.256410,4644.102564,3935.897436,4008.205128
130,4320.512820,4551.794871,4509.230769,4273.333333,4485.641025,4182.564102,4431.282051,4213.846153,4231.282051,4503.076923,4218.974358,4645.641025,3929.230770,4001.538461
131,4316.410256,4551.794871,4508.205128,4269.230769,4489.230769,4185.128205,4437.948717,4214.358974,4231.282051,4503.589743,4217.948717,4648.717948,3939.487180,4005.641025
132,4309.743589,4552.820512,4502.564102,4256.923076,4489.743589,4185.128205,4434.871794,4215.384615,4222.051282,4491.282051,4204.615384,4643.076923,3932.820513,4000.000000
133,4309.230769,4552.820512,4504.102564,4251.794871,4487.179487,4185.128205,4431.282051,4214.871794,4214.358974,4477.435897,4199.487179,4638.974358,3924.615385,3993.333334
134,4313.333333,4552.307692,4508.205128,4266.153846,4480.512820,4180.000000,4428.717948,4206.666666,4216.410256,4473.333333,4200.512820,4641.538461,3923.589744,3996.410257
135,4317.948717,4553.846153,4509.743589,4271.282051,4473.846153,4175.897435,4427.179487,4204.102564,4214.358974,4472.307692,4201.025641,4643.076923,3922.564103,4003.589743
136,4321.025641,4551.794871,4513.846153,4263.589743,4473.333333,4181.025641,4435.384615,4212.820512,4215.384615,4473.846153,4204.102564,4646.153846,3929.230770,4008.205128
137,4318.974358,4548.205128,4515.897435,4264.102564,4475.384615,4185.641025,4445.128205,4220.000000,4219.487179,4480.000000,4209.743589,4651.794871,3931.794872,4007.692307
138,4313.333333,4548.717948,4512.820512,4264.102564,4473.846153,4182.564102,4442.051282,4215.384615,4217.948717,4484.102564,4208.717948,4646.153846,3922.051283,4004.102564
139,4310.769230,4547.692307,4511.282051,4253.333333,4475.897435,4184.102564,4437.948717,4206.153846,4214.871794,4479.487179,4201.538461,4636.410256,3922.051283,4004.615384
140,4309.743589,4543.589743,4511.794871,4251.794871,4485.128205,4187.692307,4440.000000,4207.179487,4218.974358,4470.769230,4200.000000,4637.435897,3927.692308,4003.076923
141,4308.717948,4545.128205,4508.205128,4263.076923,4490.769230,4186.153846,4444.102564,4215.897435,4227.692307,4478.461538,4202.564102,4640.512820,3927.692308,3997.948718
142,4306.666666,4548.717948,4503.076923,4267.692307,4489.743589,4187.179487,4445.128205,4218.974358,4233.333333,4491.282051,4208.205128,4638.461538,3933.333334,3996.923077
143,4302.051282,4549.230769,4498.974358,4260.000000,4488.717948,4187.179487,4441.538461,4214.871794,4231.794871,4491.794871,4208.717948,4634.871794,3943.589744,3993.333334
144,4302.564102,4552.820512,4496.923076,4260.000000,4488.717948,4185.641025,4439.487179,4212.307692,4228.717948,4490.769230,4203.589743,4632.820512,3940.512821,3991.794872
145,4308.205128,4555.897435,4499.487179,4263.076923,4488.205128,4185.641025,4442.051282,4208.205128,4230.256410,4494.871794,4202.051282,4634.871794,3927.692308,4001.025641
146,4312.307692,4556.923076,4502.564102,4258.461538,4490.256410,4186.666666,4438.461538,4202.051282,4225.128205,4488.717948,4200.512820,4637.435897,3922.564103,4007.179487
147,4314.358974,4557.435897,4504.102564,4262.564102,4490.769230,4184.102564,4429.743589,4198.974358,4211.282051,4474.871794,4195.384615,4633.846153,3929.743590,4004.102564
148,4313.846153,4552.820512,4507.692307,4273.333333,4487.692307,4180.512820,4427.179487,4195.384615,4206.153846,4472.820512,4195.897435,4631.794871,3933.846154,4002.564102
149,4310.256410,4555.897435,4507.692307,4271.794871,4488.205128,4184.615384,4429.743589,4196.410256,4213.846153,4474.358974,4201.025641,4631.794871,3927.692308,3998.461539
150,4308.205128,4558.974358,4505.128205,4271.282051,4490.256410,4189.743589,4430.769230,4202.564102,4220.000000,4476.410256,4199.487179,4630.769230,3922.564103,3991.794872
151,4311.794871,4554.358974,4506.153846,4280.512820,4490.256410,4186.666666,4434.871794,4201.025641,4218.461538,4482.564102,4197.435897,4632.307692,3924.615385,3997.948718
152,4312.820512,4556.410256,4512.820512,4273.333333,4491.794871,4185.641025,4441.025641,4201.025641,4222.564102,4488.717948,4201.538461,4637.435897,3925.128206,4004.615384
153,4321.025641,4569.743589,4523.076923,4262.564102,4494.871794,4196.923076,4443.589743,4212.820512,4232.307692,4495.897435,4208.717948,4646.153846,3931.794872,4008.717948
154,4338.461538,4575.897435,4529.743589,4278.461538,4494.871794,4201.025641,4445.128205,4215.897435,4235.384615,4500.512820,4214.871794,4657.435897,3953.333334,4021.025641
155,4340.000000,4572.820512,4522.564102,4291.282051,4493.333333,4190.769230,4438.974358,4202.564102,4230.769230,4494.871794,4218.461538,4653.846153,3963.076924,4027.692307
156,4328.205128,4570.769230,4514.871794,4280.512820,4492.307692,4185.128205,4430.769230,4195.897435,4230.256410,4490.769230,4211.794871,4640.512820,3949.743590,4017.435897
157,4326.153846,4569.743589,4517.948717,4274.358974,4492.307692,4188.717948,4434.358974,4202.564102,4233.846153,4497.435897,4203.589743,4638.974358,3942.051283,4008.717948
158,4330.769230,4570.769230,4517.435897,4284.102564,4500.000000,4191.794871,4442.051282,4204.615384,4231.282051,4498.461538,4209.743589,4640.512820,3942.564103,4006.153846
159,4326.153846,4572.820512,4516.410256,4280.000000,4506.666666,4198.974358,4442.051282,4200.512820,4227.692307,4489.743589,4213.333333,4638.974358,3943.589744,4004.615384
160,4323.076923,4571.282051,4519.487179,4268.717948,4499.487179,4200.512820,4442.051282,4205.641025,4229.743589,4494.358974,4209.230769,4640.512820,3950.769231,4009.230769
161,4327.179487,4567.692307,4516.923076,4271.282051,4488.717948,4188.205128,4441.025641,4213.333333,4231.794871,4500.000000,4211.794871,4641.538461,3949.230770,4011.794871
162,4327.179487,4562.564102,4514.358974,4272.820512,4486.153846,4186.666666,4440.512820,4214.358974,4233.333333,4496.410256,4216.923076,4640.512820,3937.435898,4007.179487
163,4325.128205,4556.410256,4516.923076,4272.307692,4489.743589,4198.974358,4449.230769,4220.000000,4241.538461,4498.974358,4215.897435,4644.102564,3946.666667,4005.641025
164,4324.615384,4553.846153,4516.410256,4275.897435,4491.794871,4202.051282,4459.487179,4227.692307,4248.717948,4506.666666,4210.769230,4646.666666,3960.512821,4010.256410
165,4328.717948,4557.435897,4512.820512,4272.307692,4491.282051,4198.461538,4460.512820,4226.666666,4242.564102,4506.153846,4207.692307,4646.666666,3950.256411,4013.333333
166,4336.410256,4567.179487,4523.076923,4267.179487,4492.307692,4200.000000,4458.974358,4224.615384,4236.923076,4502.051282,4212.307692,4651.794871,3942.564103,4018.461538
167,4339.487179,4569.743589,4535.384615,4275.897435,4496.923076,4204.102564,4460.000000,4231.794871,4244.615384,4504.615384,4222.051282,4657.948717,3948.717949,4023.076923
168,4332.307692,4560.000000,4530.769230,4282.051282,4495.897435,4203.076923,4460.512820,4231.794871,4250.769230,4507.692307,4214.871794,4654.358974,3942.051283,4012.820512
169,4325.641025,4552.307692,4520.000000,4275.384615,4490.769230,4200.000000,4455.897435,4221.025641,4243.589743,4503.076923,4200.512820,4648.205128,3926.153847,4002.564102
170,4325.641025,4553.333333,4518.974358,4277.948717,4491.282051,4198.461538,4447.692307,4215.897435,4235.384615,4498.974358,4198.461538,4646.666666,3925.641026,4005.128205
171,4321.538461,4553.846153,4520.512820,4276.410256,4491.282051,4200.000000,4444.102564,4214.871794,4234.358974,4504.102564,4203.076923,4644.615384,3935.897436,4007.179487
172,4318.974358,4551.794871,4518.461538,4266.666666,4491.282051,4199.487179,4450.256410,4215.897435,4235.384615,4505.641025,4210.256410,4642.051282,3940.512821,4004.102564
173,4329.743589,4556.410256,4522.051282,4268.205128,4492.820512,4198.461538,4455.897435,4224.615384,4242.564102,4510.256410,4219.487179,4650.256410,3942.564103,4008.717948
174,4338.461538,4561.538461,4531.282051,4273.333333,4491.282051,4199.487179,4456.410256,4233.846153,4250.256410,4522.564102,4220.512820,4661.538461,3949.743590,4020.000000
175,4337.435897,4562.051282,4535.384615,4275.897435,4490.769230,4200.000000,4456.923076,4232.820512,4250.769230,4517.948717,4217.948717,4661.538461,3958.974359,4023.589743
176,4335.897435,4557.948717,4532.307692,4277.435897,4492.307692,4198.974358,4455.384615,4228.205128,4247.179487,4504.615384,4220.000000,4656.923076,3958.461539,4023.589743
177,4333.333333,4553.333333,4523.076923,4270.256410,4491.282051,4197.435897,4447.692307,4221.025641,4237.435897,4500.000000,4213.333333,4652.820512,3947.179488,4019.487179
178,4330.769230,4562.051282,4518.974358,4268.717948,4491.282051,4200.000000,4443.076923,4206.666666,4220.512820,4492.820512,4200.512820,4649.743589,3941.025642,4014.358974
179,4331.282051,4570.769230,4522.564102,4276.923076,4493.333333,4201.538461,4444.615384,4198.461538,4209.743589,4484.615384,4200.000000,4649.230769,3939.487180,4012.307692
180,4327.692307,4558.974358,4521.025641,4274.358974,4491.794871,4190.769230,4438.974358,4197.948717,4213.846153,4489.743589,4200.512820,4644.102564,3931.794872,4009.230769
181,4323.076923,4546.666666,4516.410256,4266.153846,4487.692307,4188.205128,4434.358974,4196.410256,4217.435897,4491.794871,4195.897435,4635.897435,3929.743590,4004.102564
182,4326.153846,4554.871794,4517.948717,4268.205128,4488.717948,4197.435897,4442.564102,4199.487179,4216.410256,4488.205128,4198.974358,4638.974358,3940.512821,4006.153846
183,4328.205128,4562.564102,4517.435897,4267.692307,4491.282051,4192.820512,4444.102564,4204.615384,4220.512820,4490.769230,4203.076923,4645.128205,3942.564103,4008.717948
184,4324.102564,4555.897435,4510.769230,4266.666666,4488.717948,4180.000000,4430.769230,4202.051282,4223.076923,4493.846153,4200.512820,4639.487179,3935.897436,4004.102564
185,4325.641025,4554.358974,4514.871794,4278.974358,4486.666666,4182.564102,4424.615384,4199.487179,4222.564102,4493.846153,4201.025641,4636.923076,3943.076924,4009.743589
186,4330.769230,4565.641025,4523.076923,4278.461538,4489.230769,4186.666666,4429.230769,4203.076923,4226.153846,4494.871794,4203.076923,4641.538461,3950.769231,4017.435897
187,4330.256410,4571.794871,4518.974358,4263.589743,4485.128205,4182.564102,4430.256410,4202.564102,4223.589743,4493.333333,4199.487179,4640.512820,3940.000000,4009.230769
188,4325.128205,4561.538461,4512.307692,4268.717948,4482.564102,4185.128205,4427.692307,4200.512820,4218.974358,4484.102564,4193.333333,4634.871794,3928.205129,4003.076923
189,4320.000000,4553.333333,4510.256410,4278.974358,4490.256410,4187.692307,4427.179487,4196.410256,4213.333333,4472.820512,4185.641025,4628.205128,3923.589744,4000.000000
190,4317.948717,4553.846153,4509.230769,4265.128205,4492.307692,4182.564102,4425.641025,4187.179487,4203.076923,4469.743589,4179.487179,4624.102564,3922.051283,3993.846154
191,4321.538461,4554.871794,4508.205128,4256.410256,4486.666666,4182.564102,4425.641025,4185.128205,4203.589743,4480.000000,4184.615384,4628.205128,3929.230770,3998.974359
192,4328.717948,4562.051282,4517.435897,4275.384615,4491.282051,4193.846153,4433.333333,4197.435897,4221.025641,4490.769230,4197.435897,4641.025641,3942.564103,4013.333333
193,4335.384615,4571.794871,4527.179487,4284.102564,4498.461538,4199.487179,4443.076923,4210.256410,4235.384615,4494.358974,4209.230769,4647.179487,3943.076924,4017.435897
194,4341.025641,4571.794871,4527.179487,4276.923076,4496.410256,4198.461538,4446.153846,4216.410256,4243.076923,4499.487179,4214.871794,4644.615384,3943.589744,4018.974358
195,4343.076923,4568.205128,4527.179487,4284.102564,4494.871794,4198.461538,4444.615384,4220.000000,4249.743589,4508.717948,4213.846153,4645.641025,3949.230770,4023.076923
196,4341.025641,4568.717948,4529.230769,4282.564102,4493.846153,4194.358974,4443.589743,4217.948717,4245.128205,4509.230769,4218.461538,4647.692307,3946.153847,4021.025641
197,4341.025641,4570.769230,4529.743589,4264.102564,4490.256410,4186.153846,4442.051282,4213.846153,4241.025641,4503.589743,4217.435897,4644.615384,3948.717949,4021.025641
198,4343.076923,4570.769230,4529.743589,4266.153846,4491.282051,4190.256410,4441.538461,4213.846153,4247.692307,4508.717948,4208.205128,4645.128205,3960.512821,4022.564102
199,4342.564102,4562.051282,4529.743589,4282.051282,4494.358974,4201.025641,4443.076923,4214.871794,4250.256410,4518.461538,4211.282051,4651.794871,3959.487180,4018.974358
200,4340.512820,4555.384615,4523.076923,4272.820512,4492.307692,4197.435897,4443.589743,4212.820512,4244.102564,4514.358974,4222.051282,4652.307692,3955.384616,4017.435897
201,4339.487179,4559.487179,4519.487179,4262.051282,4490.256410,4187.179487,4443.589743,4210.769230,4236.923076,4500.512820,4216.410256,4646.666666,3956.923077,4017.435897
202,4337.435897,4556.410256,4519.487179,4274.871794,4490.769230,4185.128205,4437.435897,4206.153846,4232.307692,4491.794871,4208.717948,4643.076923,3946.666667,4013.846153
203,4335.897435,4554.358974,4516.923076,4278.461538,4489.230769,4185.641025,4430.256410,4200.512820,4230.256410,4490.769230,4215.384615,4641.025641,3938.974359,4012.820512
204,4341.025641,4566.666666,4521.025641,4265.641025,4488.205128,4185.128205,4435.384615,4205.641025,4233.846153,4495.384615,4214.871794,4643.589743,3951.794872,4017.948717
205,4344.615384,4567.692307,4525.641025,4263.589743,4489.743589,4188.205128,4444.615384,4212.820512,4236.410256,4499.487179,4205.128205,4647.179487,3961.025642,4020.512820
206,4339.487179,4552.307692,4521.538461,4267.692307,4490.256410,4188.205128,4443.589743,4206.666666,4233.333333,4498.974358,4208.717948,4643.589743,3952.820513,4017.948717
207,4337.435897,4549.230769,4520.512820,4268.205128,4488.205128,4185.128205,4440.512820,4200.000000,4230.769230,4497.948717,4216.410256,4642.564102,3948.717949,4017.435897
208,4344.615384,4556.923076,4523.076923,4268.717948,4489.230769,4185.641025,4442.564102,4199.487179,4228.717948,4494.358974,4209.230769,4647.179487,3956.410257,4023.076923
209,4342.051282,4557.948717,4520.000000,4264.615384,4489.743589,4184.615384,4439.487179,4191.794871,4221.538461,4490.256410,4198.461538,4641.538461,3954.871795,4021.025641
210,4330.769230,4551.282051,4516.410256,4262.564102,4483.589743,4182.564102,4435.384615,4185.128205,4214.871794,4487.692307,4198.974358,4633.333333,3940.512821,4007.692307
211,4330.256410,4552.307692,4519.487179,4266.153846,4480.512820,4185.641025,4439.487179,4192.307692,4220.512820,4483.589743,4203.076923,4636.410256,3935.384616,4004.615384
212,4340.512820,4563.589743,4525.128205,4263.589743,4485.641025,4186.666666,4444.102564,4202.564102,4229.230769,4484.615384,4201.538461,4643.589743,3941.538462,4016.923076
213,4343.076923,4564.615384,4530.769230,4263.076923,4490.256410,4187.179487,4442.564102,4202.051282,4231.794871,4490.769230,4197.948717,4647.179487,3942.564103,4023.589743
214,4340.000000,4553.846153,4534.358974,4276.410256,4490.769230,4193.846153,4443.589743,4201.025641,4231.282051,4490.769230,4203.589743,4652.307692,3947.179488,4023.589743
215,4345.641025,4555.897435,4536.410256,4286.153846,4492.820512,4200.512820,4448.205128,4206.666666,4232.307692,4489.230769,4215.897435,4655.897435,3954.358975,4024.102564
216,4348.717948,4568.717948,4537.435897,4277.948717,4492.820512,4200.512820,4447.692307,4208.205128,4233.846153,4494.871794,4218.974358,4652.307692,3948.205129,4022.051282
217,4343.589743,4569.743589,4538.461538,4272.820512,4490.769230,4197.435897,4445.128205,4202.564102,4231.794871,4493.846153,4212.307692,4649.743589,3945.641026,4020.000000
218,4347.692307,4569.230769,4539.487179,4280.000000,4492.820512,4198.974358,4447.179487,4203.076923,4232.307692,4491.282051,4208.717948,4654.358974,3949.743590,4023.589743
219,4352.307692,4570.769230,4534.358974,4272.307692,4493.333333,4200.512820,4449.230769,4205.641025,4234.358974,4493.333333,4205.128205,4651.794871,3944.615385,4024.102564
220,4342.564102,4560.000000,4529.230769,4255.384615,4489.743589,4192.307692,4443.589743,4203.589743,4233.846153,4493.333333,4200.000000,4642.564102,3937.435898,4017.435897
221,4340.512820,4551.282051,4531.282051,4266.153846,4489.230769,4184.615384,4441.538461,4209.743589,4233.333333,4491.282051,4202.051282,4644.615384,3945.128206,4014.871794
222,4348.717948,4558.461538,4531.794871,4285.641025,4488.717948,4190.256410,4446.666666,4218.974358,4232.307692,4495.384615,4208.205128,4647.692307,3947.179488,4018.974358
223,4335.897435,4555.384615,4522.564102,4273.846153,4480.512820,4188.205128,4439.487179,4202.564102,4223.589743,4491.794871,4199.487179,4634.358974,3932.820513,4010.769230
224,4318.974358,4537.948717,4513.333333,4255.897435,4474.358974,4175.384615,4425.641025,4182.051282,4212.820512,4475.897435,4181.025641,4621.025641,3924.102565,3994.871795
225,4324.615384,4539.487179,4512.820512,4261.538461,4477.435897,4178.461538,4429.743589,4187.179487,4211.794871,4471.794871,4183.589743,4623.076923,3925.128206,3993.333334
226,4334.358974,4554.871794,4516.923076,4260.000000,4476.923076,4187.179487,4436.923076,4193.333333,4215.897435,4480.512820,4202.564102,4627.179487,3927.692308,3999.487180
227,4331.794871,4555.897435,4518.974358,4250.769230,4476.923076,4182.564102,4431.794871,4189.230769,4215.384615,4481.538461,4203.589743,4626.666666,3929.230770,4000.512820
228,4334.358974,4550.769230,4520.512820,4257.948717,4484.102564,4181.025641,4434.871794,4195.897435,4214.358974,4481.538461,4189.230769,4630.769230,3935.384616,4003.589743
229,4342.051282,4551.282051,4521.025641,4269.743589,4482.564102,4188.205128,4444.615384,4206.153846,4224.102564,4491.282051,4189.230769,4634.871794,3940.512821,4008.205128
230,4338.461538,4555.384615,4518.974358,4273.333333,4474.871794,4187.179487,4442.051282,4201.538461,4231.794871,4493.846153,4198.974358,4633.333333,3942.051283,4005.641025
231,4337.435897,4558.461538,4521.538461,4272.820512,4481.538461,4182.564102,4439.487179,4199.487179,4224.615384,4492.820512,4204.102564,4636.410256,3941.538462,4007.179487
232,4348.205128,4558.461538,4531.282051,4278.461538,4493.846153,4189.743589,4446.153846,4205.641025,4225.641025,4503.589743,4210.256410,4648.717948,3942.051283,4016.923076
233,4348.717948,4555.897435,4534.358974,4277.948717,4491.794871,4194.871794,4448.717948,4204.615384,4230.769230,4506.153846,4206.153846,4651.794871,3944.615385,4020.512820
234,4340.000000,4556.410256,4529.743589,4267.692307,4489.230769,4188.717948,4444.102564,4199.487179,4225.128205,4494.871794,4192.820512,4647.692307,3943.076924,4017.435897
235,4341.538461,4555.384615,4529.230769,4267.179487,4490.256410,4184.615384,4443.589743,4198.974358,4224.615384,4490.256410,4196.410256,4649.743589,3941.025642,4017.435897
236,4344.102564,4553.333333,4529.230769,4274.871794,4484.615384,4185.641025,4440.000000,4197.948717,4229.230769,4492.307692,4204.102564,4648.717948,3934.871795,4013.333333
237,4340.512820,4552.820512,4524.615384,4268.205128,4483.589743,4183.589743,4435.384615,4194.871794,4220.512820,4488.717948,4191.794871,4640.512820,3928.205129,4005.128205
238,4340.000000,4551.282051,4521.538461,4261.025641,4484.615384,4181.538461,4434.871794,4195.897435,4212.820512,4487.179487,4181.538461,4635.897435,3928.205129,4003.589743
239,4340.000000,4551.282051,4518.974358,4267.179487,4478.461538,4182.051282,4430.256410,4198.461538,4219.487179,4489.230769,4187.179487,4634.358974,3930.256411,4005.641025
240,4340.000000,4552.820512,4517.948717,4258.461538,4479.487179,4181.538461,4429.230769,4198.461538,4228.717948,4490.769230,4190.769230,4634.358974,3929.230770,4003.076923
241,4342.051282,4553.846153,4519.487179,4249.743589,4488.717948,4181.538461,4438.461538,4198.974358,4232.307692,4496.923076,4189.230769,4637.948717,3929.743590,4004.102564
242,4342.051282,4555.384615,4521.025641,4270.256410,4490.769230,4187.179487,4444.102564,4198.461538,4230.769230,4495.384615,4187.692307,4642.564102,3935.384616,4008.717948
243,4342.564102,4554.871794,4522.051282,4278.974358,4489.743589,4193.333333,4441.025641,4198.461538,4228.205128,4490.256410,4186.153846,4645.128205,3940.000000,4008.717948
244,4344.615384,4552.820512,4520.512820,4266.153846,4492.820512,4192.820512,4442.051282,4198.974358,4223.076923,4492.307692,4183.589743,4642.051282,3934.871795,4002.564102
245,4344.102564,4553.846153,4517.948717,4261.538461,4492.307692,4190.769230,4446.666666,4197.435897,4220.000000,4491.794871,4188.205128,4638.974358,3928.205129,4001.538461
246,4346.153846,4556.923076,4519.487179,4267.179487,4490.256410,4191.282051,4445.641025,4197.948717,4228.717948,4495.384615,4200.512820,4644.615384,3932.307693,4007.692307
247,4345.641025,4553.846153,4519.487179,4265.641025,4488.717948,4186.153846,4436.410256,4200.000000,4235.384615,4507.692307,4202.564102,4646.666666,3940.000000,4008.717948
248,4342.051282,4547.692307,4514.871794,4261.538461,4486.153846,4181.025641,4432.820512,4198.461538,4228.717948,4507.692307,4194.358974,4640.512820,3939.487180,4003.589743
249,4346.666666,4549.743589,4514.871794,4262.564102,4489.230769,4184.615384,4439.487179,4199.487179,4228.205128,4504.102564,4196.923076,4637.948717,3941.538462,4003.076923
250,4353.333333,4556.923076,4516.410256,4271.282051,4490.256410,4186.666666,4435.897435,4200.512820,4233.333333,4510.769230,4203.076923,4640.000000,3950.256411,4008.717948
251,4352.820512,4555.384615,4510.256410,4273.846153,4487.179487,4182.051282,4425.641025,4196.410256,4223.589743,4504.615384,4195.384615,4635.384615,3949.230770,4012.820512
252,4354.358974,4553.846153,4511.794871,4266.153846,4488.717948,4184.102564,4432.820512,4195.897435,4217.948717,4491.794871,4193.333333,4632.307692,3950.769231,4012.820512
253,4360.000000,4562.564102,4523.076923,4269.230769,4491.282051,4193.333333,4445.128205,4200.000000,4227.179487,4500.000000,4202.564102,4640.512820,3956.923077,4012.820512
254,4358.461538,4568.205128,4524.615384,4273.846153,4490.769230,4196.410256,4444.615384,4202.564102,4232.307692,4507.692307,4202.564102,4647.179487,3954.358975,4012.307692
255,4356.410256,4567.179487,4518.461538,4268.717948,4491.282051,4190.256410,4441.538461,4202.564102,4229.230769,4504.102564,4197.948717,4643.076923,3949.230770,4013.333333
