,AF3,F7,F3,FC5,T7,P7,O1,O2,P8,T8,FC6,F4,F8,AF4
0,4411.794871,4318.974358,4553.333333,4292.820512,4473.846153,4157.435897,4474.358974,4249.230769,4260.512820,4482.564102,4218.461538,4663.076923,4038.974358,3787.692308
1,4406.666666,4311.282051,4552.307692,4289.743589,4474.871794,4160.512820,4472.820512,4246.666666,4261.025641,4489.743589,4217.435897,4662.051282,4032.307692,3784.102565
2,4399.487179,4307.179487,4555.384615,4291.282051,4471.282051,4163.589743,4474.358974,4247.179487,4260.000000,4484.615384,4213.333333,4657.948717,4020.000000,3780.512821
3,4402.564102,4314.871794,4550.256410,4283.589743,4475.384615,4162.564102,4475.384615,4249.743589,4256.923076,4478.461538,4220.512820,4654.358974,4021.025641,3780.512821
4,4406.153846,4321.538461,4545.641025,4275.897435,4483.076923,4164.102564,4475.384615,4246.666666,4260.000000,4474.358974,4212.307692,4656.410256,4029.230769,3784.102565
5,4398.974358,4314.358974,4547.179487,4284.615384,4476.923076,4165.641025,4474.871794,4238.974358,4256.410256,4463.589743,4193.846153,4655.897435,4028.717948,3782.051283
6,4401.538461,4311.794871,4552.307692,4297.435897,4469.230769,4165.128205,4475.384615,4240.000000,4251.282051,4463.589743,4207.179487,4656.410256,4027.179487,3782.051283
7,4406.666666,4312.820512,4555.384615,4292.820512,4473.846153,4163.076923,4475.384615,4241.025641,4255.384615,4478.974358,4220.512820,4657.948717,4023.076923,3783.076924
8,4393.846153,4300.512820,4546.666666,4279.487179,4475.384615,4158.461538,4473.333333,4236.410256,4253.846153,4479.487179,4207.692307,4651.794871,4006.666666,3775.897436
9,4388.717948,4297.435897,4539.487179,4278.974358,4470.769230,4158.974358,4472.820512,4236.410256,4249.743589,4470.769230,4195.897435,4647.179487,4004.615384,3770.256411
10,4398.461538,4307.179487,4546.153846,4282.564102,4472.307692,4162.051282,4474.871794,4240.000000,4252.307692,4468.205128,4189.743589,4651.794871,4017.435897,3774.358975
11,4400.000000,4304.102564,4551.282051,4284.615384,4474.871794,4161.025641,4473.333333,4238.461538,4252.307692,4461.025641,4189.743589,4655.384615,4022.564102,3778.974359
12,4402.051282,4300.000000,4551.794871,4291.794871,4473.846153,4161.538461,4470.256410,4235.897435,4254.871794,4465.641025,4204.615384,4660.512820,4025.641025,3784.102565
13,4409.230769,4311.282051,4557.435897,4295.384615,4474.871794,4161.538461,4471.282051,4242.051282,4265.128205,4489.743589,4218.974358,4667.692307,4027.692307,3788.205129
14,4409.230769,4316.923076,4559.487179,4294.871794,4476.410256,4162.564102,4472.820512,4245.128205,4265.641025,4491.794871,4220.512820,4666.153846,4025.641025,3786.666667
15,4407.179487,4307.692307,4553.333333,4295.384615,4476.410256,4168.717948,4472.820512,4240.000000,4256.923076,4472.820512,4212.820512,4662.051282,4029.230769,3785.641026
16,4406.153846,4303.589743,4552.820512,4293.333333,4478.974358,4167.692307,4476.410256,4237.948717,4255.384615,4478.461538,4207.179487,4664.102564,4035.384615,3785.128206
17,4402.564102,4310.769230,4553.333333,4290.769230,4483.076923,4167.179487,4473.333333,4240.000000,4261.538461,4490.256410,4209.230769,4662.051282,4032.307692,3785.128206
18,4404.102564,4316.923076,4548.717948,4294.871794,4481.025641,4170.256410,4463.589743,4243.589743,4266.153846,4481.025641,4217.948717,4657.948717,4027.692307,3786.153847
19,4410.769230,4315.897435,4552.307692,4300.512820,4480.000000,4169.230769,4468.717948,4246.153846,4266.153846,4482.564102,4225.128205,4664.615384,4036.923076,3788.205129
20,4405.641025,4311.794871,4552.820512,4290.769230,4479.487179,4170.769230,4472.820512,4241.538461,4260.512820,4493.333333,4218.974358,4663.589743,4040.000000,3783.589744
21,4395.897435,4306.666666,4543.589743,4283.589743,4477.948717,4170.769230,4465.128205,4231.794871,4253.333333,4484.615384,4204.102564,4649.743589,4027.692307,3774.358975
22,4397.948717,4307.692307,4542.051282,4293.846153,4475.897435,4167.179487,4466.666666,4240.000000,4256.923076,4477.948717,4207.179487,4652.307692,4023.076923,3777.435898
23,4402.564102,4309.743589,4550.769230,4296.923076,4479.487179,4169.743589,4478.461538,4252.820512,4268.205128,4490.256410,4220.512820,4662.051282,4033.846153,3784.615385
24,4404.615384,4308.717948,4555.384615,4291.794871,4484.615384,4173.846153,4478.461538,4247.179487,4268.205128,4490.769230,4217.435897,4661.025641,4036.410256,3785.128206
25,4408.205128,4313.333333,4553.846153,4295.897435,4481.538461,4169.230769,4473.846153,4244.102564,4264.102564,4481.025641,4215.897435,4661.025641,4028.205128,3785.128206
26,4409.743589,4311.794871,4551.794871,4301.025641,4483.076923,4171.794871,4474.871794,4248.205128,4266.666666,4481.025641,4221.538461,4663.589743,4025.641025,3785.641026
27,4408.205128,4307.692307,4549.230769,4293.333333,4487.692307,4177.948717,4475.897435,4248.205128,4267.179487,4487.179487,4213.846153,4661.025641,4035.897435,3784.102565
28,4409.230769,4311.282051,4552.820512,4291.794871,4485.128205,4176.410256,4478.974358,4249.743589,4269.743589,4501.025641,4212.307692,4663.589743,4044.102564,3788.717949
29,4408.205128,4311.282051,4558.974358,4301.025641,4477.435897,4174.358974,4478.974358,4251.282051,4271.282051,4505.128205,4227.179487,4668.205128,4029.743589,3788.205129
30,4402.051282,4306.153846,4556.410256,4301.538461,4476.410256,4175.897435,4475.897435,4248.205128,4266.666666,4494.871794,4230.769230,4664.102564,4020.000000,3781.538462
31,4404.102564,4308.717948,4551.794871,4300.512820,4482.051282,4171.282051,4475.897435,4249.230769,4268.205128,4491.282051,4217.948717,4664.102564,4038.461538,3789.230770
32,4411.282051,4312.820512,4555.384615,4305.128205,4482.051282,4166.666666,4477.435897,4254.871794,4275.384615,4494.358974,4213.846153,4670.256410,4048.717948,3802.564103
33,4413.333333,4308.717948,4561.025641,4308.205128,4481.538461,4171.794871,4479.487179,4255.897435,4276.410256,4493.846153,4223.589743,4674.358974,4037.948717,3802.051283
34,4404.615384,4298.461538,4550.769230,4296.923076,4478.974358,4171.794871,4479.487179,4250.769230,4267.179487,4488.205128,4219.487179,4669.230769,4029.743589,3791.282052
35,4396.923076,4291.282051,4542.564102,4283.076923,4475.384615,4165.641025,4475.897435,4243.589743,4260.512820,4489.743589,4206.666666,4657.435897,4020.512820,3783.076924
36,4398.461538,4296.410256,4545.128205,4284.615384,4472.307692,4165.128205,4472.820512,4240.512820,4258.461538,4484.615384,4203.076923,4654.358974,4008.717948,3781.538462
37,4397.435897,4300.512820,4545.128205,4293.333333,4472.820512,4167.692307,4474.871794,4241.538461,4254.871794,4470.256410,4199.487179,4655.897435,4013.333333,3782.051283
38,4396.410256,4295.897435,4545.128205,4292.820512,4476.923076,4170.256410,4477.948717,4245.128205,4257.435897,4471.282051,4198.461538,4654.871794,4025.128205,3783.589744
39,4400.000000,4298.461538,4548.205128,4291.794871,4476.410256,4170.769230,4478.461538,4250.769230,4264.615384,4486.666666,4213.846153,4657.948717,4030.256410,3791.282052
40,4403.589743,4303.589743,4548.717948,4297.435897,4475.897435,4168.205128,4476.410256,4253.333333,4268.205128,4493.333333,4232.820512,4666.153846,4032.307692,3799.487180
41,4402.051282,4304.102564,4547.692307,4291.794871,4476.410256,4162.564102,4475.384615,4251.794871,4267.179487,4490.256410,4232.307692,4667.179487,4028.205128,3797.435898
42,4399.487179,4297.948717,4543.589743,4284.615384,4473.846153,4162.564102,4475.384615,4247.179487,4263.076923,4490.256410,4212.820512,4662.051282,4025.128205,3789.743590
43,4400.512820,4296.410256,4543.076923,4293.846153,4476.410256,4168.205128,4473.333333,4244.615384,4261.538461,4489.743589,4200.000000,4661.025641,4034.358974,3791.282052
44,4407.692307,4308.205128,4549.230769,4301.538461,4482.051282,4172.307692,4479.487179,4253.333333,4268.717948,4492.307692,4214.871794,4664.102564,4038.461538,3800.000000
45,4406.666666,4308.205128,4551.282051,4295.897435,4477.948717,4170.256410,4488.205128,4259.487179,4272.307692,4493.333333,4232.307692,4661.025641,4022.564102,3796.923077
46,4396.923076,4295.897435,4543.589743,4290.256410,4473.846153,4170.769230,4488.717948,4252.307692,4266.153846,4482.564102,4226.666666,4655.897435,4014.358974,3789.230770
47,4399.487179,4297.435897,4542.564102,4296.410256,4483.076923,4176.923076,4489.230769,4251.282051,4268.205128,4481.538461,4216.923076,4660.000000,4027.179487,3795.384616
48,4407.692307,4305.128205,4547.692307,4302.051282,4487.692307,4175.897435,4489.230769,4258.974358,4274.871794,4493.846153,4206.153846,4664.102564,4035.384615,3799.487180
49,4406.153846,4304.615384,4548.205128,4297.948717,4477.435897,4169.230769,4480.000000,4253.846153,4268.717948,4494.358974,4203.076923,4662.051282,4027.692307,3792.820513
50,4397.948717,4300.512820,4543.076923,4292.307692,4469.743589,4167.179487,4473.846153,4245.128205,4263.076923,4488.205128,4218.974358,4661.025641,4022.564102,3791.282052
51,4393.846153,4290.769230,4537.435897,4293.846153,4473.846153,4166.153846,4477.948717,4249.230769,4264.615384,4487.179487,4227.692307,4660.512820,4020.512820,3791.794872
52,4394.871794,4284.615384,4540.512820,4294.871794,4475.897435,4165.128205,4478.461538,4249.230769,4262.564102,4481.025641,4216.923076,4657.948717,4014.871794,3790.256411
53,4396.410256,4288.717948,4539.487179,4291.282051,4468.205128,4167.692307,4474.871794,4241.025641,4258.974358,4472.820512,4208.717948,4656.410256,4016.410256,3790.256411
54,4392.307692,4288.717948,4534.358974,4291.282051,4463.076923,4166.666666,4475.897435,4240.000000,4260.000000,4476.410256,4207.692307,4654.871794,4022.564102,3786.153847
55,4390.769230,4288.205128,4537.435897,4290.769230,4470.769230,4165.641025,4483.076923,4246.153846,4261.538461,4485.641025,4210.256410,4654.358974,4023.076923,3785.641026
56,4398.974358,4295.384615,4540.512820,4288.717948,4478.461538,4171.282051,4489.743589,4252.820512,4265.128205,4493.846153,4223.076923,4659.487179,4025.641025,3792.820513
57,4397.435897,4295.897435,4535.897435,4286.153846,4475.384615,4172.307692,4487.692307,4251.794871,4270.256410,4493.846153,4220.512820,4657.435897,4023.589743,3789.230770
58,4388.205128,4295.384615,4531.794871,4287.692307,4474.358974,4166.666666,4485.128205,4246.153846,4269.743589,4484.615384,4203.589743,4649.230769,4013.846153,3782.564103
59,4391.282051,4307.692307,4536.923076,4296.410256,4475.897435,4169.743589,4490.769230,4248.717948,4266.153846,4487.692307,4208.205128,4650.769230,4018.461538,3786.153847
60,4397.948717,4313.333333,4540.512820,4292.820512,4474.871794,4176.923076,4492.307692,4256.923076,4266.666666,4495.384615,4212.820512,4654.871794,4028.717948,3787.179488
61,4396.410256,4311.794871,4536.923076,4285.128205,4473.846153,4173.846153,4489.230769,4253.846153,4267.692307,4481.538461,4200.000000,4649.230769,4017.435897,3784.102565
62,4398.974358,4316.410256,4536.410256,4288.717948,4475.384615,4173.333333,4489.230769,4251.794871,4269.230769,4471.794871,4200.512820,4645.128205,4007.692307,3785.641026
63,4404.102564,4324.102564,4543.076923,4296.410256,4477.948717,4176.923076,4491.794871,4260.512820,4268.717948,4487.179487,4216.923076,4651.794871,4014.871794,3786.666667
64,4405.128205,4326.153846,4548.205128,4294.358974,4477.948717,4176.410256,4493.333333,4266.153846,4267.179487,4499.487179,4222.564102,4658.461538,4024.615384,3789.230770
65,4405.641025,4325.128205,4543.589743,4282.051282,4477.435897,4175.384615,4492.820512,4262.564102,4267.179487,4492.307692,4218.461538,4657.435897,4029.743589,3792.307693
66,4403.076923,4322.051282,4536.410256,4276.410256,4475.897435,4172.820512,4490.256410,4254.871794,4265.641025,4483.589743,4204.102564,4652.820512,4026.666666,3785.641026
67,4399.487179,4317.948717,4534.358974,4284.615384,4475.897435,4172.820512,4487.692307,4251.282051,4257.948717,4483.589743,4191.282051,4650.769230,4013.846153,3778.974359
68,4407.179487,4322.051282,4540.512820,4294.358974,4476.923076,4176.410256,4491.794871,4258.974358,4257.435897,4484.102564,4211.282051,4657.435897,4003.076923,3782.564103
69,4415.897435,4330.256410,4546.666666,4294.358974,4478.974358,4179.487179,4496.410256,4268.717948,4274.358974,4486.153846,4234.358974,4663.589743,4008.717948,3789.230770
70,4412.307692,4330.769230,4544.102564,4291.794871,4481.025641,4177.948717,4494.358974,4266.153846,4280.512820,4488.717948,4220.512820,4660.000000,4019.487179,3788.717949
71,4406.153846,4322.564102,4540.512820,4288.205128,4480.000000,4176.410256,4490.769230,4259.487179,4270.256410,4491.794871,4202.564102,4655.897435,4024.615384,3787.692308
72,4406.153846,4318.461538,4541.538461,4280.512820,4478.461538,4176.923076,4489.743589,4260.000000,4265.641025,4494.358974,4208.717948,4657.435897,4024.615384,3787.179488
73,4408.717948,4322.564102,4543.076923,4280.000000,4474.871794,4176.410256,4490.256410,4263.589743,4270.256410,4491.794871,4213.846153,4658.974358,4017.435897,3785.128206
74,4404.615384,4318.461538,4537.435897,4281.025641,4474.358974,4174.358974,4487.179487,4258.974358,4271.282051,4484.102564,4207.179487,4656.923076,4011.794871,3780.000000
75,4394.871794,4307.692307,4526.153846,4276.923076,4476.923076,4166.666666,4477.435897,4246.666666,4258.461538,4476.410256,4197.948717,4651.794871,4009.230769,3769.743590
76,4394.871794,4312.307692,4526.666666,4277.948717,4473.846153,4165.641025,4472.307692,4241.025641,4246.153846,4470.769230,4196.410256,4645.641025,4005.641025,3766.153847
77,4400.000000,4317.948717,4533.846153,4281.025641,4468.717948,4168.205128,4480.512820,4247.692307,4252.820512,4473.333333,4210.256410,4645.641025,4009.230769,3775.897436
78,4398.461538,4307.692307,4534.871794,4282.564102,4470.769230,4165.641025,4489.743589,4253.333333,4265.641025,4484.615384,4220.000000,4650.769230,4016.410256,3778.974359
79,4400.000000,4308.205128,4532.820512,4285.641025,4475.384615,4168.717948,4486.153846,4248.717948,4256.923076,4484.615384,4209.230769,4652.307692,4009.743589,3773.846154
80,4405.641025,4325.641025,4537.435897,4291.794871,4473.846153,4170.769230,4482.564102,4246.666666,4247.692307,4478.461538,4199.487179,4653.333333,4003.076923,3776.923077
81,4412.820512,4331.794871,4549.230769,4296.923076,4473.333333,4167.179487,4488.205128,4257.948717,4260.000000,4486.666666,4213.846153,4661.025641,4020.512820,3786.666667
82,4424.615384,4331.794871,4561.025641,4300.000000,4482.051282,4173.846153,4493.846153,4267.179487,4271.282051,4496.410256,4231.282051,4672.820512,4036.410256,3797.435898
83,4426.666666,4335.897435,4561.025641,4298.974358,4487.692307,4182.564102,4493.333333,4264.615384,4274.358974,4497.435897,4229.743589,4675.384615,4032.307692,3800.512821
84,4413.333333,4327.179487,4552.307692,4291.794871,4480.512820,4174.871794,4490.256410,4260.000000,4270.769230,4493.333333,4217.948717,4665.641025,4021.538461,3790.256411
85,4409.743589,4317.948717,4548.717948,4293.846153,4478.461538,4173.846153,4490.256410,4260.000000,4266.153846,4487.179487,4213.333333,4662.051282,4013.846153,3781.538462
86,4413.333333,4322.051282,4550.256410,4295.897435,4484.615384,4182.564102,4493.333333,4263.589743,4266.153846,4486.153846,4220.000000,4666.666666,4015.384615,3787.179488
87,4406.153846,4320.000000,4545.128205,4283.076923,4481.025641,4175.897435,4491.794871,4264.615384,4267.692307,4495.384615,4220.512820,4664.102564,4018.974358,3787.692308
88,4403.076923,4305.128205,4539.487179,4281.025641,4472.307692,4170.256410,4487.692307,4261.538461,4268.205128,4498.974358,4210.769230,4659.487179,4015.897435,3781.025642
89,4407.692307,4301.025641,4540.000000,4294.358974,4473.846153,4174.871794,4489.230769,4264.102564,4268.205128,4489.743589,4213.333333,4662.051282,4013.333333,3782.564103
90,4408.717948,4312.307692,4542.564102,4295.897435,4476.923076,4175.384615,4491.282051,4266.666666,4272.307692,4493.333333,4225.641025,4665.128205,4018.461538,3786.666667
91,4407.179487,4315.384615,4546.153846,4289.230769,4475.384615,4173.846153,4487.692307,4261.538461,4275.897435,4503.589743,4223.076923,4662.564102,4013.846153,3784.615385
92,4405.128205,4306.153846,4549.230769,4291.794871,4474.871794,4174.871794,4487.179487,4262.564102,4271.794871,4498.461538,4213.846153,4662.051282,4010.769230,3783.589744
93,4404.615384,4300.512820,4545.128205,4289.230769,4474.358974,4171.794871,4488.717948,4266.153846,4263.076923,4493.846153,4213.846153,4664.102564,4020.512820,3786.666667
94,4407.692307,4301.538461,4542.051282,4283.076923,4474.358974,4169.230769,4487.692307,4256.410256,4264.102564,4497.435897,4213.846153,4664.102564,4025.641025,3787.692308
95,4411.794871,4305.128205,4547.692307,4288.717948,4475.897435,4173.333333,4487.692307,4254.358974,4270.769230,4498.461538,4221.538461,4665.128205,4024.102564,3788.717949
96,4408.205128,4312.307692,4548.717948,4293.846153,4475.897435,4173.846153,4489.230769,4257.948717,4265.641025,4494.358974,4228.717948,4663.589743,4017.948717,3790.256411
97,4408.717948,4314.871794,4546.666666,4294.871794,4474.358974,4172.820512,4489.743589,4252.820512,4262.564102,4498.461538,4218.461538,4661.025641,4015.384615,3791.794872
98,4420.512820,4311.282051,4554.871794,4296.410256,4485.128205,4181.025641,4491.794871,4253.333333,4272.307692,4506.666666,4217.435897,4668.717948,4031.794871,3798.974359
99,4424.615384,4312.820512,4558.974358,4295.897435,4491.794871,4185.128205,4493.846153,4261.025641,4275.384615,4504.102564,4228.717948,4673.846153,4040.512820,3801.538462
100,4412.820512,4315.897435,4549.743589,4297.948717,4481.538461,4177.435897,4489.743589,4255.384615,4266.153846,4496.410256,4218.461538,4663.589743,4022.051282,3792.820513
101,4406.666666,4313.846153,4546.153846,4302.051282,4475.897435,4175.897435,4487.179487,4245.128205,4262.051282,4495.897435,4208.205128,4656.410256,4014.358974,3787.179488
102,4415.384615,4314.358974,4551.794871,4301.025641,4480.512820,4177.948717,4491.794871,4248.717948,4268.717948,4498.974358,4221.538461,4663.589743,4026.666666,3793.333334
103,4415.897435,4312.820512,4549.743589,4297.435897,4480.000000,4170.769230,4487.692307,4253.333333,4272.307692,4498.974358,4220.000000,4664.102564,4029.230769,3795.897436
104,4403.589743,4306.666666,4542.564102,4295.384615,4469.743589,4164.102564,4475.384615,4250.256410,4270.769230,4502.051282,4208.205128,4655.897435,4021.025641,3789.230770
105,4397.948717,4302.564102,4542.051282,4287.692307,4464.615384,4164.102564,4472.820512,4248.205128,4267.179487,4500.000000,4219.487179,4653.846153,4011.794871,3785.128206
106,4404.102564,4299.487179,4544.102564,4282.564102,4464.102564,4162.051282,4475.897435,4249.743589,4260.512820,4489.230769,4220.512820,4655.897435,4009.230769,3790.256411
107,4411.282051,4299.487179,4547.179487,4287.692307,4467.179487,4166.153846,4473.846153,4250.256410,4262.564102,4491.794871,4206.666666,4660.000000,4022.051282,3798.974359
108,4412.307692,4306.666666,4551.282051,4294.358974,4470.769230,4171.282051,4475.897435,4255.897435,4271.282051,4504.102564,4215.897435,4665.128205,4026.666666,3801.025642
109,4409.743589,4305.128205,4549.230769,4296.923076,4472.820512,4168.717948,4478.461538,4261.025641,4270.769230,4502.564102,4224.102564,4664.615384,4014.871794,3796.410257
110,4407.179487,4296.923076,4543.076923,4296.923076,4477.435897,4168.717948,4476.410256,4256.923076,4267.179487,4495.384615,4216.923076,4660.000000,4014.358974,3793.846154
111,4411.282051,4302.051282,4545.641025,4293.846153,4478.461538,4173.846153,4483.076923,4256.923076,4275.384615,4498.974358,4228.205128,4666.153846,4027.692307,3800.000000
112,4415.384615,4308.205128,4548.205128,4292.820512,4475.897435,4175.384615,4488.717948,4263.589743,4282.051282,4511.282051,4237.435897,4673.333333,4033.846153,3803.589744
113,4403.589743,4295.897435,4537.948717,4293.846153,4472.820512,4170.256410,4477.948717,4260.512820,4271.282051,4509.743589,4215.897435,4662.564102,4021.538461,3794.358975
114,4392.307692,4286.666666,4532.307692,4292.820512,4472.820512,4168.717948,4471.282051,4252.820512,4263.076923,4504.102564,4209.230769,4653.333333,4013.333333,3786.666667
115,4396.410256,4295.897435,4538.461538,4293.846153,4477.435897,4172.307692,4475.897435,4252.820512,4272.307692,4510.769230,4221.025641,4655.384615,4024.102564,3791.282052
116,4400.000000,4296.410256,4540.000000,4292.307692,4477.435897,4171.794871,4476.923076,4250.769230,4279.487179,4503.589743,4214.871794,4652.307692,4025.641025,3792.820513
117,4395.384615,4288.205128,4532.307692,4283.076923,4474.358974,4167.179487,4473.846153,4244.615384,4269.230769,4489.743589,4209.743589,4647.692307,4010.256410,3787.692308
118,4396.923076,4293.846153,4532.307692,4283.076923,4477.948717,4171.282051,4473.846153,4245.128205,4265.641025,4497.948717,4217.435897,4652.820512,4010.769230,3789.743590
119,4406.153846,4303.076923,4544.615384,4298.461538,4486.666666,4180.000000,4475.897435,4248.717948,4276.923076,4511.794871,4221.538461,4661.025641,4024.102564,3798.974359
120,4413.333333,4297.435897,4549.230769,4307.179487,4483.076923,4176.410256,4476.923076,4250.769230,4278.974358,4509.743589,4218.974358,4662.051282,4026.153846,3803.076924
121,4412.307692,4288.717948,4545.128205,4302.564102,4474.871794,4173.333333,4480.000000,4253.333333,4271.794871,4504.615384,4215.384615,4658.974358,4025.128205,3799.487180
122,4403.589743,4292.820512,4545.128205,4292.820512,4476.923076,4175.897435,4486.153846,4260.000000,4272.820512,4498.461538,4215.897435,4657.435897,4020.512820,3796.923077
123,4400.000000,4297.435897,4549.230769,4283.589743,4479.487179,4177.435897,4490.769230,4264.615384,4276.923076,4491.282051,4216.923076,4658.461538,4012.820512,3796.410257
124,4404.615384,4294.358974,4548.717948,4286.153846,4475.897435,4179.487179,4491.794871,4263.589743,4277.435897,4500.512820,4216.410256,4663.076923,4013.846153,3797.435898
125,4409.743589,4290.256410,4549.230769,4296.410256,4472.820512,4176.923076,4487.692307,4264.615384,4273.846153,4508.717948,4216.923076,4668.205128,4019.487179,3804.615385
126,4410.256410,4287.692307,4552.307692,4298.974358,4474.871794,4169.743589,4484.102564,4264.102564,4272.307692,4502.051282,4219.487179,4668.717948,4021.025641,3812.820513
127,4403.589743,4282.051282,4550.256410,4291.794871,4478.461538,4168.205128,4480.512820,4257.435897,4272.307692,4495.897435,4214.871794,4665.641025,4018.974358,3811.282052
128,4400.512820,4282.564102,4546.666666,4285.641025,4477.435897,4170.769230,4476.410256,4257.435897,4273.846153,4494.871794,4213.846153,4665.641025,4018.974358,3805.641026
129,4409.230769,4296.410256,4548.205128,4287.692307,4475.897435,4171.282051,4482.564102,4264.615384,4277.435897,4499.487179,4225.128205,4671.794871,4024.102564,3813.333334
130,4417.948717,4305.641025,4553.846153,4294.871794,4478.974358,4174.871794,4492.307692,4268.205128,4285.128205,4510.769230,4240.000000,4677.435897,4027.179487,3823.076924
131,4413.846153,4297.435897,4554.358974,4300.512820,4480.000000,4172.820512,4484.615384,4263.589743,4283.589743,4515.384615,4237.948717,4672.820512,4026.666666,3818.974359
132,4408.717948,4289.230769,4549.230769,4299.487179,4474.871794,4166.666666,4471.794871,4257.435897,4274.871794,4504.102564,4216.923076,4665.128205,4032.307692,3813.333334
133,4413.846153,4294.358974,4550.256410,4299.487179,4476.410256,4169.743589,4474.871794,4259.487179,4278.974358,4508.205128,4218.974358,4669.743589,4042.051282,3817.948718
134,4413.333333,4301.538461,4553.333333,4298.974358,4485.641025,4171.794871,4477.948717,4264.102564,4285.128205,4517.435897,4233.846153,4673.846153,4036.410256,3819.487180
135,4404.102564,4295.384615,4546.666666,4288.205128,4482.564102,4164.615384,4472.820512,4257.435897,4274.871794,4502.564102,4222.051282,4664.615384,4024.102564,3808.205129
136,4399.487179,4283.076923,4537.948717,4282.051282,4471.794871,4161.538461,4473.333333,4245.128205,4263.076923,4492.820512,4215.384615,4658.974358,4019.487179,3800.000000
137,4408.205128,4285.641025,4543.589743,4292.307692,4471.794871,4163.589743,4475.384615,4246.153846,4266.153846,4500.000000,4222.051282,4665.128205,4022.564102,3805.641026
138,4414.871794,4295.897435,4549.230769,4298.461538,4477.948717,4163.076923,4476.410256,4252.820512,4269.743589,4495.384615,4213.846153,4669.230769,4026.666666,3811.794872
139,4411.282051,4298.974358,4544.615384,4297.948717,4476.410256,4163.589743,4476.923076,4253.333333,4270.769230,4491.282051,4214.358974,4666.666666,4025.641025,3810.769231
140,4410.769230,4298.461538,4545.128205,4309.230769,4475.384615,4165.641025,4477.435897,4253.333333,4273.333333,4507.179487,4230.769230,4667.692307,4027.692307,3813.846154
141,4413.846153,4295.897435,4551.282051,4311.794871,4484.102564,4165.128205,4476.410256,4251.282051,4271.794871,4513.333333,4232.307692,4668.717948,4030.256410,3815.897436
142,4408.205128,4288.205128,4544.615384,4295.384615,4484.102564,4163.076923,4475.897435,4240.000000,4264.615384,4498.461538,4229.230769,4663.589743,4017.948717,3806.153847
143,4398.461538,4283.589743,4532.820512,4291.282051,4475.384615,4160.000000,4471.794871,4231.282051,4255.897435,4487.692307,4219.487179,4655.897435,4008.205128,3796.923077
144,4402.051282,4287.179487,4536.410256,4297.948717,4474.358974,4154.358974,4462.564102,4233.846153,4254.871794,4488.205128,4198.461538,4654.871794,4017.948717,3799.487180
145,4408.205128,4289.743589,4541.025641,4294.871794,4471.282051,4152.820512,4457.435897,4237.948717,4258.974358,4494.358974,4205.128205,4658.974358,4026.153846,3803.589744
146,4403.589743,4285.641025,4537.948717,4294.358974,4462.564102,4153.846153,4460.000000,4235.384615,4258.461538,4495.384615,4226.666666,4659.487179,4025.641025,3801.025642
147,4395.897435,4278.974358,4532.820512,4292.820512,4466.666666,4152.307692,4463.589743,4231.282051,4253.333333,4489.230769,4219.487179,4651.794871,4017.948717,3791.282052
148,4390.256410,4272.307692,4530.769230,4278.461538,4475.384615,4153.333333,4461.538461,4229.230769,4249.230769,4485.128205,4203.589743,4642.564102,4000.000000,3781.025642
149,4389.230769,4269.743589,4535.897435,4278.461538,4474.871794,4154.358974,4460.000000,4231.282051,4256.410256,4493.333333,4196.410256,4643.076923,3994.871795,3780.512821
150,4396.410256,4278.974358,4541.025641,4297.435897,4467.692307,4152.307692,4461.025641,4236.923076,4268.717948,4507.692307,4197.435897,4653.333333,4020.000000,3787.692308
151,4400.512820,4294.358974,4541.025641,4302.051282,4464.102564,4151.794871,4454.358974,4237.948717,4265.128205,4505.128205,4210.769230,4657.435897,4036.923076,3793.333334
152,4397.948717,4294.871794,4539.487179,4291.794871,4468.205128,4149.743589,4442.564102,4231.282051,4251.282051,4489.743589,4218.974358,4651.794871,4027.179487,3794.871795
153,4400.512820,4286.666666,4538.974358,4288.717948,4467.692307,4145.128205,4440.000000,4225.128205,4252.307692,4491.282051,4218.974358,4651.282051,4019.487179,3790.769231
154,4400.512820,4283.589743,4533.846153,4291.794871,4465.641025,4147.692307,4445.128205,4226.153846,4259.487179,4503.076923,4213.846153,4653.333333,4013.333333,3784.615385
155,4395.384615,4279.487179,4532.307692,4294.871794,4466.153846,4150.256410,4443.589743,4228.717948,4252.307692,4497.435897,4202.051282,4649.230769,4005.641025,3784.102565
156,4398.461538,4280.000000,4536.410256,4296.410256,4466.666666,4148.717948,4441.538461,4226.153846,4249.743589,4488.205128,4201.538461,4650.256410,4014.871794,3787.692308
157,4401.538461,4283.076923,4533.846153,4294.871794,4467.692307,4147.692307,4440.512820,4225.128205,4251.282051,4491.282051,4211.282051,4653.333333,4022.564102,3786.153847
158,4398.461538,4281.538461,4529.743589,4294.871794,4470.769230,4144.615384,4436.923076,4229.743589,4249.230769,4491.282051,4215.384615,4649.230769,4011.794871,3783.076924
159,4400.000000,4281.025641,4532.820512,4287.179487,4471.794871,4143.076923,4440.000000,4232.307692,4252.307692,4490.769230,4218.461538,4651.794871,4012.307692,3786.153847
160,4402.051282,4277.435897,4534.871794,4278.461538,4467.692307,4148.717948,4444.102564,4230.256410,4259.487179,4496.923076,4216.923076,4656.923076,4025.128205,3787.179488
161,4400.512820,4273.846153,4535.384615,4290.256410,4469.230769,4155.897435,4444.102564,4232.820512,4265.641025,4501.025641,4209.230769,4651.794871,4018.974358,3782.564103
162,4399.487179,4274.871794,4534.871794,4301.538461,4467.692307,4153.333333,4446.153846,4235.384615,4263.076923,4499.487179,4213.333333,4648.205128,4008.717948,3780.000000
163,4394.358974,4268.717948,4529.230769,4290.256410,4460.512820,4143.589743,4440.000000,4227.692307,4253.333333,4490.256410,4212.820512,4648.205128,4010.256410,3775.897436
164,4389.230769,4265.641025,4526.153846,4278.461538,4457.435897,4140.512820,4430.256410,4222.051282,4246.666666,4480.512820,4201.025641,4646.666666,4013.333333,3771.794872
165,4392.820512,4273.333333,4533.333333,4280.000000,4459.487179,4144.615384,4436.410256,4227.179487,4247.692307,4484.615384,4201.538461,4648.205128,4013.846153,3775.384616
166,4398.974358,4275.897435,4537.948717,4285.128205,4462.564102,4144.615384,4443.076923,4233.333333,4250.769230,4493.333333,4206.666666,4651.282051,4015.897435,3780.000000
167,4396.923076,4269.230769,4530.769230,4283.076923,4459.487179,4138.461538,4437.435897,4231.794871,4252.820512,4490.769230,4205.641025,4649.743589,4012.820512,3777.435898
168,4385.641025,4265.128205,4525.641025,4276.410256,4455.384615,4135.897435,4432.820512,4226.153846,4251.282051,4484.615384,4207.692307,4644.102564,4003.589743,3769.230770
169,4384.102564,4268.717948,4527.692307,4275.384615,4451.794871,4138.461538,4431.794871,4225.128205,4246.153846,4486.153846,4204.615384,4641.538461,4002.051282,3765.128206
170,4393.846153,4276.923076,4529.230769,4278.974358,4455.897435,4142.564102,4431.282051,4226.666666,4246.666666,4485.641025,4197.435897,4643.076923,4008.717948,3766.153847
171,4395.897435,4283.589743,4530.769230,4282.051282,4462.051282,4142.051282,4431.794871,4223.076923,4245.641025,4479.487179,4201.025641,4643.589743,4012.307692,3765.641026
172,4389.230769,4284.615384,4531.794871,4281.538461,4457.948717,4141.538461,4432.307692,4221.538461,4240.512820,4481.538461,4204.102564,4640.000000,4005.128205,3760.000000
173,4392.307692,4289.230769,4529.743589,4280.512820,4456.923076,4144.615384,4435.384615,4229.230769,4242.051282,4486.666666,4200.000000,4640.512820,3995.384616,3758.461539
174,4393.846153,4292.307692,4527.179487,4277.435897,4459.487179,4144.615384,4440.512820,4234.871794,4250.769230,4477.948717,4188.717948,4639.487179,3996.923077,3756.923077
175,4388.717948,4288.205128,4524.615384,4276.410256,4457.435897,4145.128205,4441.025641,4233.333333,4251.282051,4476.410256,4178.461538,4633.846153,4001.538461,3749.743590
176,4393.333333,4291.794871,4525.641025,4278.461538,4457.948717,4149.230769,4439.487179,4228.717948,4244.102564,4491.794871,4190.256410,4635.384615,3997.435898,3749.230770
177,4399.487179,4300.000000,4531.282051,4280.000000,4459.487179,4150.769230,4440.000000,4225.641025,4242.564102,4490.256410,4208.205128,4641.538461,3996.410257,3752.820513
178,4395.897435,4301.025641,4531.282051,4280.000000,4458.974358,4145.641025,4441.538461,4226.666666,4241.025641,4471.282051,4198.974358,4643.076923,4004.615384,3751.794872
179,4397.948717,4300.000000,4529.743589,4279.487179,4460.000000,4143.076923,4442.051282,4230.769230,4240.000000,4473.846153,4184.102564,4645.641025,4009.743589,3754.871795
180,4407.692307,4305.128205,4539.487179,4283.076923,4460.512820,4145.128205,4444.615384,4236.410256,4249.743589,4487.692307,4195.384615,4651.282051,4008.717948,3761.538462
181,4406.153846,4307.179487,4543.076923,4281.538461,4456.923076,4145.128205,4442.051282,4235.384615,4252.307692,4485.128205,4210.769230,4649.743589,3997.948718,3755.384616
182,4394.871794,4297.948717,4532.307692,4273.846153,4456.410256,4140.512820,4433.846153,4229.230769,4243.076923,4477.435897,4202.564102,4642.051282,3990.256411,3742.564103
183,4393.846153,4293.846153,4529.230769,4274.358974,4461.538461,4136.923076,4428.205128,4225.641025,4238.974358,4472.820512,4185.128205,4639.487179,4000.000000,3742.564103
184,4398.461538,4296.923076,4531.794871,4280.512820,4462.051282,4141.538461,4430.769230,4223.589743,4238.974358,4470.256410,4185.128205,4641.025641,4005.641025,3747.692308
185,4396.410256,4294.358974,4528.205128,4281.025641,4458.974358,4145.128205,4436.923076,4218.974358,4236.923076,4476.923076,4196.923076,4640.512820,3996.923077,3745.641026
186,4392.307692,4291.282051,4527.179487,4269.743589,4457.435897,4142.051282,4437.948717,4218.974358,4241.538461,4484.615384,4203.076923,4639.487179,3993.333334,3742.051283
187,4394.871794,4293.333333,4528.205128,4263.076923,4458.974358,4143.589743,4431.282051,4221.538461,4244.102564,4487.179487,4203.076923,4641.538461,3994.871795,3741.538462
188,4398.461538,4293.846153,4527.179487,4271.282051,4456.410256,4147.179487,4429.743589,4223.589743,4238.974358,4484.102564,4200.000000,4643.589743,4000.000000,3744.102565
189,4400.000000,4293.846153,4529.230769,4280.512820,4455.384615,4147.692307,4436.410256,4231.794871,4243.589743,4474.358974,4195.897435,4645.128205,4014.358974,3749.743590
190,4403.589743,4298.461538,4532.307692,4281.538461,4466.153846,4147.179487,4434.358974,4234.358974,4250.769230,4474.871794,4204.102564,4646.666666,4013.333333,3752.307693
191,4407.179487,4305.128205,4531.282051,4277.948717,4468.717948,4145.641025,4428.717948,4229.743589,4248.717948,4489.743589,4216.410256,4646.153846,4001.538461,3750.769231
192,4411.282051,4312.307692,4533.846153,4283.076923,4461.025641,4145.128205,4436.410256,4234.358974,4252.307692,4497.435897,4211.794871,4648.205128,4009.230769,3754.871795
193,4415.384615,4320.000000,4542.564102,4292.307692,4465.641025,4149.743589,4445.128205,4244.615384,4261.025641,4497.435897,4212.307692,4656.923076,4022.564102,3761.538462
194,4418.974358,4318.461538,4547.692307,4298.461538,4475.384615,4156.923076,4451.282051,4247.692307,4262.564102,4503.076923,4220.000000,4664.102564,4026.153846,3766.666667
195,4425.641025,4315.384615,4551.794871,4302.564102,4475.897435,4157.948717,4455.384615,4249.743589,4262.564102,4503.589743,4216.410256,4666.153846,4027.179487,3773.333334
196,4426.153846,4319.487179,4552.820512,4295.384615,4474.358974,4156.410256,4449.743589,4249.743589,4263.589743,4496.923076,4215.897435,4665.641025,4024.615384,3774.871795
197,4415.384615,4317.948717,4544.102564,4285.641025,4476.410256,4154.358974,4441.538461,4240.512820,4254.871794,4494.871794,4219.487179,4660.512820,4019.487179,3765.641026
198,4412.307692,4310.256410,4541.025641,4294.871794,4476.923076,4152.820512,4445.641025,4238.974358,4251.794871,4502.051282,4213.333333,4655.897435,4019.487179,3759.487180
199,4418.461538,4309.743589,4545.641025,4306.153846,4470.256410,4156.923076,4451.794871,4248.717948,4263.589743,4505.128205,4216.923076,4658.461538,4017.435897,3763.076924
200,4410.769230,4307.179487,4543.076923,4296.923076,4464.102564,4155.384615,4447.692307,4249.743589,4263.589743,4498.974358,4222.564102,4656.410256,4011.282051,3763.589744
201,4399.487179,4301.025641,4536.410256,4288.717948,4463.076923,4149.743589,4444.102564,4244.615384,4258.461538,4495.897435,4204.102564,4650.769230,4015.897435,3757.948718
202,4404.102564,4300.000000,4534.358974,4289.230769,4468.205128,4151.282051,4445.641025,4241.538461,4264.102564,4500.512820,4200.000000,4651.794871,4025.641025,3756.923077
203,4409.230769,4294.871794,4534.871794,4282.564102,4470.769230,4154.871794,4449.230769,4240.000000,4266.153846,4502.051282,4220.000000,4651.282051,4020.512820,3755.384616
204,4403.589743,4293.846153,4535.384615,4277.948717,4467.179487,4148.717948,4447.692307,4238.974358,4258.461538,4502.564102,4216.923076,4647.179487,4010.256410,3751.282052
205,4397.948717,4298.974358,4532.307692,4281.538461,4462.564102,4142.564102,4441.538461,4232.307692,4251.794871,4497.435897,4197.435897,4645.641025,4008.717948,3749.230770
206,4404.615384,4296.410256,4530.769230,4289.743589,4460.512820,4144.615384,4440.512820,4226.666666,4250.769230,4488.205128,4195.897435,4646.153846,4012.307692,3751.794872
207,4409.743589,4293.333333,4532.307692,4297.435897,4460.000000,4143.076923,4440.512820,4232.820512,4252.820512,4490.256410,4201.538461,4646.153846,4017.948717,3754.871795
208,4403.589743,4296.923076,4532.307692,4293.333333,4457.435897,4135.384615,4433.333333,4232.307692,4249.743589,4494.358974,4204.102564,4646.153846,4019.487179,3751.794872
209,4397.948717,4301.538461,4525.128205,4283.589743,4454.358974,4131.794871,4426.153846,4219.487179,4238.461538,4485.641025,4207.179487,4643.589743,4008.717948,3746.153847
210,4393.846153,4298.461538,4521.538461,4281.025641,4453.846153,4134.871794,4426.666666,4215.384615,4234.871794,4478.974358,4195.384615,4637.948717,3998.461539,3742.051283
211,4385.641025,4286.153846,4523.076923,4276.410256,4456.410256,4139.487179,4432.820512,4218.974358,4235.384615,4476.410256,4174.358974,4633.846153,3994.358975,3736.410257
212,4387.179487,4283.589743,4529.230769,4275.897435,4461.025641,4144.102564,4441.025641,4225.641025,4238.974358,4477.948717,4185.128205,4638.461538,3996.410257,3738.461539
213,4402.051282,4303.589743,4538.974358,4289.743589,4468.205128,4151.282051,4444.102564,4237.948717,4252.307692,4488.205128,4210.769230,4648.717948,4007.179487,3748.717949
214,4409.230769,4316.923076,4543.076923,4294.871794,4473.333333,4152.307692,4442.564102,4243.076923,4260.000000,4498.461538,4206.153846,4651.282051,4014.358974,3755.384616
215,4405.641025,4307.179487,4536.923076,4283.589743,4468.205128,4149.743589,4442.051282,4238.974358,4253.333333,4500.000000,4200.000000,4650.256410,4015.897435,3755.384616
216,4401.025641,4295.384615,4530.769230,4277.948717,4461.025641,4147.692307,4438.461538,4233.846153,4246.153846,4489.230769,4212.307692,4650.769230,4016.923076,3753.333334
217,4396.410256,4286.666666,4532.307692,4278.974358,4461.025641,4141.538461,4433.846153,4226.153846,4247.179487,4476.923076,4212.307692,4647.692307,4013.333333,3749.230770
218,4395.897435,4285.641025,4534.358974,4280.000000,4460.512820,4137.948717,4436.923076,4222.051282,4248.717948,4485.641025,4207.692307,4644.615384,4014.358974,3751.282052
219,4401.025641,4295.897435,4533.846153,4281.538461,4457.435897,4143.589743,4443.076923,4230.256410,4252.307692,4501.538461,4211.282051,4648.205128,4023.076923,3758.461539
220,4402.564102,4303.076923,4535.384615,4272.307692,4458.974358,4146.666666,4444.615384,4236.410256,4254.871794,4498.461538,4205.128205,4650.256410,4023.076923,3757.435898
221,4399.487179,4294.871794,4532.820512,4265.641025,4464.102564,4143.589743,4438.461538,4231.282051,4251.282051,4485.641025,4200.512820,4646.153846,4014.358974,3751.794872
222,4398.974358,4285.128205,4532.307692,4280.000000,4466.153846,4142.564102,4431.794871,4228.717948,4250.769230,4489.743589,4206.666666,4646.666666,4014.871794,3752.820513
223,4403.589743,4288.717948,4533.846153,4287.179487,4461.538461,4144.615384,4435.384615,4230.769230,4247.692307,4494.358974,4208.717948,4649.743589,4017.948717,3760.000000
224,4405.641025,4296.923076,4533.333333,4279.487179,4459.487179,4145.128205,4442.564102,4228.205128,4244.102564,4488.717948,4215.897435,4649.743589,4017.435897,3764.615385
225,4403.076923,4294.358974,4532.820512,4276.923076,4463.076923,4144.615384,4444.102564,4226.666666,4248.717948,4491.282051,4220.000000,4651.794871,4022.564102,3764.615385
226,4398.461538,4281.025641,4531.282051,4273.333333,4460.512820,4140.512820,4442.051282,4228.205128,4249.743589,4494.871794,4212.820512,4653.333333,4029.230769,3764.615385
227,4393.846153,4275.897435,4527.692307,4265.128205,4454.358974,4135.384615,4442.051282,4231.794871,4245.128205,4489.743589,4214.871794,4649.743589,4022.051282,3764.615385
228,4393.846153,4281.538461,4527.179487,4272.820512,4456.410256,4139.487179,4441.538461,4234.871794,4253.846153,4490.769230,4211.794871,4647.692307,4008.717948,3765.641026
229,4395.384615,4284.102564,4527.692307,4278.974358,4461.025641,4144.102564,4442.051282,4234.871794,4261.538461,4498.974358,4198.461538,4646.153846,4010.769230,3766.153847
230,4391.794871,4279.487179,4526.666666,4270.769230,4462.051282,4143.589743,4444.102564,4230.769230,4250.256410,4496.410256,4200.000000,4643.076923,4013.846153,3762.564103
231,4388.205128,4275.897435,4531.282051,4269.230769,4460.000000,4144.102564,4444.102564,4229.230769,4243.589743,4486.153846,4203.076923,4644.102564,4006.666666,3760.512821
232,4394.871794,4282.051282,4537.948717,4276.923076,4458.974358,4146.153846,4443.589743,4233.333333,4250.769230,4488.717948,4198.974358,4650.256410,4012.820512,3767.692308
233,4400.512820,4287.692307,4537.435897,4282.051282,4459.487179,4147.179487,4445.128205,4236.410256,4253.333333,4494.358974,4207.692307,4650.256410,4025.641025,3773.333334
234,4394.358974,4280.512820,4531.282051,4277.435897,4460.000000,4145.128205,4444.102564,4232.307692,4244.102564,4486.666666,4211.794871,4646.153846,4017.435897,3768.717949
235,4389.230769,4270.256410,4529.743589,4272.307692,4458.461538,4145.128205,4443.076923,4231.794871,4246.666666,4488.205128,4205.641025,4646.153846,4005.641025,3767.179488
236,4393.846153,4274.358974,4537.948717,4274.871794,4460.512820,4148.717948,4452.307692,4235.897435,4258.461538,4500.512820,4205.641025,4648.717948,4008.205128,3770.256411
237,4396.923076,4283.589743,4541.538461,4281.538461,4470.256410,4153.846153,4460.000000,4231.282051,4251.282051,4495.384615,4196.923076,4647.179487,4012.307692,3769.743590
238,4394.871794,4282.564102,4536.410256,4280.512820,4477.948717,4153.846153,4456.410256,4224.102564,4238.461538,4485.128205,4191.794871,4646.153846,4015.897435,3771.282052
239,4397.948717,4280.000000,4538.974358,4276.923076,4473.333333,4150.769230,4457.435897,4233.333333,4249.230769,4489.743589,4208.717948,4651.282051,4015.897435,3780.000000
240,4398.461538,4275.897435,4542.564102,4282.564102,4460.000000,4151.794871,4457.948717,4237.435897,4254.871794,4492.307692,4213.333333,4652.820512,4009.230769,3781.538462
241,4389.230769,4271.282051,4534.871794,4282.564102,4455.384615,4144.615384,4449.230769,4225.128205,4242.051282,4487.179487,4198.461538,4647.692307,4008.717948,3772.820513
242,4385.641025,4272.307692,4528.205128,4269.743589,4455.384615,4136.410256,4443.589743,4224.102564,4243.076923,4488.205128,4194.871794,4644.102564,4009.230769,3767.692308
243,4384.615384,4271.794871,4528.205128,4263.076923,4451.282051,4137.948717,4444.615384,4232.820512,4246.666666,4482.051282,4191.282051,4636.410256,3995.897436,3766.153847
244,4381.538461,4265.128205,4527.692307,4270.769230,4451.282051,4139.487179,4449.230769,4231.282051,4238.461538,4473.333333,4181.538461,4630.769230,3986.666667,3765.641026
245,4386.666666,4265.128205,4531.794871,4276.410256,4458.974358,4138.461538,4453.333333,4228.717948,4235.384615,4477.435897,4184.615384,4635.897435,3999.487180,3768.717949
246,4391.794871,4273.333333,4533.846153,4274.871794,4460.000000,4142.051282,4454.358974,4232.307692,4238.974358,4480.512820,4191.794871,4641.025641,4011.794871,3774.358975
247,4388.205128,4277.948717,4531.794871,4276.410256,4457.948717,4146.666666,4456.923076,4231.282051,4244.615384,4484.102564,4200.512820,4644.102564,4009.743589,3780.000000
248,4386.153846,4273.846153,4530.769230,4270.256410,4460.000000,4144.102564,4454.871794,4231.282051,4252.307692,4493.333333,4205.128205,4643.589743,4000.000000,3780.512821
249,4386.153846,4266.153846,4527.179487,4262.564102,4459.487179,4140.000000,4445.641025,4229.743589,4249.230769,4493.333333,4200.512820,4637.435897,3998.974359,3777.948718
250,4384.615384,4266.666666,4527.179487,4271.282051,4453.846153,4140.000000,4443.076923,4222.051282,4244.102564,4487.179487,4195.384615,4637.948717,4012.307692,3782.051283
251,4386.666666,4268.717948,4529.743589,4276.410256,4452.307692,4138.974358,4445.641025,4224.102564,4248.717948,4490.256410,4189.743589,4642.564102,4015.384615,3786.666667
252,4385.128205,4261.538461,4526.153846,4265.128205,4455.897435,4136.410256,4442.564102,4227.692307,4247.692307,4487.692307,4192.307692,4637.435897,4001.025641,3780.512821
253,4381.538461,4261.538461,4525.128205,4261.025641,4456.410256,4136.923076,4441.025641,4222.051282,4240.512820,4479.487179,4203.589743,4633.846153,3995.897436,3778.974359
254,4385.641025,4268.205128,4530.256410,4267.179487,4452.820512,4137.948717,4445.128205,4222.051282,4240.512820,4484.102564,4203.589743,4637.435897,4008.205128,3787.179488
255,4387.179487,4267.179487,4529.230769,4267.692307,4454.871794,4135.384615,4442.051282,4225.641025,4243.589743,4492.820512,4198.461538,4637.948717,4015.897435,3789.743590
256,4380.512820,4263.076923,4527.179487,4265.128205,4458.974358,4137.435897,4443.589743,4225.128205,4244.102564,4491.794871,4201.025641,4637.948717,4007.692307,3786.153847
257,4381.538461,4267.692307,4532.307692,4265.128205,4458.461538,4143.076923,4453.846153,4230.256410,4252.307692,4490.769230,4197.435897,4636.923076,3999.487180,3785.641026
258,4386.666666,4272.307692,4531.794871,4267.692307,4458.461538,4145.128205,4460.512820,4236.923076,4257.435897,4490.769230,4198.461538,4633.846153,4003.589743,3786.666667
259,4383.589743,4265.641025,4524.615384,4268.717948,4461.025641,4147.692307,4460.000000,4231.282051,4249.230769,4487.692307,4199.487179,4631.794871,4004.102564,3784.615385
