,AF3,F7,F3,FC5,T7,P7,O1,O2,P8,T8,FC6,F4,F8,AF4
0,4385.128205,4430.769230,4536.410256,4240.512820,4481.538461,4158.461538,4442.564102,4222.564102,4239.487179,4526.153846,4195.384615,4647.692307,3975.384616,4057.435897
1,4391.282051,4438.974358,4545.641025,4244.615384,4486.666666,4164.615384,4450.769230,4224.615384,4244.102564,4531.282051,4205.641025,4655.384615,3989.230770,4066.153846
2,4396.923076,4437.435897,4550.769230,4252.307692,4486.666666,4166.153846,4452.307692,4230.256410,4249.230769,4535.897435,4215.897435,4663.076923,4001.025641,4072.307692
3,4400.000000,4438.461538,4547.179487,4256.923076,4484.102564,4163.076923,4448.717948,4234.358974,4253.846153,4535.384615,4213.846153,4665.128205,4001.025641,4070.769230
4,4396.410256,4446.153846,4540.512820,4253.846153,4485.641025,4164.102564,4449.743589,4231.282051,4249.230769,4535.384615,4207.179487,4659.487179,4000.512820,4069.230769
5,4390.256410,4444.102564,4540.512820,4252.820512,4489.230769,4167.179487,4451.794871,4228.205128,4243.076923,4534.871794,4207.692307,4654.871794,4000.512820,4068.205128
6,4391.794871,4436.410256,4542.051282,4254.871794,4488.717948,4165.128205,4451.282051,4230.256410,4245.128205,4528.205128,4215.384615,4657.948717,3996.410257,4065.128205
7,4392.307692,4437.435897,4535.897435,4252.820512,4486.153846,4163.076923,4450.769230,4226.153846,4244.615384,4523.589743,4213.333333,4654.871794,3994.871795,4063.076923
8,4383.076923,4442.051282,4528.717948,4247.692307,4484.102564,4164.615384,4448.717948,4221.538461,4242.051282,4528.205128,4203.076923,4645.641025,3996.410257,4062.051282
9,4382.051282,4440.000000,4531.282051,4246.153846,4483.076923,4163.589743,4447.692307,4227.179487,4246.153846,4532.307692,4205.128205,4647.692307,3999.487180,4063.076923
10,4384.615384,4434.871794,4530.256410,4252.307692,4484.102564,4159.487179,4450.256410,4228.205128,4245.641025,4527.692307,4209.230769,4647.692307,3998.974359,4061.025641
11,4378.461538,4432.820512,4525.128205,4249.743589,4477.948717,4156.923076,4447.179487,4224.615384,4238.461538,4523.076923,4206.666666,4641.025641,3989.743590,4054.871794
12,4377.948717,4435.384615,4529.230769,4245.641025,4472.820512,4160.512820,4444.615384,4226.666666,4240.000000,4527.692307,4205.641025,4644.615384,3988.717949,4051.282051
13,4383.076923,4437.948717,4531.794871,4249.743589,4477.435897,4161.538461,4448.205128,4228.717948,4244.102564,4528.717948,4206.153846,4650.256410,3996.410257,4053.333333
14,4380.000000,4433.846153,4524.102564,4248.717948,4477.948717,4155.384615,4446.666666,4224.102564,4238.461538,4523.589743,4204.102564,4643.076923,3990.256411,4052.820512
15,4375.384615,4426.666666,4520.000000,4243.589743,4474.358974,4153.333333,4443.589743,4220.000000,4233.846153,4520.000000,4200.512820,4636.923076,3980.512821,4047.179487
16,4377.435897,4423.076923,4524.615384,4244.615384,4475.897435,4159.487179,4448.717948,4223.589743,4237.948717,4521.025641,4196.410256,4640.512820,3985.641026,4047.692307
17,4377.435897,4425.128205,4525.128205,4249.230769,4477.948717,4159.487179,4450.256410,4225.128205,4237.435897,4523.589743,4193.846153,4642.564102,3989.743590,4051.282051
18,4375.897435,4428.205128,4522.564102,4247.692307,4477.435897,4153.846153,4445.128205,4220.512820,4233.846153,4524.102564,4191.794871,4639.487179,3982.564103,4045.128205
19,4377.435897,4428.717948,4524.615384,4246.666666,4473.846153,4154.358974,4445.641025,4217.948717,4236.410256,4521.538461,4190.769230,4640.512820,3978.974359,4042.564102
20,4380.512820,4430.769230,4526.153846,4249.743589,4473.333333,4157.435897,4448.205128,4218.974358,4235.897435,4518.974358,4193.333333,4643.076923,3981.025642,4050.769230
21,4380.000000,4432.307692,4525.641025,4248.717948,4476.923076,4159.487179,4448.205128,4214.358974,4228.205128,4515.384615,4198.974358,4642.051282,3979.487180,4054.358974
22,4376.410256,4428.717948,4525.641025,4244.102564,4478.461538,4161.025641,4450.769230,4209.230769,4229.230769,4511.794871,4195.897435,4640.512820,3977.435898,4051.282051
23,4379.487179,4430.769230,4526.666666,4246.153846,4477.948717,4160.512820,4455.384615,4217.948717,4242.051282,4520.512820,4190.769230,4641.538461,3977.435898,4053.846153
24,4388.717948,4438.974358,4536.923076,4255.897435,4482.051282,4163.076923,4457.948717,4226.153846,4246.153846,4529.743589,4195.384615,4646.666666,3977.435898,4062.051282
25,4386.153846,4440.000000,4546.153846,4254.358974,4484.102564,4166.153846,4456.410256,4222.051282,4241.538461,4524.102564,4197.948717,4648.205128,3977.948718,4064.102564
26,4378.461538,4436.410256,4544.615384,4247.179487,4478.974358,4164.102564,4452.307692,4217.948717,4238.974358,4517.948717,4195.384615,4645.641025,3977.948718,4060.512820
27,4377.948717,4435.384615,4545.128205,4245.641025,4474.871794,4158.461538,4451.282051,4220.000000,4233.333333,4518.974358,4193.333333,4642.564102,3969.743590,4058.461538
28,4375.897435,4432.820512,4549.230769,4239.487179,4470.769230,4154.871794,4451.282051,4221.538461,4227.179487,4516.410256,4189.743589,4639.487179,3961.538462,4059.487179
29,4372.820512,4431.282051,4549.230769,4236.923076,4469.230769,4153.333333,4449.743589,4220.512820,4230.256410,4512.820512,4186.666666,4638.461538,3966.153847,4056.923076
30,4377.435897,4435.384615,4550.256410,4242.564102,4475.384615,4155.897435,4448.717948,4221.025641,4237.435897,4515.897435,4190.769230,4639.487179,3970.769231,4057.435897
31,4381.025641,4436.923076,4555.384615,4243.589743,4481.025641,4162.051282,4452.820512,4220.512820,4237.435897,4516.410256,4194.871794,4640.512820,3965.641026,4064.615384
32,4374.871794,4435.384615,4554.358974,4240.512820,4480.512820,4162.051282,4455.897435,4219.487179,4233.846153,4515.384615,4191.282051,4636.410256,3965.128206,4063.076923
33,4370.256410,4433.846153,4550.256410,4238.461538,4477.948717,4157.948717,4458.461538,4220.000000,4235.897435,4520.000000,4188.717948,4634.358974,3971.794872,4057.435897
34,4374.358974,4431.282051,4551.282051,4238.974358,4477.948717,4160.000000,4459.487179,4223.589743,4241.538461,4518.974358,4191.794871,4637.435897,3972.307693,4060.000000
35,4376.410256,4431.282051,4555.384615,4240.512820,4479.487179,4163.076923,4456.923076,4229.230769,4243.076923,4516.410256,4197.948717,4641.538461,3967.692308,4065.641025
36,4372.820512,4432.307692,4557.435897,4240.512820,4481.025641,4160.000000,4453.333333,4229.230769,4240.512820,4525.128205,4202.564102,4640.512820,3971.282052,4065.128205
37,4372.820512,4433.333333,4554.358974,4237.435897,4477.948717,4156.923076,4451.794871,4224.615384,4242.051282,4532.307692,4198.974358,4638.974358,3980.000000,4065.641025
38,4376.410256,4436.410256,4551.794871,4235.897435,4474.871794,4158.461538,4451.282051,4224.615384,4241.538461,4525.128205,4195.384615,4641.025641,3979.487180,4069.230769
39,4374.871794,4433.333333,4551.794871,4237.435897,4474.358974,4155.384615,4448.205128,4220.000000,4232.820512,4514.871794,4196.410256,4637.948717,3970.769231,4065.641025
40,4368.205128,4425.128205,4548.717948,4238.461538,4473.333333,4149.743589,4445.641025,4210.769230,4226.666666,4516.410256,4196.410256,4632.820512,3965.128206,4061.025641
41,4363.076923,4423.589743,4545.641025,4237.948717,4475.384615,4150.769230,4445.128205,4213.846153,4234.871794,4523.589743,4195.384615,4634.358974,3966.153847,4056.923076
42,4364.102564,4429.743589,4549.230769,4236.923076,4474.871794,4151.794871,4446.666666,4221.538461,4243.076923,4524.102564,4196.410256,4634.871794,3968.205129,4056.410256
43,4374.358974,4436.410256,4555.384615,4241.538461,4474.358974,4153.333333,4449.743589,4220.512820,4239.487179,4522.051282,4198.974358,4636.410256,3975.384616,4067.692307
44,4378.974358,4437.435897,4558.974358,4245.128205,4476.923076,4155.384615,4450.769230,4221.538461,4234.871794,4519.487179,4195.897435,4641.025641,3977.948718,4075.897435
45,4375.897435,4432.307692,4559.487179,4243.589743,4476.410256,4154.871794,4451.282051,4227.179487,4234.358974,4517.435897,4192.307692,4640.512820,3969.743590,4068.717948
46,4376.923076,4432.307692,4558.974358,4246.666666,4474.871794,4154.871794,4457.435897,4226.153846,4236.923076,4523.076923,4201.538461,4639.487179,3969.230770,4067.692307
47,4378.974358,4440.000000,4562.564102,4248.205128,4482.564102,4161.538461,4463.589743,4226.153846,4241.538461,4525.641025,4210.769230,4645.641025,3975.384616,4074.871794
48,4377.948717,4437.435897,4564.615384,4244.615384,4486.153846,4165.128205,4459.487179,4230.769230,4245.128205,4520.000000,4204.102564,4648.205128,3972.820513,4069.743589
49,4376.410256,4428.717948,4560.000000,4243.589743,4476.923076,4155.897435,4452.820512,4227.179487,4241.538461,4520.512820,4197.435897,4642.564102,3966.153847,4063.076923
50,4375.384615,4429.230769,4556.923076,4244.615384,4472.820512,4149.743589,4452.307692,4221.538461,4236.410256,4524.102564,4200.512820,4639.487179,3967.179488,4065.128205
51,4372.307692,4435.384615,4561.538461,4249.230769,4478.461538,4157.948717,4454.871794,4223.589743,4238.461538,4522.564102,4203.076923,4641.538461,3971.794872,4065.128205
52,4373.846153,4435.897435,4561.538461,4253.846153,4483.589743,4158.461538,4452.820512,4221.538461,4237.435897,4521.025641,4201.025641,4643.076923,3971.282052,4062.051282
53,4374.358974,4430.769230,4554.871794,4252.307692,4481.538461,4150.256410,4445.128205,4211.794871,4225.641025,4514.871794,4195.897435,4638.974358,3965.641026,4059.487179
54,4372.820512,4429.743589,4554.871794,4250.769230,4480.000000,4152.820512,4444.615384,4208.717948,4221.538461,4508.717948,4191.282051,4636.410256,3963.076924,4062.564102
55,4371.282051,4431.282051,4556.410256,4250.256410,4482.051282,4160.000000,4452.307692,4212.307692,4225.641025,4511.282051,4190.769230,4637.948717,3965.641026,4063.076923
56,4368.205128,4426.666666,4547.692307,4243.589743,4478.974358,4155.384615,4452.820512,4213.846153,4223.589743,4511.794871,4191.794871,4636.410256,3967.179488,4057.948717
57,4364.102564,4420.000000,4542.051282,4238.974358,4478.974358,4152.820512,4446.666666,4214.358974,4225.128205,4512.307692,4194.871794,4632.307692,3967.692308,4054.358974
58,4363.589743,4421.538461,4545.128205,4244.102564,4481.538461,4158.461538,4451.282051,4217.948717,4235.384615,4518.974358,4193.846153,4631.794871,3968.205129,4054.871794
59,4366.666666,4427.179487,4543.589743,4248.717948,4481.025641,4161.538461,4462.051282,4224.102564,4238.461538,4522.051282,4191.282051,4635.897435,3970.769231,4054.358974
60,4370.769230,4427.179487,4544.102564,4248.717948,4483.076923,4164.102564,4460.512820,4230.256410,4240.512820,4522.051282,4197.948717,4640.000000,3977.948718,4055.384615
61,4371.794871,4426.666666,4549.230769,4250.256410,4485.128205,4164.615384,4458.461538,4231.794871,4249.230769,4526.666666,4204.102564,4642.051282,3978.974359,4059.487179
62,4369.230769,4426.153846,4547.179487,4249.743589,4481.538461,4161.025641,4461.025641,4228.205128,4250.256410,4528.717948,4197.435897,4638.461538,3972.820513,4058.461538
63,4366.153846,4424.102564,4542.051282,4243.589743,4476.923076,4158.461538,4458.461538,4224.102564,4243.076923,4520.000000,4192.307692,4633.333333,3969.230770,4052.307692
64,4368.205128,4425.128205,4544.102564,4244.102564,4480.512820,4159.487179,4459.487179,4223.076923,4241.025641,4514.358974,4193.333333,4635.384615,3970.769231,4052.820512
65,4372.307692,4428.717948,4546.153846,4254.358974,4486.153846,4161.538461,4461.538461,4226.153846,4243.076923,4516.410256,4190.256410,4638.461538,3970.256411,4054.871794
66,4371.282051,4429.743589,4545.128205,4255.384615,4484.615384,4161.025641,4458.974358,4227.692307,4242.051282,4518.461538,4190.769230,4637.435897,3966.666667,4052.307692
67,4373.333333,4428.205128,4545.128205,4249.230769,4481.025641,4160.512820,4459.487179,4228.717948,4241.538461,4520.512820,4196.410256,4639.487179,3967.692308,4054.871794
68,4377.435897,4428.205128,4546.153846,4249.743589,4480.512820,4160.000000,4459.487179,4228.717948,4241.538461,4525.128205,4200.000000,4643.076923,3972.820513,4061.025641
69,4373.846153,4427.692307,4546.153846,4251.282051,4480.000000,4158.974358,4451.794871,4225.128205,4240.000000,4526.666666,4203.589743,4640.512820,3975.897436,4059.487179
70,4368.205128,4423.076923,4543.076923,4248.205128,4478.974358,4157.435897,4449.230769,4223.076923,4238.974358,4522.051282,4203.076923,4636.923076,3975.897436,4056.923076
71,4369.743589,4423.589743,4538.461538,4244.615384,4480.512820,4153.846153,4450.256410,4223.076923,4240.512820,4519.487179,4198.974358,4637.948717,3976.410257,4056.923076
72,4375.384615,4428.205128,4541.025641,4246.666666,4481.025641,4156.410256,4449.743589,4222.564102,4244.615384,4521.025641,4198.461538,4643.076923,3978.974359,4060.000000
73,4378.461538,4427.692307,4547.692307,4253.846153,4478.461538,4160.000000,4454.358974,4223.589743,4244.615384,4521.025641,4205.128205,4645.128205,3982.564103,4063.589743
74,4378.974358,4427.692307,4549.743589,4257.435897,4478.461538,4158.974358,4460.512820,4226.153846,4241.025641,4521.538461,4207.692307,4642.051282,3981.025642,4064.615384
75,4379.487179,4433.333333,4546.153846,4256.410256,4481.538461,4160.000000,4462.051282,4223.076923,4240.000000,4525.128205,4205.128205,4642.051282,3975.897436,4064.102564
76,4379.487179,4429.230769,4544.615384,4253.333333,4483.589743,4164.102564,4456.923076,4220.512820,4240.000000,4527.179487,4202.564102,4646.153846,3980.512821,4065.641025
77,4374.358974,4418.461538,4543.589743,4242.564102,4479.487179,4157.435897,4449.743589,4218.974358,4237.435897,4518.974358,4196.410256,4642.564102,3984.102565,4060.512820
78,4370.769230,4420.512820,4536.923076,4234.871794,4475.897435,4148.205128,4450.769230,4213.846153,4235.897435,4516.923076,4193.333333,4637.948717,3974.358975,4052.307692
79,4372.820512,4423.076923,4536.410256,4242.564102,4479.487179,4155.384615,4454.871794,4216.410256,4236.410256,4521.025641,4198.461538,4641.025641,3972.820513,4055.384615
80,4370.769230,4414.871794,4541.025641,4249.230769,4478.974358,4157.948717,4450.769230,4219.487179,4231.794871,4516.410256,4201.538461,4640.000000,3980.512821,4061.538461
81,4364.102564,4410.769230,4536.923076,4244.102564,4474.871794,4150.256410,4445.641025,4212.820512,4226.666666,4509.743589,4194.871794,4635.384615,3970.256411,4055.384615
82,4362.564102,4411.282051,4529.230769,4240.000000,4474.358974,4151.282051,4447.692307,4208.205128,4224.102564,4510.769230,4188.717948,4634.871794,3958.461539,4046.666666
83,4363.589743,4408.717948,4527.692307,4240.512820,4472.307692,4153.333333,4447.692307,4212.307692,4222.051282,4514.871794,4189.230769,4634.358974,3964.615385,4046.153846
84,4362.564102,4411.282051,4529.743589,4239.487179,4471.282051,4147.692307,4447.179487,4212.307692,4222.051282,4509.743589,4190.769230,4633.333333,3970.256411,4048.205128
85,4363.076923,4415.897435,4532.820512,4241.538461,4474.358974,4147.179487,4448.205128,4209.230769,4225.641025,4503.076923,4190.769230,4633.333333,3966.153847,4049.743589
86,4361.025641,4409.743589,4531.282051,4242.051282,4473.846153,4147.692307,4445.128205,4207.692307,4220.512820,4501.538461,4186.666666,4629.230769,3962.051283,4045.641025
87,4360.512820,4406.666666,4524.615384,4236.923076,4471.282051,4143.076923,4442.051282,4205.128205,4215.384615,4506.153846,4182.051282,4627.692307,3961.538462,4040.512820
88,4365.641025,4417.435897,4529.230769,4236.410256,4470.769230,4145.128205,4448.205128,4209.743589,4227.179487,4512.820512,4189.743589,4634.358974,3966.153847,4045.128205
89,4363.589743,4417.948717,4535.384615,4238.974358,4472.307692,4149.743589,4453.333333,4214.358974,4233.333333,4509.743589,4196.410256,4637.435897,3967.179488,4047.179487
90,4363.589743,4411.282051,4532.307692,4236.923076,4476.923076,4149.743589,4449.230769,4210.256410,4224.102564,4507.179487,4193.846153,4638.461538,3966.666667,4046.153846
91,4375.384615,4418.974358,4534.358974,4233.333333,4480.000000,4149.743589,4446.153846,4210.256410,4224.615384,4514.871794,4195.897435,4646.666666,3975.897436,4057.948717
92,4380.000000,4428.717948,4544.102564,4229.743589,4475.384615,4149.230769,4446.153846,4214.871794,4237.948717,4517.948717,4208.717948,4653.333333,3986.153847,4067.179487
93,4372.307692,4423.589743,4540.512820,4220.000000,4475.897435,4147.692307,4445.128205,4213.333333,4238.974358,4514.358974,4205.641025,4650.256410,3983.076924,4060.000000
94,4373.846153,4422.051282,4534.871794,4211.794871,4482.051282,4151.282051,4447.179487,4211.282051,4232.307692,4517.435897,4194.358974,4647.179487,3982.051283,4057.435897
95,4381.538461,4431.282051,4539.487179,4206.153846,4482.051282,4153.846153,4449.230769,4213.333333,4233.846153,4518.461538,4206.153846,4649.743589,3990.769231,4067.692307
96,4378.974358,4429.230769,4538.461538,4199.487179,4480.000000,4150.769230,4449.230769,4211.282051,4237.435897,4516.410256,4216.923076,4650.256410,3991.282052,4067.179487
97,4376.410256,4421.538461,4534.871794,4196.923076,4480.000000,4150.256410,4449.230769,4208.205128,4238.974358,4523.589743,4211.794871,4648.717948,3986.153847,4058.974358
98,4380.512820,4422.564102,4534.358974,4196.923076,4480.000000,4151.282051,4447.692307,4208.717948,4239.487179,4526.153846,4208.717948,4649.743589,3988.717949,4061.538461
99,4381.025641,4423.589743,4534.871794,4190.256410,4480.512820,4150.769230,4445.641025,4212.820512,4236.923076,4520.512820,4214.358974,4651.794871,3991.794872,4066.153846
100,4378.974358,4423.076923,4537.435897,4186.153846,4483.076923,4156.410256,4450.769230,4220.000000,4241.025641,4526.666666,4218.461538,4652.820512,3994.871795,4062.564102
101,4381.538461,4425.128205,4538.974358,4188.205128,4481.538461,4159.487179,4457.435897,4224.102564,4247.179487,4536.923076,4217.948717,4652.820512,3998.974359,4063.589743
102,4381.538461,4425.128205,4533.846153,4187.179487,4476.410256,4155.897435,4452.820512,4225.128205,4243.589743,4532.820512,4213.846153,4652.307692,3993.846154,4069.743589
103,4375.384615,4423.076923,4531.794871,4182.051282,4477.435897,4154.358974,4447.692307,4221.538461,4238.461538,4525.128205,4208.205128,4649.743589,3986.153847,4065.641025
104,4374.871794,4423.589743,4535.384615,4182.564102,4478.974358,4157.435897,4452.307692,4216.410256,4239.487179,4528.205128,4207.179487,4648.205128,3986.153847,4059.487179
105,4378.461538,4425.641025,4533.333333,4184.615384,4477.435897,4157.435897,4457.435897,4216.410256,4237.948717,4529.743589,4206.153846,4649.230769,3986.153847,4061.025641
106,4376.923076,4426.153846,4533.846153,4179.487179,4478.461538,4155.897435,4454.871794,4220.000000,4235.384615,4522.564102,4207.179487,4650.256410,3983.589744,4061.025641
107,4372.307692,4425.128205,4533.846153,4172.820512,4480.000000,4155.384615,4452.307692,4220.512820,4240.000000,4517.435897,4208.205128,4647.692307,3982.051283,4060.512820
108,4371.282051,4420.000000,4529.230769,4170.256410,4479.487179,4157.948717,4454.358974,4215.384615,4237.435897,4517.435897,4197.435897,4642.564102,3977.948718,4058.461538
109,4372.307692,4416.923076,4526.666666,4174.358974,4480.512820,4161.025641,4455.897435,4214.871794,4226.666666,4513.333333,4191.282051,4640.512820,3975.897436,4053.333333
110,4376.410256,4427.179487,4530.769230,4181.538461,4482.051282,4159.487179,4456.923076,4222.051282,4231.794871,4513.846153,4200.000000,4648.205128,3978.974359,4056.410256
111,4380.000000,4434.358974,4536.923076,4184.102564,4484.102564,4161.025641,4459.487179,4225.641025,4242.564102,4523.589743,4209.743589,4653.846153,3980.000000,4059.487179
112,4377.948717,4425.641025,4535.897435,4180.000000,4486.153846,4163.589743,4455.897435,4221.025641,4240.512820,4529.230769,4209.743589,4651.794871,3982.051283,4054.358974
113,4375.384615,4418.974358,4531.282051,4175.897435,4482.051282,4158.974358,4451.282051,4217.948717,4235.384615,4525.641025,4206.666666,4651.794871,3985.128206,4055.384615
114,4374.871794,4421.025641,4528.717948,4174.358974,4474.871794,4152.820512,4450.769230,4216.410256,4232.820512,4520.000000,4200.512820,4648.205128,3981.025642,4060.000000
115,4372.820512,4420.000000,4526.153846,4173.846153,4476.410256,4155.384615,4451.282051,4213.333333,4228.205128,4516.923076,4190.769230,4641.538461,3975.897436,4057.435897
116,4371.282051,4418.974358,4527.179487,4171.282051,4482.564102,4158.974358,4450.256410,4213.333333,4230.256410,4514.358974,4192.307692,4644.615384,3976.410257,4053.846153
117,4371.282051,4418.974358,4528.717948,4167.692307,4482.051282,4157.435897,4451.282051,4214.358974,4234.871794,4516.410256,4204.615384,4651.282051,3979.487180,4055.384615
118,4370.769230,4418.461538,4528.717948,4171.794871,4481.025641,4157.435897,4453.846153,4217.435897,4235.384615,4525.641025,4210.256410,4649.743589,3987.692308,4055.897435
119,4374.358974,4422.564102,4533.333333,4178.461538,4486.153846,4163.589743,4457.435897,4224.102564,4244.102564,4536.923076,4209.230769,4652.820512,3996.923077,4057.948717
120,4377.948717,4422.051282,4534.871794,4176.923076,4487.692307,4164.615384,4456.410256,4227.179487,4250.256410,4537.948717,4208.717948,4658.461538,3997.948718,4061.538461
121,4374.358974,4411.794871,4528.717948,4168.205128,4482.051282,4158.974358,4452.307692,4219.487179,4243.076923,4532.307692,4209.230769,4653.333333,3994.358975,4056.923076
122,4371.282051,4409.230769,4526.153846,4165.128205,4477.948717,4156.923076,4450.769230,4213.846153,4236.923076,4530.769230,4208.205128,4647.179487,3990.769231,4051.794871
123,4375.897435,4417.435897,4529.230769,4170.769230,4480.000000,4158.974358,4451.282051,4215.897435,4237.435897,4530.769230,4206.666666,4652.307692,3986.153847,4051.794871
124,4375.384615,4411.794871,4531.794871,4171.282051,4482.051282,4158.974358,4452.820512,4217.948717,4237.948717,4529.743589,4204.615384,4657.435897,3984.102565,4053.333333
125,4370.256410,4404.102564,4531.282051,4168.205128,4483.076923,4158.461538,4453.333333,4213.333333,4235.384615,4528.717948,4205.641025,4655.384615,3983.589744,4055.897435
126,4373.333333,4415.897435,4531.282051,4170.256410,4482.564102,4160.000000,4448.717948,4208.717948,4230.256410,4526.153846,4206.666666,4652.820512,3986.153847,4058.974358
127,4373.846153,4426.666666,4529.230769,4171.794871,4480.512820,4159.487179,4444.102564,4208.717948,4226.153846,4518.461538,4197.435897,4649.743589,3983.589744,4054.871794
128,4370.769230,4425.641025,4527.692307,4170.256410,4481.025641,4158.461538,4446.153846,4207.692307,4228.205128,4513.846153,4188.205128,4647.692307,3972.820513,4050.256410
129,4373.333333,4427.179487,4530.256410,4173.333333,4483.589743,4156.410256,4445.128205,4207.179487,4227.692307,4516.410256,4188.205128,4649.743589,3966.153847,4053.333333
130,4377.948717,4426.666666,4532.307692,4174.871794,4483.589743,4156.410256,4443.076923,4206.153846,4224.102564,4517.948717,4190.769230,4650.256410,3970.769231,4055.897435
131,4376.923076,4421.025641,4530.769230,4168.717948,4480.512820,4155.384615,4444.615384,4206.153846,4225.641025,4524.102564,4196.410256,4648.717948,3972.820513,4055.384615
132,4369.230769,4416.923076,4525.128205,4164.615384,4476.410256,4151.282051,4443.076923,4206.666666,4230.256410,4528.205128,4194.358974,4645.128205,3964.615385,4054.358974
133,4366.666666,4417.948717,4528.205128,4166.666666,4478.461538,4153.333333,4445.128205,4212.307692,4234.871794,4523.076923,4186.153846,4646.666666,3964.615385,4054.871794
134,4374.358974,4426.153846,4540.000000,4170.256410,4484.615384,4163.076923,4452.307692,4220.000000,4237.948717,4518.974358,4184.615384,4651.794871,3969.743590,4061.025641
135,4379.487179,4428.205128,4547.179487,4167.179487,4485.641025,4166.153846,4455.384615,4217.435897,4236.923076,4518.974358,4190.256410,4649.743589,3968.205129,4067.692307
136,4373.846153,4416.923076,4546.153846,4162.564102,4482.051282,4158.461538,4449.743589,4212.307692,4233.333333,4519.487179,4189.230769,4645.128205,3963.076924,4061.538461
137,4368.205128,4415.897435,4544.102564,4162.564102,4478.974358,4153.846153,4443.589743,4208.717948,4225.641025,4518.974358,4183.076923,4643.589743,3956.410257,4052.307692
138,4366.666666,4423.589743,4544.615384,4163.076923,4476.410256,4156.410256,4442.051282,4204.102564,4213.846153,4508.717948,4178.974358,4639.487179,3948.205129,4053.846153
139,4359.487179,4413.846153,4541.538461,4156.410256,4470.256410,4152.307692,4440.512820,4201.538461,4206.666666,4500.000000,4177.435897,4632.820512,3945.128206,4054.871794
140,4355.384615,4405.128205,4543.076923,4151.282051,4473.333333,4149.230769,4442.564102,4204.102564,4210.769230,4507.692307,4177.435897,4632.820512,3951.794872,4053.333333
141,4361.538461,4414.871794,4550.769230,4156.410256,4479.487179,4153.333333,4444.615384,4210.256410,4220.512820,4517.948717,4180.000000,4635.384615,3957.435898,4057.948717
142,4366.153846,4421.025641,4552.307692,4158.974358,4474.358974,4153.846153,4442.051282,4212.820512,4226.153846,4516.923076,4180.000000,4635.897435,3954.358975,4060.512820
143,4364.615384,4415.897435,4551.794871,4155.897435,4472.307692,4152.307692,4442.051282,4210.769230,4224.102564,4513.333333,4179.487179,4635.384615,3952.307693,4058.974358
144,4361.538461,4414.871794,4551.794871,4158.461538,4480.512820,4158.461538,4446.153846,4206.666666,4221.538461,4512.307692,4179.487179,4635.897435,3952.820513,4057.948717
145,4362.564102,4417.948717,4551.282051,4162.051282,4482.564102,4161.538461,4448.717948,4210.256410,4223.589743,4512.307692,4181.025641,4639.487179,3954.358975,4059.487179
146,4370.769230,4418.974358,4557.435897,4164.102564,4480.512820,4160.000000,4449.230769,4220.000000,4228.205128,4516.410256,4186.153846,4645.128205,3962.051283,4064.102564
147,4371.794871,4418.461538,4559.487179,4164.102564,4482.051282,4158.461538,4447.692307,4219.487179,4227.692307,4516.410256,4187.692307,4644.615384,3967.692308,4065.128205
148,4360.000000,4416.410256,4549.743589,4154.871794,4481.538461,4154.871794,4442.051282,4211.282051,4222.564102,4509.743589,4184.102564,4637.435897,3957.948718,4051.794871
149,4358.461538,4418.461538,4548.205128,4155.384615,4481.025641,4156.923076,4444.615384,4213.846153,4225.128205,4511.794871,4180.000000,4637.435897,3952.820513,4049.230769
150,4368.717948,4424.102564,4560.000000,4173.333333,4482.051282,4163.076923,4452.820512,4223.589743,4236.410256,4521.025641,4179.487179,4646.153846,3966.153847,4064.102564
151,4370.769230,4423.076923,4562.051282,4173.846153,4480.000000,4160.000000,4449.230769,4223.076923,4235.897435,4522.564102,4184.102564,4644.102564,3969.230770,4065.128205
152,4367.179487,4417.948717,4551.282051,4160.000000,4481.025641,4154.871794,4445.641025,4216.923076,4224.615384,4513.846153,4190.256410,4636.923076,3958.974359,4057.948717
153,4372.820512,4423.589743,4551.794871,4162.564102,4483.589743,4159.487179,4450.769230,4220.512820,4226.666666,4516.410256,4193.846153,4644.102564,3962.564103,4066.153846
154,4376.923076,4431.794871,4560.512820,4170.256410,4482.051282,4160.512820,4450.769230,4224.615384,4234.871794,4525.641025,4191.282051,4653.846153,3970.769231,4071.794871
155,4366.153846,4423.076923,4552.307692,4163.589743,4477.435897,4151.794871,4442.051282,4216.410256,4229.230769,4517.948717,4183.589743,4646.153846,3962.564103,4063.589743
156,4358.974358,4413.846153,4541.538461,4155.897435,4474.358974,4149.743589,4438.461538,4208.717948,4221.538461,4508.717948,4178.974358,4635.384615,3955.384616,4056.410256
157,4362.564102,4420.000000,4545.641025,4157.435897,4474.358974,4152.307692,4440.512820,4211.794871,4226.153846,4515.384615,4179.487179,4637.948717,3964.102565,4057.948717
158,4364.102564,4424.102564,4551.794871,4166.153846,4480.000000,4153.333333,4442.564102,4217.435897,4234.871794,4525.641025,4182.051282,4645.128205,3971.794872,4063.589743
159,4365.641025,4424.615384,4553.333333,4172.307692,4483.589743,4156.923076,4447.179487,4218.974358,4238.461538,4529.743589,4190.256410,4647.179487,3972.307693,4068.205128
160,4371.282051,4430.256410,4554.358974,4169.743589,4480.512820,4160.512820,4447.692307,4217.435897,4237.948717,4528.205128,4197.948717,4644.615384,3974.358975,4064.615384
161,4365.641025,4428.205128,4546.153846,4162.564102,4476.923076,4156.923076,4446.153846,4213.846153,4238.974358,4525.128205,4191.282051,4639.487179,3971.794872,4057.948717
162,4352.820512,4421.025641,4540.000000,4158.974358,4477.948717,4151.282051,4443.076923,4211.794871,4235.897435,4523.076923,4178.974358,4633.333333,3965.128206,4056.410256
163,4353.846153,4422.564102,4544.102564,4162.564102,4481.538461,4150.256410,4442.051282,4212.307692,4229.230769,4520.000000,4178.974358,4631.282051,3961.538462,4056.923076
164,4361.025641,4422.564102,4545.128205,4168.717948,4481.538461,4152.820512,4444.102564,4210.769230,4226.666666,4515.384615,4186.153846,4632.820512,3964.102565,4056.410256
165,4360.000000,4422.051282,4542.564102,4171.282051,4476.923076,4153.846153,4444.102564,4209.230769,4228.717948,4515.384615,4185.128205,4633.333333,3964.615385,4055.384615
166,4356.410256,4421.025641,4541.025641,4169.230769,4473.846153,4149.743589,4443.076923,4207.692307,4227.692307,4517.948717,4177.948717,4633.333333,3959.487180,4051.794871
167,4356.923076,4415.897435,4536.410256,4164.615384,4473.846153,4146.153846,4444.615384,4206.153846,4223.589743,4515.897435,4176.410256,4632.820512,3954.358975,4046.153846
168,4358.974358,4412.820512,4534.358974,4164.615384,4473.333333,4150.769230,4445.641025,4209.230769,4221.538461,4513.333333,4178.461538,4629.743589,3955.897436,4044.615384
169,4361.025641,4416.923076,4541.025641,4171.282051,4476.923076,4156.410256,4444.102564,4216.923076,4228.205128,4512.820512,4181.025641,4632.307692,3962.564103,4048.717948
170,4363.076923,4420.000000,4546.666666,4175.897435,4483.076923,4156.923076,4446.666666,4223.076923,4236.923076,4516.923076,4184.102564,4638.974358,3964.615385,4052.820512
171,4361.538461,4418.974358,4542.564102,4172.307692,4483.589743,4154.871794,4449.743589,4219.487179,4232.820512,4520.512820,4184.102564,4640.000000,3962.051283,4054.871794
172,4361.025641,4416.923076,4539.487179,4172.820512,4476.923076,4152.307692,4446.666666,4212.307692,4222.051282,4515.384615,4180.512820,4637.435897,3963.076924,4054.871794
173,4362.564102,4415.384615,4542.564102,4178.461538,4474.358974,4152.307692,4442.564102,4208.717948,4218.974358,4507.692307,4177.948717,4636.923076,3965.128206,4049.743589
174,4363.076923,4419.487179,4543.589743,4177.435897,4476.923076,4155.897435,4445.128205,4211.282051,4222.564102,4509.230769,4178.974358,4637.435897,3964.615385,4049.230769
175,4366.153846,4422.564102,4541.538461,4174.871794,4480.512820,4155.897435,4446.666666,4215.384615,4225.128205,4515.384615,4183.076923,4639.487179,3964.615385,4056.410256
176,4367.692307,4419.487179,4541.538461,4179.487179,4479.487179,4151.794871,4443.589743,4215.384615,4227.692307,4517.948717,4186.153846,4640.000000,3968.717949,4056.923076
177,4365.641025,4420.000000,4544.102564,4182.051282,4481.025641,4156.410256,4445.128205,4210.256410,4224.615384,4517.948717,4186.153846,4640.000000,3967.692308,4053.333333
178,4369.743589,4425.641025,4544.102564,4180.000000,4483.076923,4162.051282,4449.230769,4209.230769,4222.564102,4515.897435,4186.666666,4640.000000,3962.051283,4055.897435
179,4374.358974,4428.717948,4543.589743,4185.128205,4484.102564,4160.512820,4448.205128,4216.410256,4233.333333,4515.897435,4185.641025,4640.000000,3964.102565,4058.461538
180,4370.769230,4427.179487,4544.615384,4191.794871,4485.641025,4162.051282,4446.153846,4220.000000,4237.948717,4518.974358,4184.102564,4639.487179,3968.717949,4055.384615
181,4367.692307,4420.512820,4545.641025,4187.692307,4482.051282,4159.487179,4445.641025,4212.307692,4225.641025,4514.871794,4181.025641,4638.461538,3964.102565,4051.794871
182,4366.153846,4414.871794,4541.538461,4181.538461,4475.384615,4151.794871,4440.512820,4207.692307,4217.948717,4507.692307,4174.358974,4636.410256,3957.948718,4049.230769
183,4358.461538,4416.923076,4534.871794,4181.025641,4473.846153,4150.256410,4437.435897,4210.769230,4223.589743,4510.769230,4172.820512,4633.846153,3960.000000,4045.641025
184,4357.948717,4417.948717,4537.435897,4186.153846,4475.384615,4151.282051,4441.538461,4208.717948,4224.102564,4513.333333,4181.538461,4635.384615,3962.051283,4041.025641
185,4366.666666,4417.948717,4541.538461,4188.717948,4474.358974,4150.769230,4444.615384,4204.615384,4218.461538,4510.769230,4186.153846,4639.487179,3963.076924,4045.641025
186,4368.717948,4417.435897,4538.974358,4183.589743,4473.846153,4149.230769,4444.102564,4209.230769,4218.974358,4512.307692,4181.025641,4641.025641,3963.589744,4053.333333
187,4361.025641,4407.179487,4534.871794,4177.435897,4471.794871,4146.666666,4444.615384,4214.871794,4221.025641,4515.384615,4178.974358,4636.923076,3958.461539,4050.256410
188,4355.897435,4401.025641,4533.846153,4177.948717,4467.179487,4144.615384,4443.589743,4212.820512,4217.948717,4511.794871,4181.538461,4631.794871,3954.871795,4044.102564
189,4358.974358,4409.230769,4534.358974,4183.589743,4471.282051,4148.717948,4441.538461,4210.769230,4215.897435,4510.769230,4180.512820,4632.820512,3956.410257,4046.153846
190,4363.589743,4414.871794,4535.384615,4186.153846,4477.435897,4152.307692,4445.641025,4215.384615,4224.102564,4514.358974,4180.512820,4635.384615,3957.948718,4048.205128
191,4363.076923,4411.794871,4534.871794,4186.153846,4478.461538,4149.230769,4447.179487,4222.051282,4232.307692,4514.871794,4179.487179,4636.410256,3961.025642,4047.179487
192,4362.564102,4411.794871,4532.307692,4186.153846,4476.923076,4145.641025,4441.025641,4222.564102,4228.717948,4515.897435,4178.461538,4637.435897,3966.153847,4049.743589
193,4364.615384,4412.307692,4533.846153,4188.205128,4473.846153,4148.205128,4439.487179,4216.923076,4225.128205,4518.461538,4185.128205,4638.461538,3968.717949,4051.282051
194,4364.102564,4409.230769,4533.333333,4190.256410,4473.846153,4150.769230,4444.102564,4213.846153,4229.743589,4520.000000,4187.692307,4638.974358,3967.179488,4049.743589
195,4362.051282,4409.743589,4531.794871,4189.230769,4475.897435,4147.692307,4443.589743,4214.871794,4231.794871,4520.000000,4179.487179,4637.948717,3966.666667,4049.743589
196,4363.076923,4414.871794,4531.282051,4185.641025,4473.846153,4145.128205,4441.025641,4211.282051,4224.102564,4514.358974,4175.384615,4633.846153,3969.230770,4044.615384
197,4364.102564,4415.384615,4529.743589,4186.153846,4472.307692,4148.205128,4442.051282,4207.692307,4218.974358,4510.256410,4184.615384,4633.333333,3969.230770,4042.564102
198,4369.230769,4412.820512,4530.256410,4194.871794,4480.000000,4149.743589,4443.076923,4211.282051,4225.641025,4514.358974,4192.820512,4638.974358,3967.692308,4051.282051
199,4370.769230,4415.384615,4535.384615,4197.435897,4484.615384,4150.256410,4445.128205,4216.410256,4231.282051,4520.512820,4190.256410,4643.076923,3970.256411,4056.410256
200,4365.641025,4418.461538,4535.897435,4192.820512,4479.487179,4149.230769,4446.153846,4212.820512,4226.666666,4520.512820,4189.743589,4643.076923,3974.358975,4052.307692
201,4364.615384,4415.384615,4532.307692,4193.846153,4477.435897,4147.179487,4443.076923,4209.743589,4223.589743,4521.538461,4194.358974,4642.564102,3976.923077,4050.769230
202,4368.205128,4415.384615,4538.461538,4200.000000,4478.461538,4153.333333,4441.538461,4216.923076,4232.820512,4525.641025,4194.358974,4642.564102,3978.974359,4054.358974
203,4369.743589,4421.538461,4540.000000,4204.615384,4480.000000,4158.461538,4444.615384,4220.512820,4238.461538,4524.615384,4190.769230,4643.589743,3979.487180,4053.333333
204,4372.307692,4424.102564,4535.897435,4206.153846,4483.589743,4156.410256,4443.589743,4215.384615,4235.384615,4526.666666,4194.871794,4647.179487,3980.000000,4053.846153
205,4378.974358,4427.692307,4540.512820,4209.743589,4484.615384,4157.435897,4444.615384,4214.358974,4234.871794,4526.666666,4197.948717,4649.743589,3982.564103,4058.461538
206,4379.487179,4430.769230,4543.076923,4212.820512,4484.615384,4162.051282,4449.230769,4218.974358,4236.923076,4518.461538,4193.333333,4650.256410,3981.538462,4058.461538
207,4376.410256,4430.769230,4539.487179,4211.794871,4490.769230,4164.615384,4452.820512,4221.538461,4237.948717,4519.487179,4197.948717,4652.820512,3979.487180,4056.923076
208,4380.000000,4431.282051,4542.051282,4210.256410,4495.384615,4164.615384,4457.435897,4223.589743,4237.435897,4529.743589,4207.179487,4655.897435,3986.153847,4060.000000
209,4383.589743,4432.307692,4546.153846,4213.333333,4490.769230,4163.589743,4454.871794,4223.589743,4235.897435,4527.692307,4204.615384,4655.384615,3987.692308,4061.538461
210,4384.102564,4432.820512,4545.128205,4219.487179,4488.205128,4161.538461,4446.666666,4221.025641,4237.435897,4526.153846,4202.564102,4655.897435,3983.076924,4065.641025
211,4385.128205,4430.256410,4547.179487,4223.076923,4490.256410,4164.102564,4450.256410,4222.051282,4236.923076,4534.358974,4208.205128,4658.461538,3986.666667,4070.769230
212,4383.076923,4422.564102,4542.564102,4219.487179,4488.205128,4164.615384,4454.358974,4224.615384,4229.743589,4527.692307,4206.666666,4653.846153,3989.743590,4065.641025
213,4376.410256,4416.923076,4533.846153,4214.358974,4485.641025,4161.538461,4449.230769,4218.974358,4221.538461,4513.846153,4196.410256,4646.153846,3980.512821,4055.384615
214,4374.871794,4419.487179,4532.820512,4214.358974,4485.128205,4160.512820,4448.717948,4213.333333,4226.153846,4521.538461,4191.794871,4646.153846,3975.897436,4055.897435
215,4377.948717,4421.538461,4533.846153,4213.333333,4485.128205,4161.025641,4452.820512,4217.948717,4237.435897,4531.794871,4190.256410,4648.205128,3983.589744,4057.948717
216,4375.384615,4418.461538,4533.333333,4210.769230,4486.666666,4163.076923,4452.820512,4223.076923,4235.384615,4525.128205,4190.769230,4648.205128,3984.102565,4054.871794
217,4371.794871,4420.512820,4530.769230,4211.282051,4486.153846,4162.051282,4451.282051,4217.948717,4224.615384,4513.846153,4197.948717,4646.153846,3977.948718,4050.769230
218,4374.358974,4424.615384,4530.256410,4211.794871,4483.076923,4160.512820,4447.692307,4209.230769,4223.589743,4514.871794,4200.512820,4643.076923,3977.948718,4048.717948
219,4375.384615,4424.615384,4529.743589,4211.794871,4484.615384,4161.025641,4442.051282,4210.769230,4229.743589,4522.564102,4194.871794,4641.538461,3981.025642,4048.717948
220,4370.256410,4423.589743,4528.205128,4216.410256,4489.743589,4161.025641,4444.102564,4220.000000,4233.846153,4524.102564,4190.769230,4640.000000,3984.102565,4047.179487
221,4368.717948,4421.538461,4527.179487,4222.051282,4488.205128,4158.974358,4446.153846,4217.948717,4233.846153,4516.410256,4191.282051,4639.487179,3982.051283,4043.076923
222,4375.897435,4426.153846,4529.743589,4222.051282,4488.717948,4161.025641,4444.102564,4212.307692,4234.871794,4518.974358,4195.384615,4645.641025,3981.538462,4052.307692
223,4386.666666,4435.384615,4535.384615,4222.564102,4493.333333,4166.153846,4450.256410,4223.589743,4243.589743,4533.333333,4207.179487,4655.897435,3993.846154,4068.205128
224,4385.641025,4431.794871,4534.358974,4223.589743,4490.769230,4164.102564,4455.897435,4231.794871,4246.666666,4536.410256,4212.820512,4655.384615,4002.564102,4066.153846
225,4377.948717,4425.128205,4529.743589,4223.589743,4489.230769,4159.487179,4452.307692,4225.641025,4238.974358,4532.307692,4206.666666,4650.769230,3998.461539,4055.897435
226,4377.435897,4426.153846,4531.282051,4224.615384,4490.769230,4162.051282,4451.282051,4223.076923,4243.589743,4533.333333,4206.153846,4651.282051,3995.897436,4056.923076
227,4381.538461,4422.564102,4533.846153,4223.589743,4487.692307,4163.076923,4450.769230,4221.538461,4248.205128,4530.256410,4208.205128,4650.769230,3996.923077,4058.974358
228,4384.102564,4422.051282,4534.358974,4225.128205,4483.589743,4162.051282,4450.769230,4222.564102,4241.025641,4529.743589,4208.205128,4653.333333,3994.871795,4061.025641
229,4386.153846,4431.794871,4536.923076,4230.769230,4486.153846,4162.564102,4456.923076,4229.743589,4240.000000,4534.871794,4210.256410,4659.487179,3994.871795,4064.102564
230,4384.615384,4429.743589,4536.923076,4228.205128,4487.692307,4161.538461,4455.897435,4227.692307,4242.051282,4533.333333,4212.307692,4658.974358,3997.435898,4061.538461
231,4377.948717,4418.461538,4529.743589,4222.051282,4487.179487,4158.461538,4448.717948,4221.025641,4236.923076,4525.641025,4202.564102,4650.769230,3994.358975,4053.846153
232,4377.948717,4419.487179,4528.205128,4227.179487,4487.179487,4161.025641,4451.282051,4225.128205,4237.435897,4527.179487,4197.948717,4648.205128,3989.230770,4051.282051
233,4381.538461,4421.538461,4530.769230,4228.717948,4485.641025,4164.102564,4454.871794,4230.769230,4241.538461,4531.282051,4205.128205,4651.794871,3983.589744,4055.384615
234,4377.435897,4417.435897,4527.692307,4220.512820,4485.128205,4162.051282,4452.820512,4228.717948,4238.974358,4527.692307,4200.512820,4650.769230,3980.512821,4052.820512
235,4372.307692,4417.948717,4525.641025,4220.512820,4483.076923,4160.000000,4453.846153,4224.615384,4235.897435,4520.000000,4188.717948,4645.641025,3978.974359,4043.589743
236,4370.769230,4414.358974,4525.641025,4220.000000,4481.538461,4157.948717,4451.282051,4219.487179,4229.743589,4512.820512,4183.076923,4637.948717,3966.666667,4042.051282
237,4367.179487,4406.666666,4525.641025,4216.410256,4481.538461,4157.435897,4443.076923,4217.948717,4225.128205,4513.333333,4179.487179,4632.820512,3954.358975,4046.666666
238,4366.666666,4411.794871,4531.282051,4218.974358,4480.512820,4160.000000,4443.589743,4220.512820,4232.820512,4523.076923,4184.615384,4635.897435,3966.666667,4049.230769
239,4372.820512,4424.615384,4541.025641,4223.076923,4483.076923,4160.512820,4450.769230,4225.128205,4241.538461,4533.846153,4202.564102,4645.641025,3989.743590,4057.948717
240,4375.897435,4427.692307,4546.153846,4227.179487,4486.666666,4160.512820,4453.846153,4231.282051,4245.128205,4537.435897,4208.717948,4652.307692,3993.846154,4068.205128
241,4373.333333,4418.974358,4546.666666,4227.179487,4483.076923,4160.512820,4448.205128,4227.692307,4241.025641,4531.794871,4197.948717,4646.153846,3982.051283,4064.615384
242,4368.717948,4410.769230,4543.076923,4215.384615,4474.871794,4157.948717,4441.025641,4217.948717,4228.717948,4523.589743,4190.769230,4635.897435,3974.871795,4053.846153
243,4369.230769,4411.794871,4543.076923,4211.794871,4475.897435,4156.923076,4442.564102,4218.974358,4224.615384,4518.974358,4190.769230,4634.871794,3972.307693,4053.333333
244,4375.384615,4416.410256,4547.692307,4222.051282,4482.051282,4157.948717,4443.589743,4218.974358,4230.256410,4516.410256,4190.769230,4640.000000,3973.333334,4062.051282
245,4375.897435,4412.820512,4551.282051,4223.076923,4482.051282,4156.923076,4441.538461,4212.820512,4229.743589,4517.435897,4189.230769,4641.538461,3978.974359,4066.153846
246,4373.846153,4409.230769,4551.794871,4216.923076,4477.435897,4154.871794,4443.589743,4217.948717,4229.230769,4524.615384,4190.256410,4642.564102,3983.076924,4065.128205
247,4376.923076,4415.384615,4552.307692,4221.025641,4476.410256,4156.923076,4448.717948,4228.205128,4236.923076,4533.333333,4197.948717,4646.153846,3984.102565,4065.641025
248,4380.512820,4416.923076,4556.923076,4225.641025,4478.974358,4159.487179,4450.769230,4226.666666,4240.000000,4528.205128,4203.589743,4644.615384,3984.615385,4065.128205
249,4379.487179,4413.846153,4554.358974,4225.641025,4478.974358,4159.487179,4447.692307,4224.102564,4237.435897,4520.512820,4199.487179,4641.025641,3985.128206,4064.102564
250,4379.487179,4416.410256,4551.282051,4226.666666,4479.487179,4161.538461,4444.615384,4226.153846,4237.435897,4527.179487,4198.461538,4644.615384,3991.794872,4065.641025
251,4381.025641,4421.025641,4554.358974,4227.179487,4482.564102,4164.615384,4447.179487,4228.205128,4238.974358,4537.435897,4205.641025,4651.282051,3997.435898,4067.692307
252,4383.589743,4419.487179,4554.871794,4230.256410,4482.564102,4163.589743,4454.358974,4228.205128,4237.948717,4535.897435,4204.615384,4647.692307,3993.846154,4070.256410
253,4383.076923,4416.923076,4549.743589,4229.743589,4480.000000,4160.512820,4454.358974,4224.102564,4237.435897,4528.717948,4197.948717,4639.487179,3987.179488,4069.743589
254,4377.435897,4415.384615,4547.692307,4225.641025,4479.487179,4160.512820,4450.256410,4221.538461,4237.948717,4525.641025,4200.000000,4641.538461,3985.128206,4067.179487
255,4377.948717,4411.282051,4549.230769,4226.153846,4481.538461,4163.589743,4455.384615,4225.128205,4236.923076,4527.692307,4198.461538,4645.641025,3982.564103,4065.128205
256,4382.051282,4408.717948,4546.666666,4226.153846,4480.512820,4162.564102,4456.410256,4224.102564,4234.871794,4526.666666,4189.230769,4640.512820,3980.000000,4064.102564
257,4378.974358,4408.205128,4543.589743,4218.974358,4473.333333,4155.384615,4445.128205,4215.897435,4231.794871,4517.948717,4187.692307,4634.871794,3980.512821,4056.923076
258,4372.820512,4405.641025,4543.076923,4219.487179,4469.230769,4153.333333,4441.025641,4215.897435,4231.794871,4515.384615,4191.282051,4636.410256,3981.025642,4054.358974
259,4373.846153,4406.666666,4542.564102,4220.512820,4470.256410,4153.333333,4448.205128,4224.102564,4232.820512,4523.589743,4193.333333,4636.923076,3981.025642,4057.948717
260,4375.897435,4406.666666,4540.512820,4213.333333,4466.666666,4146.666666,4446.153846,4225.641025,4230.256410,4522.564102,4194.871794,4633.333333,3980.000000,4057.435897
