,AF3,F7,F3,FC5,T7,P7,O1,O2,P8,T8,FC6,F4,F8,AF4
0,4344.102564,4535.384615,4538.974358,4270.256410,4628.717948,4205.641025,4444.102564,4172.820512,4236.923076,4497.948717,4154.358974,4644.102564,3937.435898,4057.948717
1,4333.333333,4528.205128,4532.307692,4261.025641,4625.128205,4203.589743,4439.487179,4173.333333,4232.820512,4501.025641,4149.743589,4640.000000,3929.743590,4047.179487
2,4328.205128,4523.589743,4531.794871,4254.358974,4618.974358,4196.923076,4429.743589,4172.307692,4227.179487,4503.076923,4131.794871,4632.820512,3924.102565,4041.025641
3,4327.179487,4517.435897,4530.256410,4251.282051,4615.897435,4193.846153,4425.641025,4167.692307,4219.487179,4487.179487,4117.435897,4627.179487,3921.538462,4043.076923
4,4325.641025,4513.333333,4527.692307,4247.692307,4613.846153,4195.897435,4427.692307,4165.641025,4213.846153,4482.051282,4126.666666,4629.230769,3922.051283,4041.025641
5,4326.153846,4515.897435,4529.230769,4247.179487,4616.410256,4197.948717,4435.897435,4167.692307,4217.435897,4493.846153,4141.025641,4635.897435,3925.128206,4037.435897
6,4335.897435,4522.051282,4536.410256,4253.846153,4624.102564,4202.564102,4444.615384,4169.230769,4225.641025,4492.307692,4140.000000,4638.461538,3931.794872,4047.692307
7,4345.128205,4528.717948,4541.025641,4260.000000,4626.666666,4205.128205,4444.102564,4169.230769,4229.743589,4488.717948,4136.410256,4635.897435,3933.333334,4055.897435
8,4336.410256,4527.179487,4534.358974,4252.307692,4617.435897,4201.538461,4437.948717,4166.666666,4222.564102,4489.743589,4136.923076,4630.256410,3935.384616,4047.692307
9,4326.153846,4514.358974,4526.153846,4243.076923,4613.333333,4195.897435,4431.794871,4163.589743,4214.871794,4488.205128,4130.256410,4624.615384,3935.384616,4039.487179
10,4326.153846,4511.794871,4526.666666,4244.615384,4617.948717,4195.897435,4432.820512,4167.179487,4216.923076,4488.717948,4124.102564,4625.128205,3922.564103,4036.410256
11,4326.666666,4517.435897,4530.256410,4247.179487,4620.000000,4197.948717,4437.435897,4171.794871,4223.076923,4488.205128,4137.435897,4633.333333,3917.948718,4038.461538
12,4333.333333,4521.025641,4535.897435,4248.717948,4622.564102,4200.000000,4434.358974,4169.230769,4230.256410,4493.333333,4154.358974,4639.487179,3937.435898,4053.333333
13,4346.153846,4522.564102,4542.564102,4249.743589,4628.717948,4200.512820,4429.743589,4173.846153,4233.846153,4505.128205,4153.333333,4642.051282,3954.358975,4065.128205
14,4344.615384,4519.487179,4536.923076,4245.641025,4630.769230,4199.487179,4431.794871,4179.487179,4231.282051,4500.000000,4147.692307,4641.025641,3952.307693,4059.487179
15,4334.871794,4516.410256,4531.282051,4244.102564,4630.769230,4201.538461,4433.846153,4175.384615,4231.794871,4488.205128,4156.923076,4640.512820,3950.256411,4052.307692
16,4337.435897,4516.923076,4538.974358,4246.666666,4630.256410,4202.051282,4434.871794,4178.461538,4235.897435,4499.487179,4166.153846,4643.589743,3953.333334,4056.923076
17,4341.025641,4513.846153,4542.051282,4247.179487,4628.717948,4200.000000,4434.358974,4184.102564,4232.307692,4505.641025,4153.846153,4644.615384,3951.282052,4059.487179
18,4335.384615,4509.230769,4533.846153,4245.641025,4625.641025,4199.487179,4430.769230,4175.897435,4228.717948,4491.794871,4141.025641,4637.948717,3947.692308,4048.205128
19,4330.769230,4511.794871,4529.743589,4243.076923,4622.564102,4198.974358,4426.153846,4165.641025,4225.641025,4488.717948,4146.666666,4631.282051,3937.948718,4039.487179
20,4336.410256,4515.897435,4532.820512,4245.128205,4622.051282,4198.461538,4429.230769,4168.205128,4224.102564,4494.358974,4157.435897,4634.358974,3934.358975,4049.230769
21,4344.615384,4517.948717,4536.923076,4251.794871,4628.205128,4202.051282,4440.512820,4177.435897,4231.282051,4497.948717,4162.564102,4643.076923,3950.256411,4062.564102
22,4345.641025,4520.512820,4544.615384,4253.846153,4631.282051,4206.153846,4446.666666,4182.051282,4240.000000,4504.615384,4165.641025,4649.230769,3964.615385,4062.564102
23,4342.051282,4520.512820,4544.615384,4248.205128,4628.205128,4202.564102,4437.948717,4183.076923,4235.897435,4502.564102,4163.589743,4645.128205,3956.410257,4058.974358
24,4340.000000,4515.384615,4535.384615,4242.564102,4626.153846,4197.948717,4427.692307,4178.461538,4228.205128,4492.820512,4162.564102,4636.410256,3937.948718,4053.846153
25,4341.025641,4511.794871,4531.794871,4244.102564,4625.128205,4199.487179,4428.717948,4175.384615,4230.769230,4491.282051,4165.128205,4638.461538,3939.487180,4050.256410
26,4342.564102,4513.333333,4531.282051,4248.717948,4623.076923,4200.512820,4429.230769,4176.923076,4235.897435,4498.461538,4155.897435,4643.076923,3951.282052,4054.358974
27,4339.487179,4515.384615,4526.666666,4244.102564,4624.102564,4197.948717,4427.179487,4183.076923,4233.333333,4498.461538,4148.717948,4639.487179,3956.923077,4053.846153
28,4340.000000,4514.871794,4525.641025,4240.000000,4627.179487,4198.461538,4430.769230,4185.641025,4231.794871,4494.871794,4154.871794,4637.948717,3957.435898,4050.256410
29,4348.717948,4516.410256,4531.794871,4248.717948,4629.743589,4204.615384,4433.846153,4182.051282,4236.923076,4495.897435,4154.358974,4646.153846,3954.358975,4053.846153
30,4353.846153,4524.615384,4535.384615,4252.820512,4635.384615,4205.641025,4430.256410,4180.512820,4238.461538,4497.435897,4150.256410,4648.717948,3956.923077,4062.051282
31,4346.153846,4527.179487,4530.769230,4250.256410,4636.410256,4201.025641,4428.205128,4182.051282,4233.333333,4495.384615,4157.435897,4643.589743,3963.589744,4062.564102
32,4340.512820,4522.051282,4529.230769,4254.358974,4632.307692,4202.051282,4431.794871,4183.589743,4231.794871,4489.743589,4165.641025,4646.153846,3960.000000,4055.384615
33,4341.025641,4514.871794,4532.820512,4256.923076,4631.794871,4204.102564,4431.794871,4182.564102,4226.153846,4492.820512,4166.666666,4651.794871,3949.230770,4053.333333
34,4341.538461,4512.307692,4533.333333,4249.743589,4630.769230,4200.512820,4429.230769,4180.000000,4222.051282,4497.435897,4165.128205,4650.769230,3952.307693,4056.410256
35,4341.538461,4519.487179,4532.307692,4245.128205,4629.743589,4198.974358,4433.333333,4181.538461,4224.615384,4489.743589,4163.589743,4646.153846,3963.589744,4057.435897
36,4342.051282,4525.128205,4532.820512,4252.307692,4634.871794,4200.512820,4436.410256,4185.128205,4228.717948,4486.666666,4166.153846,4644.102564,3962.051283,4053.846153
37,4340.000000,4518.974358,4531.794871,4258.461538,4637.435897,4200.512820,4431.282051,4182.051282,4229.230769,4496.410256,4168.717948,4645.641025,3953.333334,4050.769230
38,4336.410256,4513.333333,4530.769230,4253.333333,4633.846153,4200.000000,4427.692307,4176.410256,4232.307692,4501.538461,4168.205128,4645.641025,3953.846154,4054.358974
39,4337.948717,4516.410256,4532.307692,4247.179487,4630.256410,4198.974358,4428.717948,4180.000000,4238.974358,4503.589743,4172.820512,4644.615384,3968.205129,4058.974358
40,4341.025641,4521.538461,4532.307692,4246.666666,4629.743589,4198.461538,4434.871794,4188.717948,4241.538461,4506.153846,4181.025641,4647.179487,3975.384616,4061.538461
41,4340.000000,4525.128205,4533.333333,4249.743589,4633.846153,4201.025641,4441.538461,4188.717948,4236.410256,4502.051282,4181.025641,4647.179487,3966.153847,4060.512820
42,4334.358974,4520.512820,4532.307692,4250.769230,4635.897435,4202.564102,4442.051282,4183.589743,4230.769230,4501.538461,4170.256410,4643.589743,3960.000000,4056.410256
43,4332.307692,4512.820512,4531.282051,4249.743589,4633.846153,4203.589743,4442.051282,4185.128205,4233.333333,4510.769230,4162.564102,4646.666666,3974.871795,4059.487179
44,4337.435897,4515.384615,4534.358974,4253.333333,4634.358974,4203.076923,4442.051282,4186.153846,4238.974358,4509.230769,4172.307692,4652.307692,3986.666667,4065.641025
45,4341.025641,4524.102564,4535.897435,4253.846153,4636.410256,4200.512820,4435.384615,4184.102564,4242.051282,4501.025641,4184.615384,4651.794871,3978.461539,4061.538461
46,4342.564102,4525.128205,4534.871794,4251.794871,4635.384615,4201.538461,4432.820512,4192.820512,4247.692307,4511.282051,4182.564102,4654.871794,3972.820513,4054.871794
47,4341.538461,4521.538461,4534.871794,4256.923076,4632.307692,4203.076923,4442.051282,4201.538461,4250.256410,4517.948717,4175.897435,4655.897435,3980.000000,4060.000000
48,4338.461538,4522.564102,4533.846153,4256.923076,4629.230769,4201.538461,4442.564102,4192.820512,4245.641025,4502.564102,4173.333333,4648.205128,3981.538462,4065.128205
49,4337.948717,4523.076923,4530.256410,4253.846153,4629.743589,4202.051282,4433.846153,4184.102564,4235.897435,4494.358974,4170.256410,4642.564102,3973.846154,4061.025641
50,4338.461538,4522.051282,4531.282051,4258.461538,4632.307692,4202.564102,4431.794871,4183.076923,4231.794871,4503.589743,4170.256410,4641.025641,3970.256411,4053.333333
51,4335.897435,4522.051282,4530.256410,4256.410256,4628.205128,4199.487179,4432.307692,4179.487179,4233.333333,4506.666666,4171.282051,4638.974358,3969.743590,4051.282051
52,4335.384615,4522.564102,4526.153846,4253.333333,4625.641025,4198.974358,4430.256410,4176.923076,4233.333333,4501.025641,4170.256410,4638.974358,3969.230770,4056.410256
53,4338.461538,4523.589743,4527.179487,4260.000000,4629.230769,4195.897435,4428.717948,4176.410256,4228.717948,4495.384615,4166.153846,4640.512820,3974.358975,4061.025641
54,4336.923076,4522.564102,4527.179487,4261.538461,4624.102564,4191.794871,4427.179487,4170.256410,4227.692307,4493.846153,4159.487179,4636.923076,3973.333334,4052.820512
55,4334.358974,4520.000000,4524.102564,4258.461538,4614.358974,4191.282051,4425.641025,4165.641025,4224.615384,4496.923076,4157.948717,4634.871794,3969.230770,4046.666666
56,4336.923076,4518.974358,4525.128205,4260.000000,4617.948717,4192.820512,4426.666666,4170.256410,4221.025641,4495.897435,4161.538461,4637.435897,3971.794872,4054.871794
57,4333.846153,4520.000000,4526.666666,4253.333333,4626.666666,4195.384615,4429.230769,4175.384615,4221.538461,4490.769230,4154.871794,4634.358974,3965.128206,4053.846153
58,4322.564102,4514.871794,4518.974358,4242.564102,4625.641025,4197.948717,4434.358974,4173.333333,4221.538461,4493.333333,4148.717948,4629.230769,3949.743590,4043.076923
59,4323.589743,4513.333333,4516.923076,4251.794871,4624.615384,4198.974358,4443.076923,4174.358974,4224.615384,4492.307692,4160.000000,4633.333333,3956.410257,4048.205128
60,4334.358974,4521.025641,4527.179487,4267.692307,4631.282051,4201.538461,4446.666666,4184.615384,4230.256410,4489.743589,4167.692307,4642.564102,3981.025642,4058.974358
61,4332.307692,4524.615384,4530.769230,4264.102564,4634.871794,4206.153846,4444.615384,4191.282051,4234.871794,4493.333333,4163.589743,4646.153846,3980.000000,4055.897435
62,4324.102564,4520.512820,4525.128205,4251.794871,4627.692307,4203.589743,4444.615384,4185.641025,4237.948717,4498.974358,4161.538461,4643.589743,3957.435898,4049.743589
63,4325.641025,4515.384615,4527.179487,4250.256410,4622.051282,4197.948717,4446.153846,4185.128205,4239.487179,4504.615384,4159.487179,4640.000000,3951.794872,4045.641025
64,4323.076923,4509.230769,4529.743589,4251.794871,4628.205128,4200.512820,4444.615384,4186.666666,4234.358974,4499.487179,4158.974358,4640.000000,3964.102565,4041.025641
65,4312.307692,4503.589743,4520.000000,4245.641025,4629.230769,4200.512820,4443.076923,4181.025641,4228.205128,4487.692307,4162.051282,4638.974358,3965.641026,4045.128205
66,4307.692307,4505.641025,4512.307692,4245.128205,4620.512820,4190.769230,4441.025641,4178.461538,4231.282051,4493.846153,4164.615384,4631.794871,3955.384616,4047.692307
67,4317.435897,4511.282051,4518.461538,4253.846153,4618.974358,4189.230769,4438.461538,4185.641025,4236.410256,4508.717948,4170.256410,4630.256410,3959.487180,4044.615384
68,4327.692307,4511.794871,4524.102564,4255.384615,4626.153846,4198.974358,4441.025641,4186.666666,4237.948717,4505.128205,4170.256410,4636.923076,3968.205129,4047.692307
69,4321.538461,4509.230769,4518.461538,4252.307692,4627.179487,4203.076923,4441.025641,4176.923076,4234.358974,4496.923076,4155.897435,4636.410256,3967.179488,4051.282051
70,4315.897435,4514.358974,4514.871794,4256.923076,4620.512820,4196.410256,4434.358974,4171.794871,4230.256410,4496.923076,4150.769230,4633.333333,3964.102565,4044.615384
71,4323.589743,4522.051282,4518.974358,4263.076923,4615.897435,4188.205128,4428.205128,4172.307692,4230.769230,4496.410256,4167.179487,4634.358974,3964.615385,4042.564102
72,4329.743589,4525.641025,4526.153846,4263.589743,4620.000000,4193.846153,4430.769230,4175.897435,4232.307692,4501.025641,4173.846153,4635.384615,3968.205129,4053.846153
73,4327.179487,4521.538461,4528.205128,4263.589743,4624.102564,4201.538461,4435.897435,4182.051282,4231.282051,4506.153846,4156.923076,4636.410256,3972.307693,4054.871794
74,4319.487179,4513.846153,4518.461538,4255.897435,4616.410256,4192.307692,4430.256410,4177.435897,4224.615384,4497.948717,4141.025641,4628.717948,3964.615385,4041.538461
75,4308.717948,4512.307692,4510.769230,4248.717948,4609.743589,4187.179487,4429.743589,4166.666666,4214.358974,4484.615384,4141.025641,4615.897435,3951.794872,4034.358974
76,4309.743589,4514.871794,4513.846153,4253.846153,4613.333333,4198.461538,4441.025641,4167.179487,4215.384615,4482.051282,4153.333333,4620.512820,3952.820513,4037.948717
77,4322.051282,4511.282051,4520.000000,4257.948717,4615.384615,4200.000000,4443.076923,4172.820512,4225.128205,4490.769230,4166.153846,4635.384615,3959.487180,4045.641025
78,4327.692307,4514.358974,4524.102564,4260.000000,4613.846153,4195.384615,4438.461538,4174.871794,4232.307692,4504.615384,4167.179487,4638.974358,3961.025642,4053.846153
79,4327.179487,4526.153846,4530.256410,4265.128205,4616.923076,4201.538461,4437.948717,4176.923076,4235.384615,4511.282051,4158.461538,4635.897435,3969.743590,4061.025641
80,4328.717948,4526.153846,4531.282051,4267.179487,4620.512820,4201.538461,4436.410256,4173.333333,4234.358974,4506.666666,4152.820512,4636.410256,3973.846154,4057.948717
81,4327.179487,4520.512820,4522.051282,4265.641025,4619.487179,4197.435897,4431.794871,4170.256410,4228.717948,4503.076923,4154.871794,4638.461538,3962.564103,4054.358974
82,4321.538461,4522.564102,4518.974358,4267.692307,4617.435897,4200.000000,4431.794871,4172.307692,4226.153846,4495.384615,4157.948717,4635.384615,3956.923077,4053.333333
83,4318.461538,4520.512820,4524.615384,4269.743589,4615.897435,4198.974358,4429.743589,4170.769230,4225.128205,4488.717948,4156.923076,4630.256410,3963.589744,4047.179487
84,4323.589743,4519.487179,4528.205128,4270.769230,4616.923076,4198.461538,4427.179487,4169.743589,4225.641025,4490.769230,4154.871794,4628.717948,3963.589744,4049.230769
85,4324.615384,4527.179487,4528.205128,4268.205128,4617.435897,4199.487179,4429.230769,4171.282051,4228.717948,4494.358974,4155.384615,4627.692307,3962.051283,4058.461538
86,4318.461538,4528.205128,4524.615384,4263.076923,4615.384615,4198.974358,4427.179487,4166.153846,4229.743589,4490.769230,4156.923076,4624.615384,3964.102565,4056.923076
87,4319.487179,4525.641025,4520.000000,4268.205128,4613.333333,4198.461538,4425.128205,4160.000000,4229.743589,4489.743589,4161.025641,4625.641025,3962.051283,4051.794871
88,4324.615384,4531.794871,4524.102564,4277.948717,4614.871794,4200.512820,4431.282051,4166.666666,4233.333333,4499.487179,4160.000000,4629.743589,3963.589744,4057.435897
89,4323.076923,4534.358974,4530.769230,4274.871794,4617.435897,4202.051282,4436.410256,4171.794871,4229.230769,4501.025641,4149.743589,4631.794871,3966.153847,4058.461538
90,4320.000000,4524.102564,4526.153846,4261.538461,4614.358974,4200.000000,4431.282051,4158.461538,4219.487179,4490.256410,4145.128205,4631.282051,3956.923077,4049.743589
91,4320.000000,4517.435897,4524.615384,4261.025641,4611.282051,4197.435897,4425.128205,4148.205128,4223.076923,4490.256410,4161.025641,4632.307692,3956.410257,4052.820512
92,4324.102564,4527.179487,4529.230769,4277.435897,4616.923076,4199.487179,4428.717948,4159.487179,4233.333333,4498.974358,4177.435897,4635.897435,3971.282052,4062.051282
93,4327.692307,4534.358974,4530.769230,4282.564102,4623.589743,4202.564102,4433.846153,4170.769230,4232.307692,4500.512820,4168.717948,4637.948717,3975.384616,4061.025641
94,4325.128205,4529.743589,4532.307692,4272.820512,4622.051282,4202.564102,4429.743589,4170.769230,4232.820512,4504.102564,4157.435897,4636.410256,3968.717949,4059.487179
95,4323.589743,4524.102564,4532.307692,4266.666666,4617.435897,4201.538461,4427.692307,4177.435897,4240.512820,4508.717948,4164.615384,4636.923076,3971.282052,4064.102564
96,4325.641025,4520.512820,4530.256410,4264.102564,4615.897435,4200.000000,4436.410256,4183.076923,4240.000000,4504.615384,4170.769230,4636.923076,3972.820513,4065.128205
97,4323.589743,4522.051282,4527.179487,4263.076923,4617.435897,4201.025641,4439.487179,4177.948717,4234.358974,4504.615384,4164.615384,4634.358974,3963.589744,4058.461538
98,4328.205128,4535.384615,4526.153846,4270.769230,4621.538461,4205.641025,4431.282051,4177.435897,4234.871794,4510.256410,4161.538461,4634.871794,3962.564103,4056.923076
99,4336.410256,4544.615384,4528.205128,4274.358974,4622.051282,4206.666666,4426.666666,4180.000000,4235.897435,4509.230769,4162.051282,4634.871794,3973.333334,4064.102564
100,4331.282051,4535.897435,4526.666666,4266.666666,4619.487179,4201.538461,4428.717948,4174.358974,4231.794871,4500.000000,4155.897435,4628.205128,3968.717949,4063.589743
101,4329.230769,4536.410256,4524.615384,4262.564102,4616.923076,4196.410256,4428.717948,4170.256410,4229.230769,4490.769230,4151.282051,4624.615384,3949.743590,4055.897435
102,4335.384615,4541.538461,4526.666666,4261.538461,4617.948717,4198.461538,4425.641025,4174.871794,4228.205128,4487.692307,4146.153846,4628.717948,3943.076924,4057.948717
103,4329.743589,4527.179487,4527.692307,4255.897435,4615.897435,4201.538461,4422.564102,4169.230769,4218.974358,4482.564102,4137.435897,4624.615384,3940.000000,4057.435897
104,4315.897435,4516.410256,4520.000000,4249.230769,4606.666666,4191.794871,4417.948717,4154.358974,4206.153846,4470.769230,4132.307692,4615.384615,3925.641026,4043.076923
105,4315.897435,4522.051282,4516.923076,4249.230769,4604.102564,4186.153846,4418.974358,4154.871794,4206.666666,4469.230769,4127.179487,4615.897435,3923.076924,4035.384615
106,4321.538461,4523.076923,4525.128205,4252.307692,4611.282051,4194.358974,4423.589743,4166.666666,4211.794871,4474.871794,4119.487179,4619.487179,3925.128206,4036.923076
107,4321.025641,4518.974358,4530.769230,4251.794871,4615.897435,4198.461538,4426.153846,4171.282051,4210.256410,4473.333333,4115.897435,4621.025641,3917.435898,4038.974358
108,4319.487179,4521.025641,4529.230769,4252.820512,4614.871794,4197.435897,4426.666666,4168.717948,4212.307692,4477.948717,4119.487179,4625.641025,3916.923077,4042.564102
109,4325.641025,4522.051282,4530.769230,4254.871794,4616.410256,4200.000000,4426.666666,4167.692307,4217.435897,4488.205128,4136.410256,4630.256410,3925.641026,4044.615384
110,4334.358974,4524.102564,4533.333333,4256.923076,4616.923076,4201.538461,4426.153846,4169.230769,4220.512820,4491.282051,4157.948717,4629.743589,3931.282052,4049.230769
111,4335.897435,4529.743589,4531.282051,4254.871794,4613.846153,4200.000000,4427.179487,4172.820512,4225.128205,4493.846153,4157.948717,4633.333333,3939.487180,4058.461538
112,4331.794871,4529.743589,4527.692307,4253.846153,4615.384615,4196.410256,4426.153846,4173.846153,4226.666666,4495.897435,4142.051282,4636.410256,3943.076924,4055.384615
113,4327.692307,4528.205128,4524.615384,4250.256410,4614.871794,4194.871794,4420.512820,4168.717948,4219.487179,4484.102564,4141.025641,4629.230769,3928.717949,4045.641025
114,4325.641025,4524.615384,4518.974358,4246.153846,4611.282051,4193.846153,4419.487179,4163.076923,4212.820512,4470.769230,4150.256410,4625.641025,3919.487180,4046.666666
115,4328.717948,4524.615384,4517.948717,4252.307692,4613.846153,4194.358974,4426.153846,4163.589743,4215.384615,4479.487179,4150.769230,4631.794871,3931.794872,4051.282051
116,4333.333333,4529.743589,4523.589743,4258.461538,4616.410256,4197.948717,4428.205128,4168.717948,4220.512820,4494.358974,4149.743589,4635.897435,3942.051283,4054.358974
117,4336.410256,4530.769230,4526.153846,4260.000000,4609.230769,4195.384615,4425.641025,4172.820512,4223.589743,4487.692307,4152.307692,4634.871794,3938.461539,4055.384615
118,4338.461538,4530.769230,4524.615384,4262.564102,4604.615384,4191.794871,4426.666666,4171.282051,4225.128205,4477.435897,4151.794871,4634.871794,3936.923077,4050.769230
119,4340.000000,4530.769230,4527.179487,4260.512820,4607.179487,4194.871794,4427.692307,4169.230769,4225.641025,4484.102564,4150.769230,4634.871794,3940.000000,4051.794871
120,4342.564102,4530.769230,4528.717948,4258.974358,4605.641025,4197.435897,4427.692307,4170.256410,4223.589743,4496.923076,4154.871794,4634.358974,3941.025642,4063.589743
121,4347.692307,4534.358974,4528.717948,4262.564102,4606.666666,4196.923076,4428.717948,4173.333333,4224.102564,4502.051282,4161.025641,4638.461538,3947.179488,4070.769230
122,4350.256410,4538.461538,4532.307692,4265.641025,4615.897435,4200.000000,4428.205128,4179.487179,4230.769230,4497.948717,4163.076923,4645.641025,3953.333334,4067.692307
123,4352.820512,4533.846153,4538.974358,4265.641025,4618.974358,4204.615384,4427.179487,4186.153846,4235.384615,4499.487179,4164.102564,4647.179487,3953.846154,4067.179487
124,4354.358974,4532.820512,4537.948717,4265.641025,4615.897435,4206.153846,4432.307692,4185.641025,4234.871794,4504.615384,4164.615384,4647.179487,3953.333334,4066.666666
125,4355.897435,4542.564102,4533.846153,4270.769230,4616.410256,4207.179487,4438.974358,4182.051282,4234.871794,4499.487179,4171.794871,4651.794871,3952.820513,4068.717948
126,4357.435897,4543.076923,4538.974358,4276.410256,4618.974358,4204.615384,4438.461538,4187.692307,4235.384615,4492.820512,4181.538461,4655.384615,3950.769231,4072.820512
127,4352.307692,4536.923076,4540.512820,4273.333333,4616.923076,4203.589743,4433.333333,4195.384615,4235.384615,4502.051282,4176.923076,4652.820512,3955.384616,4071.794871
128,4343.589743,4534.358974,4531.282051,4267.179487,4611.794871,4202.564102,4430.256410,4190.769230,4233.846153,4512.307692,4169.743589,4651.794871,3961.025642,4070.769230
129,4346.153846,4536.923076,4529.743589,4269.230769,4612.307692,4198.974358,4428.717948,4182.051282,4229.230769,4501.538461,4178.461538,4655.384615,3961.025642,4075.897435
130,4352.820512,4541.025641,4534.871794,4268.205128,4617.435897,4198.461538,4428.717948,4184.102564,4229.743589,4492.307692,4181.538461,4656.923076,3959.487180,4075.384615
131,4350.769230,4538.974358,4533.846153,4265.641025,4616.410256,4206.666666,4432.307692,4187.179487,4237.435897,4501.025641,4174.871794,4654.358974,3958.974359,4069.743589
132,4352.820512,4536.923076,4536.410256,4274.871794,4614.358974,4211.282051,4438.461538,4185.128205,4237.435897,4509.743589,4184.102564,4660.512820,3965.128206,4074.871794
133,4363.589743,4546.153846,4547.179487,4285.128205,4620.000000,4206.666666,4443.589743,4192.820512,4236.923076,4511.282051,4188.717948,4667.179487,3973.846154,4084.615384
134,4366.666666,4551.794871,4548.717948,4285.128205,4624.102564,4204.615384,4443.589743,4200.512820,4244.102564,4510.256410,4175.897435,4662.564102,3973.846154,4084.102564
135,4363.076923,4545.128205,4542.051282,4277.948717,4620.000000,4207.179487,4434.871794,4193.333333,4243.076923,4507.692307,4178.461538,4655.384615,3967.692308,4077.435897
136,4359.487179,4544.615384,4541.025641,4274.871794,4618.461538,4202.564102,4428.205128,4183.589743,4234.358974,4503.589743,4193.846153,4654.358974,3962.564103,4075.384615
137,4356.923076,4548.717948,4543.076923,4274.871794,4615.897435,4196.923076,4430.769230,4183.589743,4233.333333,4503.589743,4185.641025,4653.333333,3957.948718,4078.461538
138,4352.820512,4539.487179,4538.974358,4272.307692,4609.743589,4197.948717,4432.820512,4184.615384,4232.820512,4496.923076,4164.615384,4648.205128,3957.435898,4077.435897
139,4350.769230,4531.794871,4531.282051,4268.205128,4607.692307,4197.435897,4428.205128,4183.076923,4225.641025,4485.641025,4157.948717,4640.000000,3957.435898,4069.230769
140,4353.846153,4537.435897,4529.743589,4266.666666,4607.179487,4197.948717,4431.794871,4183.076923,4227.179487,4485.641025,4163.589743,4638.974358,3943.589744,4066.153846
141,4356.923076,4540.512820,4534.871794,4271.282051,4610.256410,4202.564102,4442.564102,4191.282051,4238.461538,4495.897435,4175.384615,4648.205128,3941.025642,4073.333333
142,4357.948717,4537.948717,4537.435897,4274.358974,4612.820512,4203.589743,4441.025641,4198.974358,4241.538461,4502.564102,4180.000000,4653.333333,3959.487180,4076.923076
143,4357.948717,4540.000000,4536.410256,4270.769230,4607.179487,4201.025641,4429.743589,4194.358974,4236.410256,4502.051282,4167.692307,4649.743589,3967.179488,4071.282051
144,4355.897435,4538.461538,4537.435897,4270.769230,4603.076923,4198.461538,4427.692307,4190.256410,4232.820512,4498.974358,4164.102564,4647.179487,3954.871795,4067.179487
145,4356.923076,4537.435897,4544.102564,4274.871794,4608.717948,4201.538461,4436.923076,4193.846153,4234.358974,4498.461538,4180.000000,4649.230769,3950.769231,4074.871794
146,4364.102564,4539.487179,4547.179487,4274.871794,4613.333333,4203.076923,4437.435897,4197.435897,4240.000000,4497.948717,4190.769230,4651.282051,3957.435898,4082.564102
147,4364.615384,4540.512820,4542.564102,4274.358974,4610.256410,4201.538461,4430.256410,4195.897435,4242.564102,4501.538461,4184.615384,4652.307692,3957.948718,4079.487179
148,4357.948717,4539.487179,4539.487179,4275.897435,4611.794871,4202.051282,4427.692307,4195.897435,4240.512820,4508.205128,4176.410256,4650.769230,3956.923077,4073.846153
149,4357.948717,4537.948717,4542.564102,4274.871794,4615.384615,4202.051282,4428.717948,4197.435897,4238.974358,4508.717948,4173.333333,4647.179487,3946.666667,4070.256410
150,4363.589743,4537.948717,4543.076923,4273.333333,4612.820512,4202.051282,4430.256410,4195.897435,4240.000000,4503.076923,4178.974358,4646.666666,3935.897436,4070.256410
151,4360.512820,4540.000000,4536.410256,4272.307692,4608.205128,4203.589743,4432.307692,4190.256410,4234.871794,4499.487179,4184.615384,4646.666666,3946.153847,4073.333333
152,4350.256410,4538.461538,4530.769230,4270.256410,4607.692307,4202.564102,4429.743589,4183.589743,4229.743589,4500.512820,4175.384615,4642.051282,3956.410257,4069.743589
153,4346.153846,4533.333333,4530.256410,4268.717948,4607.179487,4197.435897,4424.615384,4183.589743,4234.358974,4508.717948,4170.256410,4635.384615,3942.564103,4063.589743
154,4349.743589,4535.897435,4526.153846,4267.179487,4600.000000,4197.948717,4426.666666,4183.076923,4233.846153,4505.641025,4175.384615,4632.820512,3929.230770,4061.538461
155,4348.205128,4535.897435,4524.615384,4268.205128,4599.487179,4198.461538,4428.205128,4177.435897,4225.641025,4490.256410,4176.410256,4634.871794,3936.923077,4061.025641
156,4342.051282,4528.717948,4527.692307,4266.153846,4603.589743,4193.333333,4421.538461,4173.846153,4224.615384,4485.128205,4171.282051,4634.358974,3948.205129,4060.512820
157,4347.179487,4533.333333,4527.179487,4262.564102,4601.025641,4194.358974,4419.487179,4178.461538,4229.743589,4496.410256,4169.230769,4635.897435,3949.743590,4065.128205
158,4357.948717,4543.589743,4528.717948,4272.307692,4599.487179,4200.512820,4426.153846,4186.153846,4233.333333,4502.564102,4179.487179,4643.589743,3945.128206,4072.307692
159,4360.000000,4542.564102,4533.846153,4283.076923,4601.538461,4200.000000,4429.743589,4188.717948,4234.871794,4494.358974,4186.153846,4648.205128,3942.051283,4072.307692
160,4357.948717,4539.487179,4534.871794,4277.435897,4601.025641,4196.410256,4425.641025,4184.102564,4232.307692,4486.153846,4177.435897,4647.692307,3947.692308,4067.179487
161,4353.846153,4539.487179,4531.794871,4268.205128,4600.000000,4198.461538,4424.102564,4176.923076,4226.153846,4493.846153,4173.846153,4645.128205,3952.307693,4064.615384
162,4349.230769,4534.358974,4529.230769,4261.025641,4600.000000,4198.974358,4425.128205,4176.410256,4224.615384,4503.076923,4180.512820,4638.461538,3945.128206,4064.102564
163,4351.794871,4533.333333,4528.205128,4262.564102,4595.384615,4197.435897,4426.153846,4183.589743,4232.820512,4495.897435,4177.948717,4637.435897,3936.410257,4066.153846
164,4360.512820,4542.564102,4532.820512,4276.923076,4595.897435,4199.487179,4428.717948,4188.205128,4237.948717,4491.794871,4173.333333,4646.666666,3942.051283,4072.820512
165,4362.051282,4538.461538,4537.435897,4282.051282,4600.512820,4201.025641,4431.794871,4188.717948,4234.358974,4500.000000,4183.076923,4654.358974,3953.333334,4073.846153
166,4356.923076,4527.179487,4534.871794,4270.769230,4596.410256,4198.461538,4432.307692,4192.307692,4232.307692,4499.487179,4192.820512,4652.820512,3953.846154,4070.769230
167,4360.000000,4533.846153,4535.384615,4267.179487,4590.769230,4197.948717,4429.743589,4195.384615,4236.410256,4494.871794,4186.666666,4651.282051,3944.615385,4070.256410
168,4365.641025,4546.153846,4536.410256,4271.794871,4593.333333,4200.512820,4428.205128,4192.307692,4236.923076,4495.897435,4180.000000,4647.692307,3941.025642,4070.769230
169,4363.076923,4542.564102,4534.871794,4273.846153,4596.923076,4200.512820,4427.179487,4190.256410,4233.333333,4492.820512,4180.000000,4642.564102,3945.641026,4068.717948
170,4362.051282,4535.897435,4541.025641,4277.948717,4595.384615,4198.974358,4427.692307,4196.410256,4230.769230,4488.717948,4183.076923,4644.615384,3957.948718,4072.820512
171,4368.717948,4538.461538,4547.692307,4280.512820,4596.923076,4199.487179,4428.717948,4202.564102,4231.282051,4494.358974,4191.794871,4647.692307,3963.589744,4077.435897
172,4370.769230,4547.692307,4544.615384,4282.051282,4600.512820,4202.051282,4429.743589,4200.512820,4240.512820,4500.512820,4196.923076,4646.153846,3947.179488,4074.358974
173,4365.128205,4552.307692,4540.000000,4284.102564,4603.589743,4204.615384,4432.307692,4195.897435,4241.538461,4499.487179,4186.666666,4645.641025,3937.948718,4070.769230
174,4357.948717,4543.589743,4534.871794,4280.000000,4603.076923,4202.564102,4430.769230,4188.205128,4225.128205,4491.794871,4173.846153,4642.051282,3944.615385,4066.666666
175,4354.871794,4533.846153,4528.205128,4272.820512,4597.435897,4197.948717,4427.179487,4180.000000,4217.948717,4487.179487,4174.871794,4634.871794,3942.051283,4060.512820
176,4358.974358,4539.487179,4530.769230,4277.435897,4600.000000,4198.461538,4426.666666,4185.641025,4230.769230,4492.307692,4180.512820,4636.923076,3937.948718,4061.025641
177,4361.538461,4543.076923,4532.820512,4281.025641,4601.025641,4200.512820,4429.743589,4194.358974,4237.948717,4494.358974,4183.076923,4642.051282,3944.102565,4062.051282
178,4357.435897,4537.948717,4526.666666,4271.282051,4591.282051,4196.923076,4427.692307,4190.769230,4230.769230,4488.717948,4183.589743,4637.948717,3942.564103,4060.000000
179,4355.897435,4536.410256,4524.615384,4264.615384,4589.743589,4194.358974,4425.641025,4184.102564,4227.179487,4490.256410,4178.461538,4633.333333,3938.461539,4063.076923
180,4356.923076,4539.487179,4528.717948,4271.794871,4601.538461,4197.948717,4427.179487,4183.589743,4231.282051,4498.974358,4178.974358,4635.897435,3950.769231,4066.666666
181,4357.948717,4540.512820,4531.794871,4278.461538,4605.128205,4201.538461,4428.205128,4185.128205,4232.820512,4498.461538,4188.205128,4640.000000,3957.435898,4062.051282
182,4357.435897,4540.512820,4534.871794,4275.897435,4600.512820,4201.025641,4428.205128,4185.641025,4227.692307,4490.256410,4185.128205,4640.512820,3944.615385,4061.025641
183,4356.923076,4540.000000,4536.923076,4277.948717,4597.435897,4200.000000,4428.205128,4187.179487,4224.615384,4489.230769,4170.256410,4636.410256,3933.846154,4065.641025
184,4358.461538,4537.435897,4533.846153,4282.564102,4593.333333,4198.974358,4428.205128,4187.179487,4231.282051,4494.871794,4165.128205,4634.871794,3942.051283,4064.102564
185,4356.923076,4536.923076,4534.358974,4277.948717,4594.871794,4198.461538,4428.717948,4186.153846,4234.358974,4492.307692,4169.743589,4637.435897,3953.333334,4055.897435
186,4354.871794,4542.051282,4537.435897,4274.871794,4593.846153,4201.025641,4428.717948,4185.641025,4225.641025,4485.641025,4170.256410,4636.923076,3946.153847,4056.923076
187,4361.025641,4543.589743,4536.410256,4280.512820,4588.717948,4201.025641,4428.205128,4185.128205,4223.589743,4495.384615,4177.948717,4636.410256,3940.512821,4068.205128
188,4363.589743,4537.948717,4534.871794,4278.461538,4591.282051,4197.435897,4426.666666,4184.615384,4233.846153,4505.128205,4181.025641,4638.974358,3949.743590,4069.230769
189,4353.333333,4535.897435,4529.743589,4269.230769,4594.358974,4198.461538,4426.153846,4187.692307,4236.923076,4500.512820,4164.615384,4635.897435,3951.282052,4058.461538
190,4348.717948,4540.000000,4527.692307,4268.205128,4587.179487,4202.051282,4426.666666,4195.897435,4232.307692,4495.897435,4165.128205,4632.307692,3941.025642,4054.358974
191,4352.820512,4534.358974,4530.769230,4267.692307,4584.102564,4195.384615,4427.692307,4196.923076,4228.205128,4490.769230,4177.435897,4635.384615,3934.871795,4061.538461
192,4351.282051,4524.615384,4530.769230,4264.615384,4588.205128,4190.769230,4425.641025,4193.333333,4228.717948,4481.538461,4168.205128,4637.435897,3933.333334,4059.487179
193,4349.743589,4526.153846,4528.717948,4270.256410,4586.153846,4195.897435,4424.102564,4194.358974,4229.230769,4485.128205,4160.000000,4636.923076,3932.307693,4051.282051
194,4352.307692,4533.333333,4530.769230,4273.846153,4583.076923,4195.897435,4425.641025,4191.282051,4224.102564,4494.358974,4168.205128,4636.410256,3940.512821,4053.333333
195,4356.410256,4539.487179,4531.794871,4266.666666,4586.153846,4197.435897,4427.179487,4183.589743,4220.512820,4489.230769,4169.743589,4636.410256,3954.358975,4065.128205
196,4358.974358,4537.948717,4526.153846,4260.512820,4589.743589,4202.051282,4426.666666,4181.538461,4228.205128,4487.692307,4168.205128,4635.384615,3955.897436,4068.717948
197,4353.846153,4534.358974,4517.435897,4264.102564,4587.179487,4194.871794,4422.051282,4191.282051,4233.846153,4496.923076,4172.820512,4630.769230,3947.179488,4057.948717
198,4350.256410,4531.282051,4515.384615,4262.051282,4581.538461,4186.153846,4414.871794,4196.410256,4233.846153,4490.769230,4166.153846,4625.641025,3938.461539,4052.820512
199,4356.410256,4526.666666,4522.564102,4256.410256,4582.051282,4187.179487,4411.282051,4191.282051,4235.897435,4486.666666,4158.461538,4626.666666,3935.897436,4057.948717
200,4360.000000,4530.256410,4527.692307,4256.923076,4585.641025,4186.666666,4411.282051,4186.153846,4233.846153,4500.000000,4164.615384,4629.230769,3941.025642,4060.512820
201,4354.871794,4535.384615,4524.102564,4255.384615,4584.615384,4184.615384,4412.820512,4181.538461,4226.153846,4498.461538,4161.025641,4623.589743,3945.128206,4056.923076
202,4352.820512,4530.256410,4523.076923,4249.743589,4582.564102,4186.153846,4411.794871,4169.743589,4220.512820,4477.435897,4145.641025,4618.461538,3936.923077,4046.666666
203,4348.205128,4520.512820,4525.128205,4245.641025,4585.128205,4185.641025,4410.256410,4161.025641,4213.333333,4469.230769,4140.512820,4619.487179,3922.564103,4042.051282
204,4341.538461,4519.487179,4524.102564,4247.692307,4587.179487,4186.153846,4420.000000,4174.871794,4215.384615,4476.410256,4147.179487,4618.974358,3922.051283,4049.743589
205,4347.692307,4524.615384,4523.589743,4249.230769,4591.794871,4194.358974,4425.641025,4188.717948,4232.307692,4484.102564,4149.230769,4618.461538,3932.820513,4057.435897
206,4356.923076,4531.282051,4525.641025,4246.666666,4597.435897,4198.461538,4419.487179,4188.205128,4242.051282,4491.282051,4152.307692,4624.102564,3942.051283,4054.358974
207,4358.974358,4531.282051,4528.205128,4246.666666,4593.846153,4191.794871,4416.923076,4187.692307,4240.512820,4496.923076,4156.410256,4629.743589,3947.692308,4056.923076
208,4358.974358,4523.076923,4527.692307,4249.230769,4586.153846,4184.615384,4417.435897,4189.230769,4236.410256,4497.435897,4150.769230,4628.205128,3944.102565,4061.538461
209,4360.512820,4521.025641,4523.589743,4248.717948,4585.641025,4184.615384,4411.794871,4181.538461,4227.692307,4495.384615,4149.230769,4626.666666,3936.410257,4057.435897
210,4357.435897,4521.538461,4522.564102,4244.102564,4586.153846,4186.666666,4409.743589,4175.384615,4217.948717,4492.820512,4154.358974,4629.230769,3935.897436,4053.846153
211,4355.897435,4520.000000,4526.666666,4244.615384,4585.128205,4185.128205,4416.410256,4178.974358,4214.871794,4486.666666,4155.897435,4632.307692,3940.512821,4054.358974
212,4358.974358,4529.230769,4528.205128,4250.256410,4586.153846,4187.179487,4420.000000,4181.025641,4217.435897,4476.410256,4149.743589,4633.846153,3943.076924,4057.435897
213,4357.948717,4536.410256,4523.589743,4251.794871,4586.153846,4192.307692,4416.923076,4181.025641,4224.102564,4479.487179,4143.589743,4631.282051,3936.923077,4061.538461
214,4356.923076,4527.179487,4523.076923,4247.692307,4586.153846,4190.256410,4412.820512,4183.589743,4225.128205,4489.230769,4145.641025,4627.692307,3931.794872,4061.025641
215,4363.589743,4528.205128,4528.717948,4250.256410,4588.205128,4186.666666,4416.923076,4186.153846,4223.589743,4482.051282,4155.384615,4632.820512,3941.025642,4063.076923
216,4370.769230,4537.948717,4534.871794,4260.000000,4589.230769,4190.256410,4426.666666,4183.076923,4226.666666,4477.948717,4165.128205,4641.538461,3949.230770,4066.153846
217,4370.256410,4532.307692,4533.846153,4260.000000,4587.179487,4191.282051,4427.179487,4175.384615,4224.615384,4492.820512,4164.102564,4642.051282,3945.128206,4063.589743
218,4366.666666,4528.205128,4529.230769,4253.333333,4587.179487,4186.666666,4425.641025,4174.871794,4220.000000,4497.435897,4158.461538,4643.076923,3943.589744,4064.615384
219,4362.564102,4533.846153,4528.205128,4252.307692,4584.102564,4185.641025,4427.692307,4185.128205,4229.743589,4489.743589,4152.307692,4647.179487,3949.230770,4067.179487
220,4358.461538,4528.205128,4527.179487,4250.769230,4577.948717,4186.153846,4424.102564,4190.256410,4239.487179,4490.256410,4157.948717,4642.051282,3945.641026,4060.000000
221,4358.974358,4519.487179,4526.666666,4244.615384,4576.923076,4182.051282,4417.435897,4182.051282,4229.230769,4491.282051,4167.179487,4636.410256,3936.923077,4057.435897
222,4360.512820,4521.538461,4526.153846,4246.153846,4581.538461,4182.051282,4416.923076,4173.333333,4220.000000,4483.589743,4162.564102,4643.076923,3940.512821,4063.589743
223,4363.589743,4528.205128,4525.128205,4255.897435,4585.641025,4186.666666,4420.000000,4167.179487,4217.948717,4475.897435,4154.871794,4649.230769,3951.282052,4066.153846
224,4366.666666,4534.871794,4528.717948,4258.974358,4586.666666,4187.179487,4423.076923,4164.615384,4214.358974,4474.358974,4164.102564,4648.205128,3955.897436,4071.282051
225,4367.179487,4538.974358,4534.358974,4261.538461,4587.179487,4188.205128,4428.205128,4171.282051,4221.025641,4482.051282,4180.000000,4650.256410,3956.410257,4079.487179
226,4368.205128,4541.025641,4535.897435,4269.743589,4587.692307,4194.358974,4430.769230,4182.564102,4231.794871,4492.307692,4176.923076,4656.923076,3956.923077,4078.461538
227,4367.179487,4538.461538,4536.923076,4273.846153,4588.205128,4195.384615,4430.769230,4189.230769,4235.897435,4496.923076,4166.666666,4659.487179,3958.461539,4074.871794
228,4360.512820,4530.256410,4536.410256,4266.666666,4587.692307,4188.205128,4428.717948,4185.128205,4232.820512,4495.384615,4166.666666,4653.333333,3956.410257,4071.794871
229,4356.410256,4529.230769,4526.666666,4256.410256,4581.025641,4180.512820,4420.512820,4174.871794,4224.615384,4489.230769,4170.256410,4644.102564,3951.794872,4066.153846
230,4357.948717,4530.256410,4517.435897,4252.307692,4575.384615,4180.000000,4418.461538,4171.282051,4217.948717,4478.461538,4169.230769,4640.512820,3946.666667,4066.153846
231,4354.358974,4522.564102,4518.974358,4250.256410,4578.974358,4182.564102,4425.641025,4171.282051,4216.410256,4470.769230,4162.564102,4638.974358,3942.564103,4066.153846
232,4349.743589,4517.948717,4517.948717,4248.717948,4578.461538,4183.076923,4424.102564,4168.205128,4212.820512,4471.282051,4148.205128,4635.897435,3934.871795,4058.974358
233,4353.333333,4522.051282,4518.461538,4250.256410,4570.769230,4181.025641,4412.307692,4172.820512,4210.769230,4475.384615,4143.589743,4635.384615,3932.307693,4053.846153
234,4355.384615,4524.102564,4525.641025,4251.794871,4574.871794,4182.564102,4410.256410,4178.974358,4221.025641,4483.589743,4159.487179,4638.974358,3948.205129,4060.512820
235,4355.384615,4522.051282,4530.769230,4252.820512,4586.153846,4187.692307,4420.000000,4178.974358,4231.282051,4492.307692,4167.692307,4641.538461,3964.102565,4070.769230
236,4361.025641,4525.128205,4528.205128,4257.435897,4587.692307,4188.205128,4422.051282,4179.487179,4232.820512,4494.871794,4160.512820,4641.025641,3960.512821,4068.717948
237,4366.666666,4528.717948,4524.615384,4261.538461,4586.153846,4187.179487,4417.948717,4177.435897,4232.820512,4488.717948,4156.923076,4639.487179,3952.820513,4060.512820
238,4364.102564,4529.743589,4520.000000,4261.025641,4585.641025,4184.615384,4415.384615,4168.717948,4224.615384,4481.538461,4160.000000,4636.410256,3957.435898,4064.102564
239,4362.051282,4527.179487,4515.384615,4256.923076,4582.564102,4183.076923,4414.358974,4166.666666,4211.794871,4480.512820,4164.615384,4636.410256,3964.102565,4070.769230
240,4365.641025,4524.615384,4516.923076,4254.358974,4584.102564,4186.153846,4412.820512,4171.794871,4216.410256,4488.205128,4161.025641,4635.384615,3962.564103,4066.666666
241,4369.743589,4530.769230,4520.000000,4256.923076,4586.666666,4188.205128,4412.820512,4175.897435,4231.282051,4498.461538,4158.461538,4633.846153,3960.000000,4065.641025
242,4373.333333,4538.974358,4520.000000,4264.102564,4585.128205,4186.666666,4413.333333,4180.000000,4232.820512,4496.923076,4167.179487,4638.461538,3962.051283,4071.794871
243,4370.256410,4538.974358,4517.948717,4266.666666,4588.205128,4186.153846,4414.358974,4184.102564,4231.794871,4491.794871,4163.589743,4645.128205,3962.564103,4072.820512
244,4369.230769,4534.871794,4518.974358,4264.615384,4595.384615,4188.717948,4418.461538,4185.128205,4234.358974,4491.282051,4153.846153,4645.128205,3957.948718,4071.282051
245,4369.230769,4529.743589,4518.974358,4257.435897,4594.871794,4189.230769,4415.897435,4177.435897,4223.076923,4485.128205,4165.641025,4640.000000,3952.307693,4066.153846
246,4364.102564,4526.666666,4514.871794,4254.358974,4588.717948,4184.615384,4410.769230,4167.179487,4215.384615,4475.897435,4175.384615,4638.974358,3956.923077,4058.461538
247,4361.538461,4527.692307,4517.948717,4260.512820,4584.615384,4180.000000,4415.384615,4170.769230,4224.615384,4482.564102,4168.205128,4643.589743,3969.230770,4065.128205
248,4366.666666,4531.794871,4528.205128,4265.641025,4586.666666,4184.615384,4424.615384,4180.512820,4233.846153,4498.974358,4171.282051,4649.230769,3970.256411,4075.384615
249,4372.307692,4535.897435,4530.769230,4267.692307,4591.794871,4192.820512,4427.692307,4185.128205,4241.538461,4505.641025,4181.025641,4652.820512,3965.641026,4075.384615
250,4367.179487,4534.871794,4523.076923,4265.641025,4591.282051,4191.794871,4424.102564,4186.666666,4244.615384,4506.666666,4176.923076,4650.256410,3971.794872,4074.358974
251,4358.974358,4530.769230,4518.461538,4258.461538,4587.179487,4186.666666,4419.487179,4184.615384,4240.512820,4508.717948,4173.333333,4644.615384,3978.461539,4072.307692
252,4357.435897,4529.743589,4520.512820,4255.897435,4585.641025,4185.641025,4420.512820,4182.051282,4241.538461,4505.128205,4177.948717,4643.589743,3974.358975,4066.666666
253,4362.051282,4530.256410,4523.589743,4261.538461,4586.666666,4188.717948,4425.128205,4186.666666,4251.282051,4501.538461,4182.564102,4651.282051,3973.846154,4070.769230
254,4363.589743,4531.794871,4526.666666,4263.076923,4585.128205,4189.743589,4425.641025,4191.794871,4251.282051,4505.641025,4183.589743,4653.846153,3976.410257,4078.461538
255,4359.487179,4534.358974,4526.153846,4260.512820,4583.589743,4187.179487,4424.615384,4187.692307,4242.051282,4505.641025,4174.871794,4646.666666,3968.717949,4071.282051
256,4355.897435,4529.230769,4522.051282,4257.435897,4583.589743,4185.641025,4427.692307,4181.538461,4233.333333,4492.307692,4159.487179,4643.076923,3956.923077,4060.000000
257,4354.871794,4521.025641,4517.948717,4250.769230,4583.076923,4185.641025,4427.692307,4180.000000,4228.717948,4485.641025,4154.358974,4640.512820,3954.871795,4062.051282
258,4355.897435,4522.051282,4517.948717,4248.717948,4583.076923,4187.179487,4425.128205,4175.384615,4232.820512,4492.820512,4158.461538,4636.410256,3957.435898,4067.179487
259,4355.384615,4528.205128,4521.538461,4254.871794,4582.051282,4185.641025,4426.666666,4170.256410,4232.307692,4492.820512,4152.820512,4634.871794,3951.282052,4060.000000
