,AF3,F7,F3,FC5,T7,P7,O1,O2,P8,T8,FC6,F4,F8,AF4
0,4407.179487,4537.948717,4538.461538,4269.743589,4506.153846,4188.205128,4429.743589,4195.384615,4175.384615,4458.461538,4204.102564,4602.051282,3973.333334,4051.282051
1,4405.641025,4534.358974,4529.743589,4266.153846,4505.641025,4182.051282,4428.717948,4196.923076,4178.974358,4453.333333,4208.717948,4600.000000,3969.230770,4052.307692
2,4396.410256,4526.153846,4521.538461,4256.923076,4500.512820,4177.948717,4428.717948,4196.410256,4175.897435,4448.717948,4204.102564,4589.230769,3964.615385,4044.615384
3,4391.282051,4519.487179,4523.589743,4251.794871,4498.461538,4179.487179,4429.743589,4197.435897,4173.846153,4451.282051,4197.948717,4583.076923,3965.128206,4037.948717
4,4394.358974,4520.000000,4524.102564,4252.820512,4503.589743,4183.589743,4430.769230,4201.025641,4182.051282,4454.871794,4201.025641,4586.153846,3967.692308,4038.974358
5,4400.512820,4525.128205,4520.000000,4253.333333,4504.102564,4182.564102,4430.256410,4201.025641,4184.615384,4451.282051,4208.205128,4590.769230,3971.282052,4044.102564
6,4403.076923,4531.282051,4524.102564,4257.948717,4504.102564,4181.538461,4429.743589,4196.923076,4180.512820,4450.769230,4210.769230,4592.307692,3975.897436,4047.179487
7,4404.102564,4533.846153,4530.769230,4266.666666,4508.205128,4185.641025,4430.256410,4191.794871,4179.487179,4453.846153,4208.205128,4592.307692,3972.820513,4047.692307
8,4396.410256,4526.153846,4522.564102,4262.051282,4506.153846,4184.102564,4426.666666,4184.102564,4170.256410,4443.589743,4199.487179,4586.153846,3959.487180,4040.000000
9,4391.794871,4521.025641,4519.487179,4256.923076,4502.564102,4180.512820,4426.153846,4180.512820,4162.564102,4436.410256,4197.948717,4581.025641,3955.897436,4032.820512
10,4404.102564,4533.333333,4534.358974,4266.153846,4511.282051,4185.641025,4432.307692,4190.256410,4175.897435,4449.743589,4208.205128,4589.743589,3965.128206,4045.128205
11,4413.846153,4543.076923,4542.051282,4273.846153,4518.461538,4189.743589,4433.333333,4198.461538,4183.589743,4456.410256,4211.282051,4600.512820,3968.717949,4056.410256
12,4409.230769,4534.358974,4535.384615,4270.769230,4511.282051,4186.666666,4427.692307,4193.846153,4176.410256,4452.820512,4206.153846,4599.487179,3970.769231,4051.282051
13,4405.128205,4526.153846,4534.871794,4263.076923,4508.205128,4185.128205,4432.820512,4191.282051,4176.923076,4453.846153,4209.230769,4595.384615,3972.820513,4048.717948
14,4404.615384,4528.205128,4538.974358,4260.512820,4511.282051,4186.153846,4440.000000,4195.897435,4179.487179,4445.641025,4213.333333,4595.897435,3964.615385,4052.820512
15,4404.102564,4529.743589,4534.358974,4262.051282,4509.230769,4186.153846,4436.923076,4198.974358,4174.871794,4436.923076,4208.717948,4595.897435,3959.487180,4050.256410
16,4406.666666,4523.076923,4533.333333,4263.076923,4506.666666,4183.589743,4429.230769,4198.461538,4173.846153,4440.512820,4209.230769,4599.487179,3967.179488,4047.179487
17,4406.153846,4518.974358,4534.358974,4259.487179,4504.615384,4174.358974,4425.128205,4192.820512,4171.794871,4441.025641,4218.461538,4602.051282,3970.256411,4051.282051
18,4400.000000,4525.128205,4528.717948,4257.435897,4503.589743,4172.820512,4426.153846,4185.641025,4164.102564,4434.871794,4215.897435,4592.820512,3960.000000,4048.717948
19,4396.410256,4530.769230,4521.538461,4257.435897,4503.076923,4177.435897,4423.076923,4180.000000,4158.461538,4434.358974,4201.538461,4584.615384,3955.384616,4040.000000
20,4394.871794,4526.666666,4519.487179,4256.923076,4501.538461,4175.384615,4415.897435,4178.461538,4156.923076,4435.384615,4200.000000,4585.128205,3961.025642,4037.435897
21,4392.820512,4520.000000,4520.512820,4255.384615,4500.512820,4171.794871,4414.358974,4180.000000,4155.897435,4432.820512,4210.769230,4585.641025,3961.538462,4041.538461
22,4392.307692,4519.487179,4521.538461,4253.846153,4501.025641,4170.256410,4419.487179,4182.564102,4159.487179,4433.846153,4210.256410,4585.641025,3956.410257,4042.564102
23,4393.333333,4521.538461,4521.538461,4256.410256,4503.076923,4172.820512,4425.128205,4190.256410,4166.153846,4439.487179,4206.666666,4587.692307,3960.000000,4041.538461
24,4394.871794,4516.923076,4515.897435,4256.923076,4503.589743,4177.435897,4425.641025,4197.435897,4169.230769,4443.589743,4212.820512,4588.205128,3967.692308,4045.128205
25,4393.846153,4509.230769,4509.230769,4250.769230,4497.948717,4174.871794,4423.589743,4192.820512,4164.615384,4437.948717,4209.743589,4584.615384,3965.641026,4044.102564
26,4391.282051,4514.358974,4508.205128,4248.717948,4495.897435,4168.205128,4423.076923,4184.615384,4157.948717,4432.307692,4203.076923,4582.051282,3960.000000,4040.512820
27,4393.846153,4523.589743,4511.282051,4254.871794,4504.102564,4169.743589,4423.076923,4183.076923,4155.384615,4429.743589,4211.794871,4583.589743,3957.948718,4041.025641
28,4396.410256,4518.974358,4510.769230,4260.512820,4508.205128,4169.743589,4415.897435,4178.461538,4151.794871,4423.589743,4211.282051,4581.025641,3952.820513,4038.974358
29,4394.358974,4513.846153,4507.179487,4258.461538,4497.948717,4164.102564,4410.256410,4172.820512,4145.641025,4418.461538,4196.923076,4572.820512,3951.282052,4034.358974
30,4391.282051,4522.051282,4508.717948,4254.358974,4495.897435,4167.692307,4416.923076,4174.358974,4147.692307,4421.025641,4197.948717,4568.717948,3955.384616,4035.897435
31,4393.333333,4526.666666,4511.282051,4253.333333,4505.641025,4173.846153,4421.538461,4172.820512,4150.256410,4423.076923,4206.666666,4570.256410,3955.897436,4039.487179
32,4391.794871,4516.410256,4507.179487,4254.871794,4503.076923,4166.666666,4413.846153,4167.692307,4145.641025,4416.410256,4201.025641,4569.743589,3947.179488,4032.820512
33,4385.128205,4509.743589,4502.051282,4248.717948,4492.820512,4156.923076,4407.179487,4168.717948,4142.051282,4412.307692,4192.820512,4568.717948,3942.051283,4023.076923
34,4388.717948,4514.358974,4506.666666,4242.051282,4493.333333,4161.025641,4410.256410,4176.923076,4147.692307,4420.512820,4193.333333,4571.282051,3952.820513,4027.179487
35,4397.435897,4515.897435,4512.307692,4248.717948,4497.435897,4169.743589,4416.923076,4184.615384,4156.410256,4428.205128,4203.076923,4572.820512,3962.564103,4038.461538
36,4396.923076,4513.846153,4508.717948,4253.846153,4500.000000,4168.205128,4422.051282,4186.153846,4158.461538,4423.589743,4208.205128,4577.435897,3956.410257,4041.025641
37,4391.794871,4515.384615,4506.666666,4249.230769,4503.076923,4164.615384,4424.615384,4182.051282,4156.410256,4422.051282,4203.076923,4581.538461,3947.692308,4035.384615
38,4394.871794,4517.435897,4515.384615,4249.230769,4502.051282,4171.794871,4428.205128,4183.589743,4160.512820,4437.435897,4205.128205,4582.051282,3956.923077,4035.897435
39,4404.615384,4527.179487,4522.051282,4254.871794,4507.179487,4183.589743,4436.923076,4190.769230,4171.794871,4449.230769,4213.846153,4587.692307,3972.820513,4043.589743
40,4405.128205,4537.435897,4521.538461,4255.897435,4522.051282,4187.179487,4444.102564,4194.358974,4176.410256,4450.769230,4210.769230,4593.333333,3975.897436,4048.717948
41,4398.461538,4532.820512,4519.487179,4248.205128,4524.102564,4184.615384,4441.025641,4192.307692,4171.794871,4454.358974,4203.589743,4589.743589,3970.769231,4044.102564
42,4400.000000,4527.179487,4521.025641,4245.128205,4517.948717,4187.179487,4438.461538,4193.333333,4172.820512,4466.153846,4207.179487,4589.230769,3969.743590,4042.564102
43,4410.769230,4534.871794,4528.205128,4253.333333,4525.641025,4196.410256,4445.641025,4206.666666,4182.051282,4477.948717,4218.461538,4603.589743,3980.000000,4055.897435
44,4417.435897,4542.564102,4535.897435,4262.051282,4534.358974,4201.025641,4453.333333,4215.897435,4186.666666,4486.153846,4218.461538,4618.461538,3988.717949,4068.205128
45,4420.000000,4543.589743,4543.589743,4263.589743,4528.205128,4198.974358,4456.410256,4209.230769,4189.230769,4490.769230,4210.256410,4626.666666,3989.230770,4071.282051
46,4422.564102,4546.666666,4547.179487,4261.538461,4524.615384,4200.000000,4456.410256,4208.205128,4187.179487,4491.794871,4208.717948,4631.794871,3990.256411,4074.871794
47,4421.538461,4548.717948,4545.128205,4262.564102,4534.871794,4202.051282,4453.333333,4212.820512,4182.564102,4494.871794,4213.333333,4633.846153,3996.923077,4076.923076
48,4417.435897,4547.692307,4538.974358,4265.128205,4536.923076,4194.358974,4445.128205,4207.692307,4185.128205,4498.974358,4210.769230,4633.333333,3997.948718,4073.846153
49,4412.307692,4550.256410,4537.948717,4262.051282,4527.692307,4189.743589,4439.487179,4200.512820,4184.102564,4497.948717,4205.128205,4632.307692,3989.230770,4069.230769
50,4409.230769,4552.307692,4540.000000,4261.025641,4525.641025,4197.435897,4443.076923,4205.641025,4182.564102,4501.538461,4203.589743,4631.794871,3987.692308,4071.282051
51,4410.769230,4545.128205,4540.000000,4265.128205,4532.820512,4203.076923,4445.641025,4212.820512,4192.820512,4511.794871,4209.743589,4635.384615,3998.974359,4077.948717
52,4410.769230,4542.564102,4540.512820,4262.051282,4532.307692,4197.435897,4448.205128,4214.358974,4198.974358,4513.846153,4214.871794,4637.948717,4004.102564,4079.487179
53,4407.179487,4548.717948,4536.410256,4253.333333,4527.179487,4200.000000,4456.410256,4217.948717,4197.948717,4509.230769,4211.282051,4634.871794,4001.538461,4074.871794
54,4404.615384,4546.153846,4537.435897,4256.923076,4531.794871,4213.846153,4462.564102,4225.641025,4206.666666,4513.846153,4208.205128,4632.307692,4000.512820,4071.282051
55,4401.538461,4534.358974,4538.461538,4258.461538,4534.358974,4212.820512,4462.051282,4227.179487,4211.794871,4520.512820,4205.641025,4630.256410,3993.846154,4066.666666
56,4394.358974,4526.666666,4526.666666,4243.589743,4526.666666,4201.538461,4458.974358,4224.615384,4200.000000,4511.794871,4193.333333,4622.564102,3984.102565,4057.435897
57,4390.256410,4525.128205,4521.025641,4239.487179,4524.102564,4205.641025,4462.051282,4226.153846,4193.333333,4501.538461,4187.692307,4618.974358,3984.615385,4054.358974
58,4391.794871,4528.717948,4531.282051,4248.205128,4530.256410,4212.307692,4466.153846,4228.205128,4202.051282,4507.179487,4198.974358,4629.230769,3994.358975,4063.589743
59,4390.769230,4532.820512,4531.794871,4247.692307,4526.153846,4204.615384,4463.076923,4224.102564,4205.641025,4510.769230,4204.102564,4633.333333,3994.871795,4066.153846
60,4385.641025,4529.230769,4521.538461,4242.051282,4517.948717,4198.461538,4457.435897,4222.051282,4197.435897,4507.692307,4195.384615,4620.512820,3982.051283,4056.410256
61,4387.692307,4529.230769,4521.538461,4246.666666,4520.000000,4203.076923,4458.974358,4219.487179,4194.871794,4506.666666,4189.743589,4616.410256,3982.051283,4055.897435
62,4393.846153,4534.358974,4526.666666,4249.230769,4523.589743,4203.076923,4461.538461,4213.846153,4197.435897,4505.641025,4192.820512,4628.717948,3993.333334,4064.615384
63,4393.333333,4532.820512,4527.179487,4247.179487,4519.487179,4195.384615,4454.358974,4214.871794,4193.333333,4507.179487,4200.000000,4634.871794,3991.282052,4065.128205
64,4393.333333,4531.282051,4528.205128,4249.743589,4513.846153,4195.384615,4451.282051,4216.923076,4191.794871,4507.692307,4202.051282,4631.794871,3985.641026,4065.128205
65,4397.948717,4535.897435,4527.692307,4251.282051,4512.307692,4196.923076,4454.871794,4216.410256,4198.461538,4505.641025,4201.538461,4631.282051,3996.410257,4069.743589
66,4393.333333,4530.256410,4525.641025,4248.717948,4510.769230,4192.820512,4455.384615,4218.461538,4200.000000,4507.179487,4203.589743,4633.333333,4003.076923,4067.692307
67,4385.128205,4515.897435,4523.589743,4245.128205,4505.641025,4191.794871,4450.769230,4217.435897,4198.461538,4507.692307,4200.000000,4634.358974,3991.794872,4062.564102
68,4384.615384,4518.461538,4521.538461,4241.538461,4505.641025,4192.307692,4447.692307,4208.717948,4192.307692,4497.948717,4190.769230,4632.307692,3981.538462,4061.538461
69,4384.102564,4530.256410,4518.974358,4242.051282,4508.717948,4187.692307,4444.102564,4200.000000,4178.461538,4489.230769,4190.256410,4627.179487,3977.948718,4058.974358
70,4382.564102,4533.333333,4515.897435,4244.615384,4508.205128,4184.615384,4441.538461,4198.461538,4176.923076,4490.256410,4195.897435,4625.128205,3980.512821,4057.435897
71,4387.692307,4537.435897,4517.948717,4251.282051,4508.205128,4189.230769,4443.076923,4202.051282,4187.692307,4491.794871,4198.974358,4628.717948,3990.769231,4063.589743
72,4393.846153,4541.025641,4525.128205,4260.000000,4510.256410,4190.769230,4443.589743,4203.076923,4186.153846,4499.487179,4204.615384,4636.923076,3994.358975,4068.205128
73,4395.384615,4534.871794,4526.153846,4261.025641,4509.743589,4189.230769,4442.051282,4202.564102,4182.051282,4505.641025,4209.230769,4641.025641,3988.717949,4068.205128
74,4393.846153,4531.282051,4524.615384,4253.846153,4507.692307,4187.179487,4443.589743,4204.615384,4188.205128,4497.948717,4207.179487,4637.948717,3986.666667,4067.692307
75,4388.717948,4533.333333,4524.615384,4249.743589,4503.589743,4184.615384,4441.538461,4200.000000,4186.666666,4485.641025,4201.538461,4631.794871,3983.076924,4062.051282
76,4381.538461,4526.666666,4521.025641,4250.256410,4498.461538,4185.128205,4437.948717,4194.871794,4174.358974,4482.051282,4194.358974,4625.641025,3976.923077,4052.820512
77,4376.923076,4522.051282,4518.461538,4246.153846,4501.025641,4183.589743,4437.948717,4197.435897,4173.333333,4485.641025,4189.743589,4617.948717,3972.820513,4049.743589
78,4377.948717,4527.692307,4522.051282,4245.128205,4501.538461,4183.076923,4437.948717,4194.358974,4178.974358,4488.205128,4190.769230,4615.897435,3969.743590,4051.282051
79,4385.641025,4531.794871,4522.564102,4250.256410,4498.974358,4185.128205,4436.923076,4190.769230,4177.948717,4485.641025,4196.923076,4622.564102,3970.769231,4054.358974
80,4385.641025,4527.179487,4515.897435,4247.179487,4499.487179,4182.564102,4434.358974,4194.358974,4172.820512,4475.384615,4197.948717,4623.589743,3970.256411,4052.820512
81,4376.923076,4521.025641,4510.256410,4238.974358,4494.871794,4182.051282,4429.743589,4192.307692,4169.230769,4466.666666,4190.256410,4617.435897,3967.179488,4050.256410
82,4374.871794,4520.512820,4509.743589,4241.025641,4495.897435,4186.666666,4433.846153,4190.769230,4172.820512,4472.307692,4188.717948,4617.948717,3968.717949,4051.794871
83,4379.487179,4521.025641,4512.307692,4245.641025,4502.564102,4185.641025,4439.487179,4197.948717,4176.923076,4481.538461,4197.948717,4623.076923,3970.769231,4050.769230
84,4382.564102,4525.641025,4516.410256,4246.153846,4499.487179,4178.974358,4435.897435,4200.000000,4175.897435,4484.102564,4200.000000,4625.128205,3968.205129,4051.794871
85,4387.692307,4531.282051,4521.025641,4252.820512,4494.871794,4184.102564,4436.410256,4198.974358,4179.487179,4487.179487,4197.435897,4628.717948,3973.333334,4061.538461
86,4393.846153,4530.769230,4524.615384,4256.923076,4500.000000,4189.743589,4441.538461,4201.025641,4185.641025,4489.743589,4202.564102,4634.871794,3984.102565,4067.179487
87,4389.230769,4527.179487,4522.051282,4252.307692,4502.051282,4185.128205,4435.897435,4196.410256,4179.487179,4485.641025,4206.153846,4631.282051,3976.923077,4057.435897
88,4382.051282,4528.717948,4521.025641,4249.230769,4497.435897,4178.461538,4428.717948,4194.871794,4174.871794,4483.589743,4203.589743,4628.717948,3967.692308,4053.846153
89,4389.230769,4529.743589,4527.692307,4252.307692,4498.461538,4181.025641,4433.846153,4203.076923,4185.641025,4486.666666,4208.717948,4640.512820,3978.461539,4064.102564
90,4396.923076,4523.589743,4531.282051,4254.871794,4502.051282,4186.153846,4440.512820,4205.641025,4189.230769,4485.641025,4216.410256,4650.256410,3987.692308,4071.794871
91,4392.820512,4520.000000,4525.641025,4252.307692,4499.487179,4179.487179,4438.461538,4196.923076,4175.897435,4480.512820,4213.333333,4646.153846,3980.512821,4071.794871
92,4388.717948,4522.564102,4523.076923,4253.846153,4493.846153,4173.846153,4429.743589,4190.769230,4170.769230,4475.897435,4208.205128,4639.487179,3970.256411,4066.153846
93,4391.282051,4524.615384,4525.128205,4258.461538,4493.333333,4177.435897,4426.153846,4191.794871,4178.461538,4476.410256,4208.205128,4640.512820,3967.692308,4067.179487
94,4393.846153,4528.205128,4525.128205,4258.461538,4496.923076,4178.974358,4428.717948,4192.307692,4180.000000,4481.538461,4211.794871,4643.589743,3974.871795,4073.846153
95,4393.333333,4532.307692,4524.102564,4256.410256,4494.358974,4174.871794,4426.153846,4190.256410,4176.923076,4482.564102,4217.948717,4646.153846,3984.102565,4074.871794
96,4392.820512,4532.307692,4523.076923,4257.948717,4492.307692,4171.794871,4425.641025,4188.205128,4176.923076,4478.974358,4222.051282,4645.128205,3981.538462,4070.769230
97,4394.358974,4530.256410,4523.076923,4258.461538,4495.897435,4174.358974,4429.230769,4188.205128,4179.487179,4479.487179,4217.435897,4642.564102,3974.358975,4070.769230
98,4393.333333,4531.282051,4523.589743,4258.461538,4495.384615,4177.435897,4429.743589,4190.769230,4178.461538,4480.000000,4210.256410,4640.512820,3980.512821,4071.282051
99,4389.230769,4531.794871,4521.025641,4257.435897,4494.358974,4175.897435,4428.717948,4193.333333,4176.410256,4480.000000,4214.871794,4636.923076,3986.153847,4069.743589
100,4384.102564,4524.615384,4518.974358,4255.384615,4494.871794,4169.743589,4426.666666,4187.179487,4176.923076,4478.974358,4222.564102,4631.794871,3977.948718,4068.205128
101,4383.076923,4518.461538,4520.512820,4255.897435,4490.256410,4168.205128,4423.589743,4182.564102,4176.410256,4473.333333,4218.461538,4631.282051,3963.589744,4064.615384
102,4389.743589,4526.153846,4522.051282,4261.538461,4489.230769,4176.410256,4430.256410,4191.794871,4178.461538,4469.743589,4220.000000,4641.538461,3966.153847,4069.230769
103,4397.435897,4535.897435,4528.205128,4264.615384,4498.461538,4183.076923,4441.538461,4200.512820,4185.128205,4475.897435,4228.205128,4650.256410,3985.128206,4078.461538
104,4398.461538,4538.461538,4535.384615,4267.692307,4505.641025,4184.615384,4441.025641,4202.051282,4190.769230,4482.564102,4224.102564,4646.666666,3988.205129,4078.974358
105,4401.538461,4543.076923,4536.923076,4274.871794,4505.641025,4184.615384,4438.461538,4201.025641,4186.666666,4476.923076,4223.076923,4646.666666,3978.461539,4077.948717
106,4409.230769,4548.205128,4538.974358,4279.487179,4502.051282,4183.589743,4440.000000,4197.435897,4179.487179,4471.282051,4235.897435,4655.897435,3977.435898,4083.076923
107,4406.666666,4545.128205,4539.487179,4274.358974,4496.410256,4177.435897,4433.333333,4190.769230,4180.000000,4477.948717,4232.820512,4654.871794,3983.076924,4084.102564
108,4399.487179,4540.000000,4531.794871,4266.153846,4496.923076,4174.358974,4426.666666,4189.230769,4180.512820,4480.000000,4220.000000,4646.153846,3982.564103,4076.410256
109,4401.025641,4534.358974,4526.666666,4267.692307,4501.538461,4177.435897,4430.256410,4192.307692,4176.410256,4467.179487,4228.205128,4646.666666,3977.435898,4074.358974
110,4402.051282,4529.743589,4528.205128,4269.230769,4496.923076,4172.820512,4429.230769,4187.179487,4173.846153,4457.948717,4237.435897,4648.717948,3974.358975,4074.871794
111,4396.410256,4531.282051,4524.102564,4263.076923,4491.282051,4168.205128,4424.615384,4182.564102,4175.384615,4462.051282,4226.153846,4646.153846,3974.358975,4071.794871
112,4393.846153,4532.307692,4517.948717,4257.435897,4491.794871,4170.256410,4426.153846,4186.666666,4177.948717,4465.641025,4221.025641,4646.153846,3978.461539,4074.358974
113,4399.487179,4530.256410,4520.000000,4257.435897,4488.717948,4169.743589,4427.179487,4187.692307,4180.000000,4467.692307,4232.820512,4649.230769,3983.589744,4079.487179
114,4400.000000,4532.820512,4521.538461,4260.512820,4487.179487,4168.205128,4426.153846,4184.102564,4183.589743,4471.794871,4238.461538,4651.282051,3988.717949,4080.512820
115,4400.000000,4542.051282,4521.538461,4265.641025,4491.794871,4176.923076,4433.333333,4193.846153,4190.256410,4480.512820,4242.564102,4655.897435,3994.358975,4084.615384
116,4408.205128,4547.692307,4524.615384,4272.820512,4492.307692,4185.128205,4442.051282,4206.153846,4197.435897,4489.230769,4251.794871,4662.051282,4000.000000,4089.743589
117,4411.282051,4544.102564,4526.153846,4272.820512,4491.794871,4178.461538,4437.948717,4202.051282,4195.384615,4480.000000,4249.743589,4659.487179,4002.051282,4089.743589
118,4401.538461,4536.923076,4522.564102,4265.128205,4487.692307,4166.666666,4426.666666,4191.794871,4185.128205,4463.076923,4239.487179,4649.230769,3991.282052,4085.641025
119,4394.871794,4531.282051,4517.948717,4262.051282,4475.897435,4166.153846,4424.102564,4188.205128,4181.025641,4462.051282,4238.461538,4645.641025,3980.512821,4082.564102
120,4401.025641,4531.282051,4519.487179,4267.179487,4475.384615,4171.282051,4426.666666,4191.282051,4183.589743,4471.794871,4245.128205,4652.307692,3983.076924,4084.102564
121,4408.205128,4535.384615,4524.615384,4271.282051,4484.615384,4169.230769,4427.179487,4195.384615,4184.615384,4474.358974,4250.769230,4658.461538,3992.820513,4089.743589
122,4406.153846,4534.871794,4523.589743,4269.230769,4482.051282,4167.179487,4426.666666,4192.307692,4182.564102,4468.205128,4251.282051,4658.461538,3998.974359,4092.820512
123,4402.051282,4528.717948,4514.871794,4262.564102,4474.358974,4169.743589,4427.692307,4186.666666,4180.000000,4460.000000,4247.179487,4654.358974,3994.358975,4088.717948
124,4397.948717,4524.102564,4507.692307,4258.974358,4472.307692,4165.641025,4426.153846,4189.230769,4177.948717,4453.846153,4244.615384,4648.717948,3984.102565,4082.564102
125,4392.820512,4525.128205,4505.641025,4262.051282,4472.307692,4160.000000,4420.000000,4189.230769,4175.384615,4453.333333,4239.487179,4644.615384,3975.384616,4076.923076
126,4387.692307,4526.666666,4504.102564,4262.051282,4471.282051,4160.512820,4417.435897,4178.461538,4168.717948,4450.256410,4231.794871,4638.974358,3970.256411,4068.205128
127,4388.205128,4528.717948,4505.128205,4257.435897,4472.820512,4161.538461,4420.000000,4170.769230,4163.076923,4442.051282,4227.179487,4633.333333,3969.743590,4063.589743
128,4386.153846,4524.615384,4502.051282,4255.384615,4474.871794,4158.461538,4415.897435,4169.230769,4161.025641,4434.871794,4221.538461,4629.743589,3964.615385,4060.000000
129,4380.512820,4518.461538,4494.358974,4255.897435,4468.717948,4154.871794,4410.256410,4166.153846,4160.512820,4439.487179,4225.128205,4629.230769,3954.871795,4053.846153
130,4382.051282,4524.102564,4490.769230,4259.487179,4464.615384,4153.333333,4413.846153,4167.179487,4165.128205,4450.256410,4235.384615,4630.769230,3959.487180,4055.897435
131,4386.666666,4528.205128,4493.333333,4261.538461,4467.179487,4151.282051,4416.410256,4175.897435,4168.205128,4447.179487,4233.333333,4630.256410,3974.871795,4061.025641
132,4387.179487,4523.589743,4499.487179,4255.384615,4463.076923,4152.820512,4413.846153,4182.564102,4170.769230,4442.051282,4226.153846,4630.256410,3977.948718,4062.051282
133,4388.717948,4522.564102,4504.102564,4250.769230,4461.538461,4159.487179,4417.948717,4187.179487,4177.948717,4457.948717,4236.410256,4637.435897,3974.871795,4070.256410
134,4401.025641,4535.897435,4509.230769,4265.641025,4476.410256,4167.692307,4427.179487,4195.384615,4185.641025,4472.820512,4257.435897,4649.230769,3978.974359,4082.564102
135,4415.897435,4545.641025,4515.384615,4286.153846,4486.666666,4174.358974,4432.307692,4197.435897,4189.230769,4466.666666,4265.641025,4653.846153,3985.128206,4086.666666
136,4413.333333,4543.076923,4512.307692,4282.564102,4477.948717,4173.846153,4428.717948,4188.205128,4182.564102,4448.205128,4249.743589,4646.153846,3985.641026,4082.564102
137,4397.948717,4536.923076,4498.461538,4265.128205,4471.282051,4166.153846,4420.000000,4177.435897,4173.846153,4438.974358,4232.307692,4635.384615,3976.923077,4072.307692
138,4390.256410,4530.769230,4491.794871,4258.461538,4473.846153,4155.897435,4414.871794,4175.897435,4170.769230,4442.564102,4236.923076,4631.282051,3964.102565,4064.102564
139,4392.820512,4526.153846,4494.358974,4261.025641,4467.692307,4152.820512,4412.820512,4179.487179,4168.205128,4443.076923,4243.076923,4631.794871,3959.487180,4066.153846
140,4395.897435,4526.153846,4492.307692,4263.589743,4462.051282,4156.923076,4412.307692,4182.051282,4167.179487,4439.487179,4235.897435,4631.794871,3964.102565,4070.256410
141,4393.846153,4523.076923,4491.794871,4262.051282,4465.641025,4159.487179,4412.820512,4184.102564,4173.333333,4446.666666,4235.897435,4632.307692,3971.282052,4070.256410
142,4390.256410,4516.923076,4493.846153,4253.846153,4463.589743,4155.897435,4412.820512,4186.153846,4175.897435,4456.923076,4244.102564,4634.358974,3973.333334,4069.230769
143,4390.256410,4515.384615,4491.794871,4249.743589,4451.282051,4152.820512,4412.820512,4189.230769,4174.871794,4450.256410,4246.153846,4635.384615,3967.692308,4070.769230
144,4392.307692,4519.487179,4493.333333,4254.871794,4452.307692,4155.897435,4414.358974,4192.307692,4180.000000,4442.051282,4247.179487,4640.512820,3967.179488,4074.871794
145,4393.846153,4521.538461,4498.974358,4254.358974,4464.102564,4157.435897,4413.333333,4191.282051,4178.974358,4446.666666,4251.282051,4642.051282,3975.384616,4075.384615
146,4393.846153,4521.538461,4497.435897,4253.333333,4461.025641,4153.333333,4406.153846,4184.615384,4171.794871,4446.666666,4249.230769,4636.410256,3977.948718,4070.769230
147,4392.820512,4517.435897,4492.307692,4257.948717,4456.923076,4150.256410,4402.564102,4179.487179,4167.692307,4436.923076,4242.051282,4632.820512,3964.615385,4068.205128
148,4390.256410,4516.923076,4491.282051,4257.948717,4462.051282,4151.794871,4405.128205,4174.358974,4164.102564,4428.717948,4235.897435,4629.230769,3955.384616,4068.205128
149,4387.692307,4518.974358,4490.256410,4252.820512,4456.410256,4148.717948,4405.128205,4167.179487,4158.974358,4426.153846,4228.717948,4622.564102,3962.051283,4067.179487
150,4387.179487,4515.384615,4488.205128,4251.282051,4446.153846,4146.153846,4400.000000,4164.615384,4155.384615,4424.102564,4228.717948,4622.564102,3970.256411,4065.641025
151,4389.230769,4513.846153,4491.282051,4252.820512,4448.205128,4149.230769,4403.589743,4170.256410,4156.923076,4434.871794,4236.410256,4630.256410,3969.230770,4068.717948
152,4394.358974,4518.974358,4492.820512,4258.974358,4455.897435,4152.307692,4410.769230,4179.487179,4164.615384,4447.692307,4237.435897,4634.871794,3964.615385,4075.384615
153,4399.487179,4525.128205,4495.384615,4266.666666,4461.025641,4158.974358,4414.871794,4187.692307,4172.307692,4448.205128,4235.384615,4638.461538,3970.769231,4078.974358
154,4402.564102,4532.307692,4504.102564,4264.615384,4467.179487,4169.743589,4422.051282,4194.358974,4177.435897,4456.410256,4243.076923,4644.102564,3982.564103,4082.564102
155,4407.692307,4536.923076,4508.205128,4257.948717,4468.717948,4171.282051,4427.692307,4197.948717,4184.102564,4474.358974,4247.179487,4649.743589,3984.102565,4087.692307
156,4409.743589,4535.384615,4505.128205,4262.564102,4466.153846,4171.282051,4429.743589,4205.128205,4193.333333,4483.589743,4242.051282,4654.358974,3981.025642,4093.333333
157,4409.230769,4533.333333,4510.256410,4271.282051,4471.282051,4181.538461,4431.282051,4208.717948,4196.923076,4484.102564,4237.435897,4658.974358,3988.717949,4098.974358
158,4415.384615,4543.076923,4520.000000,4272.820512,4481.538461,4189.230769,4435.897435,4208.717948,4194.358974,4486.153846,4235.384615,4664.102564,3998.461539,4103.589743
159,4418.461538,4550.256410,4515.897435,4271.794871,4483.076923,4188.717948,4440.000000,4208.717948,4191.794871,4484.615384,4232.820512,4664.615384,3995.897436,4104.615384
160,4411.282051,4544.102564,4510.256410,4269.743589,4476.923076,4188.205128,4436.410256,4206.666666,4190.256410,4486.153846,4230.256410,4663.589743,3985.128206,4101.025641
161,4409.743589,4541.538461,4516.410256,4268.205128,4475.897435,4187.179487,4434.358974,4206.666666,4191.282051,4497.435897,4226.666666,4668.717948,3982.051283,4099.487179
162,4417.435897,4550.256410,4523.589743,4274.358974,4481.025641,4186.666666,4438.461538,4212.307692,4195.384615,4501.538461,4226.666666,4674.871794,3987.179488,4105.128205
163,4420.000000,4555.897435,4521.538461,4276.923076,4481.538461,4187.692307,4437.948717,4215.897435,4196.923076,4500.512820,4232.820512,4678.974358,3993.846154,4111.794871
164,4417.948717,4552.307692,4520.000000,4270.256410,4477.948717,4190.256410,4435.384615,4213.846153,4200.000000,4504.102564,4236.923076,4681.025641,3998.974359,4112.820512
165,4422.564102,4549.743589,4524.102564,4267.692307,4476.923076,4191.794871,4442.051282,4215.897435,4209.743589,4512.307692,4239.487179,4686.666666,4004.615384,4115.897435
166,4427.179487,4549.230769,4525.641025,4274.358974,4481.538461,4193.333333,4445.641025,4224.102564,4215.384615,4518.461538,4243.589743,4691.794871,4010.256410,4125.128205
167,4425.641025,4547.179487,4526.153846,4274.871794,4484.615384,4193.846153,4440.512820,4224.102564,4210.256410,4518.974358,4243.076923,4693.846153,4014.871794,4125.128205
168,4428.205128,4552.820512,4532.307692,4278.461538,4482.051282,4195.897435,4440.000000,4221.025641,4212.307692,4522.051282,4246.666666,4698.461538,4023.589743,4124.615384
169,4436.410256,4564.102564,4538.974358,4289.230769,4484.102564,4200.000000,4443.076923,4226.153846,4219.487179,4525.641025,4256.923076,4702.564102,4031.282051,4133.333333
170,4433.846153,4566.666666,4537.435897,4291.282051,4490.256410,4201.025641,4443.076923,4229.743589,4220.000000,4528.205128,4253.846153,4697.948717,4022.051282,4133.846153
171,4430.256410,4560.000000,4535.897435,4286.666666,4493.846153,4203.589743,4443.076923,4223.589743,4217.435897,4529.230769,4241.538461,4692.307692,4012.820512,4124.615384
172,4432.820512,4557.435897,4536.410256,4289.743589,4495.897435,4208.205128,4442.564102,4221.538461,4217.948717,4522.564102,4238.974358,4695.897435,4021.538461,4122.051282
173,4434.358974,4564.615384,4537.948717,4298.974358,4496.410256,4208.717948,4443.589743,4230.769230,4221.025641,4518.974358,4247.692307,4702.564102,4028.205128,4127.179487
174,4439.487179,4573.846153,4542.564102,4297.435897,4494.871794,4209.230769,4452.307692,4237.948717,4225.641025,4532.820512,4257.435897,4706.153846,4022.564102,4133.333333
175,4443.076923,4571.282051,4542.051282,4292.820512,4497.435897,4210.769230,4454.871794,4235.384615,4229.230769,4542.564102,4256.923076,4706.153846,4025.641025,4135.384615
176,4439.487179,4561.538461,4537.435897,4294.358974,4496.923076,4207.179487,4446.153846,4233.333333,4231.282051,4527.179487,4249.743589,4701.538461,4032.307692,4133.846153
177,4437.948717,4561.538461,4538.974358,4294.871794,4487.179487,4205.128205,4445.128205,4233.333333,4229.230769,4524.102564,4251.794871,4702.564102,4031.794871,4131.282051
178,4438.461538,4564.615384,4541.538461,4289.230769,4487.692307,4208.205128,4449.743589,4235.384615,4226.153846,4538.974358,4257.435897,4706.666666,4030.256410,4129.743589
179,4434.871794,4553.846153,4537.435897,4284.102564,4493.846153,4204.615384,4446.666666,4231.794871,4221.025641,4529.743589,4247.692307,4703.589743,4023.076923,4128.205128
180,4430.769230,4548.205128,4534.871794,4287.692307,4487.692307,4198.974358,4441.025641,4227.692307,4215.384615,4511.794871,4241.538461,4699.487179,4015.384615,4127.692307
181,4433.333333,4557.948717,4538.461538,4293.333333,4481.538461,4202.564102,4443.076923,4231.794871,4223.076923,4521.538461,4249.743589,4703.076923,4024.102564,4127.692307
182,4434.871794,4557.435897,4536.923076,4290.769230,4485.641025,4208.717948,4451.282051,4234.871794,4232.307692,4534.358974,4247.692307,4703.589743,4028.205128,4125.128205
183,4433.846153,4551.282051,4534.871794,4282.564102,4491.282051,4211.794871,4455.384615,4234.871794,4226.666666,4527.692307,4244.102564,4700.512820,4018.974358,4123.076923
184,4435.897435,4555.384615,4536.410256,4285.128205,4492.307692,4208.717948,4449.230769,4235.897435,4222.051282,4521.025641,4257.435897,4703.076923,4020.000000,4127.179487
185,4438.461538,4559.487179,4535.897435,4293.333333,4486.153846,4200.000000,4442.564102,4233.846153,4226.666666,4521.025641,4261.538461,4704.102564,4026.666666,4129.743589
186,4436.410256,4555.897435,4535.384615,4291.794871,4479.487179,4197.948717,4441.538461,4232.820512,4225.641025,4518.461538,4251.794871,4701.025641,4031.282051,4127.692307
187,4434.871794,4560.512820,4538.461538,4287.692307,4481.025641,4202.564102,4443.589743,4240.000000,4227.179487,4525.128205,4259.487179,4706.153846,4033.333333,4129.230769
188,4445.641025,4568.205128,4542.051282,4293.333333,4487.692307,4208.205128,4452.307692,4250.256410,4242.564102,4537.948717,4273.333333,4717.435897,4037.435897,4140.000000
189,4450.769230,4565.128205,4540.000000,4298.461538,4490.769230,4206.666666,4460.000000,4252.307692,4245.128205,4536.923076,4274.358974,4715.897435,4044.615384,4144.615384
190,4441.025641,4560.000000,4536.410256,4291.794871,4483.589743,4201.538461,4452.307692,4246.666666,4231.794871,4530.256410,4271.794871,4704.615384,4043.589743,4136.923076
191,4440.512820,4559.487179,4536.410256,4285.128205,4474.358974,4201.025641,4444.102564,4242.051282,4230.256410,4530.256410,4270.769230,4706.153846,4037.435897,4135.897435
192,4450.769230,4563.076923,4540.000000,4292.307692,4478.461538,4201.538461,4449.230769,4246.153846,4240.512820,4530.256410,4270.256410,4716.923076,4043.589743,4147.692307
193,4454.358974,4563.589743,4548.205128,4301.538461,4485.128205,4201.025641,4451.794871,4247.692307,4244.615384,4529.230769,4274.871794,4720.000000,4050.256410,4153.846153
194,4453.333333,4565.128205,4550.256410,4300.512820,4483.076923,4202.051282,4446.666666,4242.564102,4236.410256,4527.179487,4282.051282,4716.923076,4041.538461,4145.641025
195,4453.846153,4566.666666,4542.051282,4299.487179,4482.051282,4201.538461,4444.615384,4240.000000,4229.230769,4521.025641,4279.487179,4713.333333,4036.410256,4141.538461
196,4449.743589,4561.025641,4536.410256,4297.948717,4485.128205,4199.487179,4446.153846,4238.461538,4231.282051,4520.000000,4264.615384,4706.153846,4041.025641,4141.538461
197,4443.076923,4556.923076,4533.846153,4293.333333,4484.615384,4205.128205,4448.717948,4239.487179,4234.871794,4523.076923,4250.256410,4700.000000,4042.051282,4135.897435
198,4441.538461,4562.564102,4533.333333,4291.282051,4485.128205,4214.358974,4457.435897,4244.102564,4232.820512,4521.538461,4256.923076,4703.076923,4036.410256,4132.307692
199,4440.512820,4562.051282,4532.820512,4291.282051,4487.692307,4210.256410,4458.461538,4244.615384,4235.384615,4526.153846,4271.282051,4705.641025,4029.743589,4131.282051
200,4438.461538,4549.743589,4526.666666,4287.179487,4486.153846,4202.051282,4446.666666,4240.000000,4234.871794,4525.128205,4264.102564,4699.487179,4027.179487,4126.153846
201,4436.410256,4547.692307,4520.000000,4284.102564,4481.538461,4199.487179,4441.025641,4237.948717,4223.076923,4510.769230,4248.205128,4692.307692,4027.179487,4121.538461
202,4437.948717,4556.410256,4523.076923,4291.794871,4480.512820,4202.051282,4444.615384,4235.897435,4219.487179,4508.717948,4247.179487,4693.846153,4021.538461,4119.487179
203,4441.538461,4556.410256,4527.692307,4299.487179,4483.589743,4206.666666,4445.128205,4231.794871,4227.179487,4512.307692,4256.410256,4696.923076,4018.461538,4121.025641
204,4437.435897,4550.256410,4525.641025,4291.794871,4483.076923,4207.692307,4445.641025,4233.333333,4224.102564,4501.538461,4256.923076,4692.820512,4020.512820,4121.025641
205,4428.717948,4547.179487,4519.487179,4282.051282,4476.410256,4201.025641,4442.564102,4231.794871,4214.871794,4492.307692,4246.666666,4687.179487,4015.384615,4111.282051
206,4424.102564,4545.641025,4513.846153,4281.025641,4475.897435,4195.384615,4432.307692,4226.153846,4213.333333,4494.358974,4236.410256,4683.076923,4005.128205,4102.564102
207,4428.205128,4545.128205,4514.358974,4287.179487,4477.435897,4198.461538,4431.794871,4227.179487,4219.487179,4496.410256,4237.435897,4682.051282,4008.205128,4108.717948
208,4430.769230,4543.589743,4518.461538,4289.743589,4475.897435,4200.512820,4441.025641,4233.333333,4225.641025,4500.512820,4248.205128,4685.641025,4020.512820,4115.897435
209,4430.256410,4544.102564,4520.000000,4287.179487,4474.871794,4197.435897,4440.512820,4235.897435,4226.153846,4508.717948,4255.384615,4692.307692,4029.230769,4116.923076
210,4437.435897,4546.666666,4524.102564,4286.153846,4476.410256,4194.871794,4432.307692,4235.897435,4225.641025,4511.282051,4256.410256,4696.410256,4027.692307,4120.512820
211,4437.435897,4539.487179,4523.589743,4285.128205,4472.307692,4187.179487,4427.179487,4228.205128,4220.000000,4501.538461,4254.871794,4690.769230,4012.820512,4117.948717
212,4427.179487,4532.307692,4514.871794,4284.615384,4465.641025,4186.666666,4426.666666,4221.538461,4213.333333,4493.846153,4250.769230,4684.102564,4006.666666,4110.769230
213,4426.666666,4540.000000,4516.410256,4285.128205,4465.641025,4194.358974,4430.256410,4228.205128,4216.923076,4497.948717,4248.717948,4684.615384,4020.000000,4111.282051
214,4432.307692,4546.666666,4521.538461,4285.641025,4467.692307,4194.871794,4433.846153,4231.794871,4220.512820,4497.435897,4245.641025,4684.615384,4022.051282,4113.846153
215,4425.128205,4537.948717,4513.846153,4279.487179,4467.692307,4188.717948,4432.820512,4225.128205,4213.846153,4486.666666,4240.000000,4677.435897,4008.205128,4106.153846
216,4420.512820,4530.769230,4511.282051,4275.384615,4468.205128,4188.717948,4429.230769,4218.461538,4207.692307,4481.025641,4237.948717,4674.871794,4005.128205,4100.000000
217,4428.205128,4531.282051,4516.923076,4278.974358,4465.128205,4189.230769,4426.666666,4221.538461,4211.794871,4485.641025,4242.564102,4679.487179,4011.282051,4105.641025
218,4430.256410,4532.307692,4515.384615,4278.974358,4460.512820,4184.102564,4425.128205,4227.692307,4216.410256,4491.794871,4246.666666,4681.025641,4010.256410,4110.256410
219,4426.153846,4534.871794,4511.794871,4273.333333,4460.000000,4184.102564,4424.102564,4224.615384,4216.923076,4489.743589,4244.102564,4678.974358,4005.641025,4107.179487
220,4425.641025,4532.820512,4513.846153,4271.794871,4458.974358,4183.589743,4423.589743,4220.000000,4211.794871,4484.615384,4237.948717,4677.948717,4007.179487,4106.666666
221,4430.769230,4533.846153,4511.282051,4280.512820,4460.000000,4184.615384,4426.666666,4227.692307,4211.794871,4485.641025,4243.589743,4680.000000,4012.307692,4111.794871
222,4431.794871,4540.000000,4507.179487,4285.128205,4465.641025,4188.717948,4429.743589,4231.794871,4220.000000,4485.641025,4253.333333,4680.000000,4012.820512,4113.846153
223,4425.641025,4538.974358,4508.717948,4278.461538,4460.512820,4185.641025,4426.666666,4219.487179,4216.923076,4473.333333,4246.153846,4671.794871,4007.179487,4108.717948
224,4423.589743,4534.358974,4506.153846,4276.923076,4453.846153,4183.076923,4424.615384,4216.923076,4204.615384,4469.230769,4241.025641,4667.179487,4003.589743,4104.615384
225,4426.666666,4535.384615,4506.153846,4281.538461,4457.435897,4185.128205,4426.666666,4221.025641,4205.641025,4479.487179,4248.717948,4674.358974,4008.205128,4105.641025
226,4427.179487,4533.846153,4509.230769,4282.051282,4458.974358,4183.076923,4425.641025,4215.897435,4210.256410,4480.000000,4252.820512,4681.025641,4014.871794,4110.256410
227,4426.153846,4531.794871,4508.717948,4282.564102,4459.487179,4181.025641,4424.615384,4214.871794,4206.153846,4474.871794,4251.282051,4676.410256,4013.846153,4112.307692
228,4427.179487,4537.948717,4508.717948,4282.564102,4466.666666,4188.205128,4429.230769,4220.512820,4208.717948,4481.025641,4252.307692,4674.871794,4008.717948,4110.256410
229,4426.153846,4538.461538,4507.692307,4274.871794,4464.102564,4185.641025,4426.666666,4219.487179,4210.256410,4478.974358,4250.256410,4678.974358,4008.717948,4105.641025
230,4426.153846,4528.205128,4505.128205,4271.282051,4452.307692,4175.897435,4415.384615,4211.794871,4203.589743,4464.102564,4250.769230,4678.461538,4010.256410,4103.589743
231,4428.717948,4523.589743,4505.641025,4275.897435,4453.333333,4177.435897,4415.897435,4212.307692,4202.051282,4464.102564,4255.897435,4676.923076,4008.717948,4107.179487
232,4427.179487,4529.230769,4507.179487,4273.846153,4459.487179,4183.076923,4422.564102,4218.461538,4207.692307,4471.794871,4254.871794,4677.948717,4008.717948,4110.256410
233,4426.153846,4534.871794,4507.179487,4270.769230,4455.897435,4182.564102,4420.512820,4220.000000,4209.230769,4469.743589,4254.871794,4677.435897,4009.230769,4106.153846
234,4427.692307,4531.794871,4506.153846,4276.923076,4458.461538,4177.435897,4413.333333,4214.871794,4206.153846,4461.538461,4253.333333,4674.871794,4004.102564,4102.051282
235,4427.179487,4525.128205,4504.102564,4277.435897,4462.051282,4173.846153,4409.743589,4207.692307,4200.512820,4461.538461,4244.615384,4669.743589,4002.051282,4102.051282
236,4429.743589,4527.179487,4505.128205,4273.846153,4456.410256,4178.461538,4415.897435,4215.897435,4206.153846,4473.333333,4250.256410,4671.794871,4008.717948,4105.641025
237,4436.410256,4540.512820,4511.282051,4280.512820,4459.487179,4189.743589,4430.769230,4236.923076,4226.153846,4487.179487,4266.153846,4682.051282,4015.384615,4110.769230
238,4433.333333,4543.076923,4505.641025,4281.538461,4462.564102,4188.205128,4429.743589,4235.897435,4224.102564,4483.589743,4258.461538,4677.948717,4009.743589,4108.205128
239,4422.051282,4527.692307,4496.410256,4275.384615,4455.384615,4174.358974,4413.846153,4214.871794,4200.512820,4467.179487,4241.025641,4663.076923,4003.076923,4098.461538
240,4425.641025,4525.641025,4502.564102,4280.000000,4457.435897,4175.384615,4415.897435,4214.358974,4202.564102,4464.102564,4246.666666,4666.666666,4010.769230,4101.025641
241,4433.846153,4536.410256,4510.256410,4283.076923,4466.666666,4185.128205,4426.666666,4226.666666,4216.923076,4467.692307,4254.358974,4674.871794,4010.769230,4108.205128
242,4429.230769,4533.333333,4505.641025,4278.974358,4463.076923,4184.102564,4421.538461,4224.102564,4210.769230,4466.153846,4250.769230,4669.230769,3996.410257,4104.102564
243,4421.538461,4520.000000,4496.410256,4277.435897,4455.897435,4178.461538,4414.358974,4216.410256,4205.128205,4465.641025,4248.205128,4664.615384,3993.333334,4096.923076
244,4421.538461,4519.487179,4492.820512,4272.307692,4454.871794,4175.384615,4411.794871,4214.871794,4206.666666,4464.615384,4246.666666,4665.641025,3996.410257,4092.820512
245,4425.128205,4525.128205,4492.307692,4267.692307,4454.358974,4173.333333,4411.794871,4214.358974,4202.564102,4457.948717,4241.025641,4663.589743,3995.897436,4093.846153
246,4426.153846,4527.179487,4494.358974,4275.897435,4456.410256,4178.974358,4419.487179,4214.871794,4202.564102,4453.846153,4237.948717,4661.538461,3994.871795,4098.461538
247,4421.538461,4529.230769,4495.384615,4277.948717,4462.051282,4181.025641,4421.538461,4214.871794,4205.128205,4457.435897,4244.615384,4663.076923,3991.794872,4096.410256
248,4422.051282,4528.717948,4494.358974,4273.333333,4462.564102,4177.435897,4415.897435,4213.333333,4203.076923,4459.487179,4249.230769,4664.102564,3995.384616,4093.846153
249,4428.205128,4523.076923,4497.948717,4276.923076,4460.000000,4178.974358,4418.461538,4213.846153,4206.666666,4456.410256,4243.589743,4665.641025,4004.615384,4098.974358
250,4421.025641,4517.435897,4498.461538,4275.897435,4457.435897,4179.487179,4418.974358,4215.384615,4204.615384,4449.230769,4237.435897,4662.051282,3993.333334,4097.435897
251,4413.846153,4516.410256,4493.846153,4267.692307,4454.871794,4177.948717,4416.923076,4214.358974,4195.384615,4445.128205,4242.051282,4656.410256,3979.487180,4088.205128
252,4420.512820,4522.564102,4494.358974,4267.692307,4456.410256,4181.538461,4422.564102,4215.384615,4200.512820,4453.333333,4249.230769,4661.538461,3994.871795,4089.743589
253,4425.641025,4524.615384,4498.461538,4274.871794,4460.512820,4184.102564,4422.564102,4217.948717,4205.128205,4452.307692,4246.666666,4665.128205,4006.153846,4098.461538
254,4420.512820,4520.000000,4493.846153,4273.846153,4458.974358,4177.948717,4413.333333,4213.846153,4196.410256,4441.538461,4243.076923,4657.435897,3996.923077,4097.435897
255,4417.435897,4516.923076,4489.230769,4265.641025,4454.871794,4175.384615,4413.333333,4207.692307,4195.384615,4441.025641,4247.692307,4654.358974,3988.205129,4090.769230
256,4414.358974,4515.897435,4492.820512,4264.615384,4454.871794,4178.461538,4419.487179,4211.282051,4200.000000,4447.692307,4250.256410,4658.974358,3985.641026,4085.641025
257,4411.282051,4514.871794,4490.256410,4269.743589,4456.923076,4178.974358,4419.487179,4214.871794,4198.974358,4447.179487,4246.666666,4657.948717,3990.769231,4085.641025
258,4419.487179,4523.589743,4493.333333,4269.743589,4458.974358,4180.512820,4418.974358,4214.871794,4200.512820,4449.743589,4245.128205,4658.461538,4004.615384,4093.333333
259,4428.717948,4530.256410,4508.205128,4268.717948,4457.435897,4183.589743,4424.102564,4221.025641,4209.743589,4462.051282,4252.307692,4670.769230,4011.282051,4104.615384
260,4431.282051,4525.641025,4511.794871,4273.846153,4460.000000,4187.692307,4430.256410,4226.153846,4217.435897,4472.307692,4264.102564,4681.025641,4011.794871,4110.769230
