,AF3,F7,F3,FC5,T7,P7,O1,O2,P8,T8,FC6,F4,F8,AF4
0,4384.102564,4539.487179,4514.871794,4277.435897,4487.179487,4216.923076,4434.358974,4216.923076,4232.820512,4508.205128,4208.717948,4657.435897,3977.948718,4054.358974
1,4388.717948,4540.512820,4508.205128,4276.410256,4487.179487,4218.974358,4440.000000,4215.384615,4229.743589,4504.102564,4211.794871,4652.307692,3976.923077,4050.769230
2,4391.794871,4539.487179,4507.179487,4272.307692,4485.641025,4217.948717,4434.358974,4216.410256,4231.282051,4498.461538,4210.769230,4646.153846,3970.256411,4047.692307
3,4382.051282,4536.923076,4509.743589,4269.743589,4484.102564,4215.384615,4434.871794,4214.871794,4235.897435,4500.000000,4197.435897,4647.692307,3964.615385,4046.153846
4,4382.051282,4536.923076,4513.333333,4275.384615,4487.179487,4217.948717,4444.102564,4215.384615,4238.461538,4505.128205,4197.435897,4651.282051,3971.282052,4049.230769
5,4392.307692,4540.000000,4520.512820,4281.025641,4492.820512,4224.615384,4447.179487,4224.102564,4239.487179,4507.692307,4214.871794,4656.410256,3978.461539,4054.358974
6,4392.307692,4542.051282,4523.589743,4276.923076,4490.256410,4224.102564,4444.102564,4227.179487,4236.410256,4502.564102,4217.435897,4663.589743,3978.461539,4056.410256
7,4386.666666,4540.512820,4520.512820,4275.384615,4481.025641,4215.384615,4442.051282,4218.974358,4234.358974,4496.410256,4207.179487,4662.051282,3977.948718,4054.871794
8,4390.256410,4539.487179,4521.025641,4277.948717,4481.025641,4213.333333,4441.025641,4217.435897,4242.051282,4501.025641,4209.743589,4658.461538,3980.000000,4053.846153
9,4397.435897,4539.487179,4523.589743,4280.000000,4487.692307,4216.410256,4443.076923,4222.564102,4244.102564,4505.128205,4213.846153,4663.589743,3980.512821,4058.461538
10,4398.974358,4547.179487,4525.641025,4287.692307,4488.205128,4215.384615,4443.589743,4220.000000,4235.897435,4500.512820,4210.256410,4668.205128,3977.948718,4064.102564
11,4398.461538,4552.307692,4526.153846,4292.307692,4486.666666,4216.410256,4441.538461,4214.358974,4230.256410,4493.333333,4209.230769,4666.153846,3977.435898,4064.615384
12,4396.923076,4546.153846,4525.641025,4286.666666,4490.256410,4220.512820,4444.615384,4215.897435,4226.666666,4487.692307,4206.666666,4662.564102,3979.487180,4061.538461
13,4392.307692,4538.461538,4523.589743,4278.461538,4490.256410,4217.948717,4442.564102,4215.897435,4224.102564,4484.615384,4201.025641,4657.435897,3973.333334,4053.333333
14,4387.692307,4534.871794,4520.000000,4277.435897,4484.615384,4213.333333,4435.384615,4208.205128,4224.102564,4488.717948,4200.512820,4653.846153,3969.743590,4048.205128
15,4389.743589,4540.000000,4519.487179,4279.487179,4487.692307,4213.846153,4437.435897,4208.205128,4226.153846,4492.820512,4208.717948,4659.487179,3976.410257,4053.333333
16,4395.384615,4550.256410,4529.743589,4279.487179,4496.923076,4217.435897,4443.076923,4214.871794,4232.820512,4494.358974,4212.307692,4668.205128,3985.641026,4062.051282
17,4396.923076,4548.205128,4537.435897,4279.487179,4496.410256,4217.435897,4444.102564,4218.974358,4240.512820,4501.025641,4209.230769,4672.307692,3990.256411,4064.102564
18,4394.871794,4540.512820,4529.230769,4276.410256,4488.717948,4214.358974,4443.076923,4224.102564,4241.538461,4506.153846,4212.307692,4671.794871,3988.717949,4062.564102
19,4394.358974,4544.615384,4526.666666,4268.205128,4487.692307,4212.307692,4444.102564,4229.230769,4242.051282,4504.615384,4220.000000,4669.230769,3985.641026,4064.615384
20,4396.923076,4554.871794,4537.948717,4269.230769,4491.794871,4214.871794,4449.230769,4233.333333,4247.179487,4508.717948,4224.102564,4675.897435,3993.846154,4071.282051
21,4402.564102,4558.461538,4543.076923,4284.102564,4497.948717,4220.512820,4458.461538,4241.025641,4249.230769,4518.461538,4227.179487,4688.717948,4006.153846,4079.487179
22,4404.615384,4558.461538,4541.538461,4288.205128,4505.641025,4221.538461,4457.948717,4243.076923,4251.794871,4519.487179,4230.256410,4687.692307,4001.538461,4080.512820
23,4394.871794,4555.384615,4537.435897,4278.974358,4508.205128,4216.923076,4445.641025,4235.897435,4250.769230,4511.282051,4220.000000,4673.333333,3988.717949,4072.820512
24,4381.538461,4546.666666,4527.179487,4272.307692,4503.076923,4215.384615,4442.564102,4228.205128,4240.000000,4503.589743,4203.076923,4663.589743,3984.615385,4062.564102
25,4380.512820,4544.615384,4522.051282,4267.692307,4496.923076,4217.435897,4453.333333,4227.179487,4234.358974,4500.000000,4201.025641,4662.051282,3985.641026,4057.948717
26,4383.589743,4547.692307,4524.102564,4266.153846,4498.461538,4218.461538,4460.512820,4229.230769,4242.564102,4501.538461,4209.743589,4660.512820,3985.641026,4058.974358
27,4380.000000,4546.666666,4521.538461,4265.641025,4505.641025,4216.410256,4457.948717,4225.641025,4242.564102,4503.589743,4208.717948,4659.487179,3989.743590,4058.974358
28,4383.589743,4547.179487,4521.538461,4265.641025,4506.666666,4219.487179,4454.871794,4220.512820,4235.897435,4501.538461,4206.153846,4660.512820,3998.461539,4061.538461
29,4395.897435,4551.282051,4526.666666,4270.256410,4505.641025,4224.102564,4459.487179,4226.666666,4238.974358,4503.589743,4214.358974,4664.615384,4002.564102,4066.153846
30,4393.846153,4547.692307,4525.128205,4271.794871,4509.743589,4223.076923,4462.051282,4233.333333,4241.025641,4508.717948,4213.846153,4665.128205,3997.948718,4062.564102
31,4381.025641,4544.102564,4521.538461,4269.743589,4507.179487,4221.025641,4460.000000,4229.230769,4237.435897,4508.717948,4202.051282,4658.974358,3994.871795,4052.820512
32,4381.538461,4548.717948,4524.102564,4271.794871,4505.641025,4221.538461,4461.025641,4230.769230,4241.025641,4507.692307,4201.538461,4660.000000,3995.384616,4052.307692
33,4385.641025,4549.230769,4523.589743,4270.256410,4508.205128,4217.435897,4461.538461,4237.435897,4242.564102,4507.692307,4209.230769,4667.692307,3993.846154,4058.461538
34,4385.128205,4544.102564,4525.128205,4262.051282,4504.102564,4212.307692,4458.461538,4233.333333,4240.512820,4510.769230,4210.769230,4669.743589,3995.897436,4059.487179
35,4387.692307,4549.230769,4534.358974,4264.102564,4506.153846,4214.871794,4459.487179,4237.435897,4250.769230,4517.948717,4210.769230,4671.794871,4004.102564,4061.538461
36,4388.717948,4552.307692,4534.358974,4270.256410,4516.923076,4219.487179,4462.564102,4245.641025,4253.333333,4513.846153,4205.641025,4672.820512,4005.128205,4062.564102
37,4377.948717,4542.564102,4522.564102,4266.666666,4512.820512,4215.897435,4460.000000,4233.846153,4233.333333,4495.384615,4197.435897,4663.589743,3988.717949,4053.333333
38,4370.769230,4533.846153,4518.974358,4262.051282,4505.641025,4211.282051,4456.923076,4219.487179,4220.512820,4490.769230,4196.923076,4657.948717,3978.974359,4046.153846
39,4375.897435,4537.435897,4528.205128,4261.538461,4512.307692,4213.333333,4458.974358,4227.179487,4232.307692,4503.076923,4200.000000,4666.153846,3989.743590,4052.307692
40,4389.230769,4548.205128,4537.435897,4267.179487,4516.923076,4219.487179,4460.000000,4237.435897,4251.282051,4510.769230,4202.564102,4674.871794,3999.487180,4062.564102
41,4396.410256,4553.333333,4538.974358,4276.410256,4517.435897,4219.487179,4458.974358,4235.897435,4251.794871,4512.820512,4208.717948,4676.923076,3996.923077,4065.641025
42,4391.794871,4553.333333,4541.025641,4279.487179,4517.435897,4215.897435,4457.435897,4229.230769,4237.435897,4514.871794,4214.358974,4675.384615,3997.435898,4067.179487
43,4388.717948,4556.410256,4538.974358,4278.461538,4515.897435,4214.358974,4456.410256,4228.717948,4229.230769,4511.794871,4208.205128,4671.794871,4003.589743,4065.641025
44,4389.743589,4555.897435,4529.230769,4275.897435,4514.358974,4212.820512,4456.410256,4229.230769,4230.769230,4506.153846,4197.435897,4669.230769,4001.025641,4059.487179
45,4388.717948,4549.230769,4526.666666,4268.717948,4513.846153,4208.717948,4457.948717,4224.615384,4230.769230,4504.615384,4199.487179,4669.230769,3996.410257,4058.461538
46,4391.282051,4546.666666,4539.487179,4267.692307,4515.897435,4210.256410,4457.948717,4225.128205,4235.384615,4512.820512,4212.307692,4675.897435,4004.615384,4068.717948
47,4398.974358,4554.358974,4541.538461,4279.487179,4521.538461,4213.846153,4457.435897,4232.307692,4246.153846,4522.051282,4214.358974,4682.051282,4011.282051,4072.307692
48,4394.358974,4558.461538,4528.205128,4285.641025,4525.128205,4212.307692,4456.410256,4234.358974,4242.564102,4517.948717,4205.641025,4673.846153,4006.153846,4062.564102
49,4378.461538,4552.307692,4519.487179,4274.871794,4521.538461,4210.256410,4457.435897,4228.205128,4227.179487,4505.128205,4197.948717,4658.974358,3999.487180,4052.820512
50,4371.282051,4543.589743,4520.512820,4264.615384,4514.871794,4213.846153,4458.974358,4221.025641,4226.153846,4501.025641,4190.769230,4653.333333,3991.282052,4046.153846
51,4370.769230,4537.948717,4516.923076,4265.128205,4513.333333,4217.948717,4461.025641,4223.076923,4235.384615,4505.641025,4187.692307,4652.820512,3982.564103,4042.051282
52,4369.743589,4536.410256,4512.820512,4261.025641,4514.871794,4216.410256,4461.025641,4226.153846,4230.769230,4500.000000,4189.230769,4650.769230,3980.512821,4040.000000
53,4375.897435,4536.410256,4514.358974,4253.333333,4510.256410,4213.333333,4458.974358,4221.538461,4223.076923,4491.794871,4187.692307,4651.794871,3984.102565,4040.512820
54,4381.025641,4537.948717,4516.410256,4256.410256,4506.153846,4212.820512,4458.974358,4223.076923,4226.666666,4498.974358,4188.205128,4652.307692,3988.205129,4042.051282
55,4375.384615,4534.358974,4517.435897,4257.948717,4510.256410,4216.923076,4461.025641,4232.307692,4225.128205,4503.589743,4188.717948,4650.769230,3987.692308,4042.564102
56,4373.846153,4529.230769,4520.000000,4252.307692,4509.230769,4217.435897,4460.512820,4230.769230,4220.000000,4499.487179,4186.153846,4654.871794,3980.512821,4041.538461
57,4379.487179,4532.820512,4522.051282,4258.461538,4506.153846,4214.358974,4460.512820,4227.179487,4225.641025,4498.974358,4190.256410,4658.461538,3979.487180,4042.051282
58,4377.435897,4529.743589,4524.102564,4267.179487,4510.769230,4217.948717,4463.589743,4235.384615,4233.846153,4501.025641,4193.333333,4656.410256,3986.153847,4043.076923
59,4369.743589,4523.589743,4521.538461,4262.051282,4509.230769,4218.974358,4463.589743,4240.512820,4235.897435,4500.000000,4188.205128,4655.897435,3986.666667,4041.025641
60,4370.769230,4530.769230,4521.025641,4259.487179,4504.615384,4209.230769,4456.410256,4234.358974,4235.897435,4501.025641,4189.743589,4660.000000,3981.025642,4042.051282
61,4380.000000,4536.410256,4531.282051,4268.205128,4507.692307,4209.743589,4461.538461,4238.974358,4236.410256,4504.615384,4196.923076,4669.743589,3987.179488,4051.282051
62,4381.025641,4523.589743,4535.384615,4263.589743,4507.179487,4218.974358,4472.307692,4247.179487,4232.307692,4502.051282,4192.307692,4673.333333,3995.384616,4052.820512
63,4369.743589,4514.871794,4524.102564,4250.769230,4499.487179,4212.820512,4464.615384,4234.871794,4224.102564,4494.358974,4183.589743,4663.076923,3984.102565,4041.025641
64,4369.230769,4525.641025,4521.025641,4253.333333,4497.948717,4205.128205,4456.410256,4218.974358,4221.538461,4492.307692,4187.692307,4658.461538,3972.307693,4037.948717
65,4378.974358,4531.282051,4525.641025,4257.435897,4504.615384,4205.128205,4456.410256,4220.000000,4222.051282,4497.435897,4190.769230,4658.974358,3976.923077,4043.076923
66,4375.897435,4528.205128,4521.025641,4251.794871,4507.179487,4206.666666,4450.769230,4224.102564,4220.512820,4496.410256,4187.692307,4653.846153,3982.051283,4040.512820
67,4372.820512,4533.333333,4518.974358,4254.358974,4507.179487,4209.230769,4444.615384,4225.128205,4224.102564,4495.897435,4189.743589,4655.897435,3985.128206,4043.076923
68,4381.538461,4539.487179,4528.205128,4263.589743,4509.230769,4209.743589,4448.717948,4225.641025,4226.153846,4507.692307,4201.538461,4664.102564,3994.871795,4052.307692
69,4384.615384,4533.846153,4529.743589,4264.615384,4509.230769,4208.205128,4447.692307,4223.589743,4222.051282,4511.282051,4201.538461,4659.487179,3994.358975,4050.256410
70,4380.512820,4529.743589,4527.179487,4263.076923,4504.615384,4210.769230,4440.000000,4226.153846,4226.153846,4505.641025,4195.384615,4657.948717,3984.615385,4046.666666
71,4383.589743,4537.435897,4533.333333,4264.102564,4508.717948,4213.333333,4443.076923,4233.846153,4234.871794,4508.205128,4204.102564,4669.230769,3989.743590,4051.794871
72,4395.384615,4542.051282,4544.102564,4271.794871,4516.410256,4212.820512,4456.410256,4241.025641,4236.923076,4519.487179,4215.384615,4675.897435,4003.589743,4060.512820
73,4402.051282,4541.538461,4545.641025,4280.000000,4513.846153,4212.307692,4459.487179,4245.128205,4240.000000,4524.615384,4217.948717,4676.410256,4010.769230,4069.743589
74,4395.897435,4540.512820,4534.871794,4271.794871,4506.153846,4206.666666,4446.153846,4236.923076,4235.897435,4520.000000,4216.923076,4673.333333,4007.692307,4068.717948
75,4384.102564,4535.384615,4528.717948,4261.025641,4499.487179,4198.974358,4443.076923,4228.205128,4228.717948,4517.435897,4210.256410,4666.153846,3998.974359,4052.307692
76,4380.000000,4528.205128,4531.794871,4262.564102,4497.435897,4204.615384,4456.410256,4232.307692,4233.333333,4515.897435,4203.589743,4663.076923,3993.333334,4045.641025
77,4387.179487,4528.205128,4530.256410,4263.589743,4503.076923,4214.871794,4461.538461,4235.384615,4236.410256,4510.256410,4205.128205,4664.102564,3993.846154,4050.769230
78,4386.153846,4530.256410,4522.051282,4260.512820,4508.717948,4218.974358,4460.000000,4231.794871,4231.282051,4502.564102,4201.025641,4661.025641,3991.794872,4044.615384
79,4373.333333,4529.230769,4518.974358,4263.589743,4509.230769,4217.435897,4455.897435,4226.666666,4227.179487,4496.410256,4191.794871,4652.307692,3982.564103,4032.307692
80,4372.820512,4527.692307,4522.051282,4265.641025,4511.794871,4214.358974,4447.692307,4222.564102,4224.102564,4494.871794,4192.307692,4648.205128,3978.461539,4034.358974
81,4383.076923,4529.230769,4522.564102,4264.615384,4514.358974,4207.179487,4443.076923,4221.025641,4221.025641,4494.358974,4191.282051,4652.820512,3984.102565,4042.564102
82,4386.153846,4533.333333,4523.076923,4268.717948,4508.717948,4203.589743,4442.564102,4215.897435,4219.487179,4493.846153,4185.128205,4656.923076,3988.205129,4044.102564
83,4388.717948,4539.487179,4528.205128,4277.435897,4507.179487,4213.333333,4446.666666,4214.871794,4219.487179,4495.897435,4194.358974,4660.000000,3994.871795,4047.692307
84,4394.871794,4543.589743,4536.410256,4282.051282,4510.769230,4222.051282,4456.923076,4226.666666,4227.179487,4507.179487,4211.794871,4667.179487,4004.615384,4056.923076
85,4393.846153,4541.025641,4538.974358,4278.461538,4506.153846,4216.923076,4462.051282,4236.410256,4240.000000,4516.410256,4216.410256,4668.717948,4002.051282,4060.000000
86,4389.743589,4533.333333,4537.948717,4272.307692,4497.948717,4209.743589,4457.435897,4233.333333,4243.589743,4514.358974,4211.282051,4665.641025,3992.307693,4057.435897
87,4386.666666,4528.205128,4536.410256,4265.128205,4499.487179,4211.282051,4455.897435,4226.666666,4236.410256,4508.717948,4203.589743,4667.692307,3993.333334,4055.384615
88,4381.025641,4527.692307,4527.692307,4258.461538,4498.974358,4211.794871,4453.846153,4223.076923,4229.743589,4502.051282,4199.487179,4667.179487,3996.923077,4051.794871
89,4384.615384,4530.769230,4523.589743,4260.000000,4493.846153,4209.743589,4447.692307,4222.564102,4234.871794,4503.589743,4202.051282,4664.102564,3996.410257,4051.282051
90,4390.769230,4533.846153,4526.153846,4266.153846,4499.487179,4213.333333,4445.128205,4221.025641,4234.871794,4505.128205,4202.051282,4663.076923,3994.871795,4051.282051
91,4385.128205,4535.897435,4521.538461,4262.564102,4506.666666,4214.871794,4444.615384,4215.897435,4221.025641,4494.871794,4198.974358,4656.923076,3991.794872,4045.128205
92,4380.000000,4535.384615,4517.948717,4255.897435,4505.128205,4214.358974,4444.615384,4216.410256,4223.076923,4491.794871,4200.512820,4654.358974,3994.358975,4043.589743
93,4383.076923,4531.794871,4522.051282,4259.487179,4501.025641,4213.333333,4445.128205,4221.025641,4237.948717,4502.564102,4200.512820,4657.435897,3997.948718,4048.205128
94,4383.589743,4533.333333,4519.487179,4267.179487,4500.512820,4208.717948,4442.051282,4217.948717,4230.256410,4500.512820,4194.871794,4652.820512,3996.923077,4048.205128
95,4383.589743,4544.615384,4512.820512,4270.769230,4502.051282,4207.179487,4440.000000,4213.333333,4214.871794,4489.743589,4192.820512,4647.179487,3994.871795,4049.230769
96,4388.205128,4551.794871,4518.461538,4269.230769,4508.717948,4215.384615,4443.076923,4212.307692,4218.461538,4495.384615,4200.000000,4650.769230,3994.871795,4052.820512
97,4386.153846,4542.564102,4520.512820,4269.230769,4512.307692,4219.487179,4444.102564,4209.230769,4220.512820,4497.435897,4201.538461,4649.230769,3990.256411,4051.282051
98,4381.025641,4535.384615,4510.769230,4273.846153,4503.589743,4211.282051,4441.025641,4208.717948,4216.410256,4485.128205,4196.923076,4643.589743,3986.666667,4047.692307
99,4382.051282,4541.538461,4508.205128,4273.333333,4495.897435,4209.743589,4442.564102,4216.410256,4227.692307,4490.769230,4197.435897,4647.179487,3990.769231,4047.179487
100,4381.025641,4542.051282,4511.282051,4264.102564,4499.487179,4211.794871,4442.564102,4217.948717,4235.897435,4504.102564,4200.512820,4650.256410,3993.333334,4046.666666
101,4380.000000,4537.435897,4510.256410,4261.538461,4502.051282,4206.666666,4438.461538,4213.846153,4227.179487,4501.538461,4196.923076,4648.205128,3995.384616,4046.666666
102,4382.051282,4535.897435,4508.205128,4269.230769,4494.358974,4202.564102,4432.820512,4212.307692,4225.128205,4490.256410,4195.384615,4649.743589,3993.846154,4044.102564
103,4382.051282,4535.897435,4508.205128,4270.769230,4488.205128,4199.487179,4430.256410,4209.743589,4225.128205,4486.153846,4195.384615,4648.717948,3984.102565,4040.000000
104,4384.615384,4537.435897,4512.307692,4268.717948,4490.769230,4200.000000,4435.897435,4210.769230,4220.512820,4491.794871,4193.846153,4648.717948,3977.435898,4043.076923
105,4393.333333,4539.487179,4523.076923,4275.384615,4497.948717,4206.153846,4440.000000,4215.897435,4222.051282,4495.384615,4196.410256,4658.974358,3980.512821,4049.743589
106,4397.948717,4541.538461,4527.179487,4275.897435,4500.000000,4207.692307,4435.897435,4216.923076,4227.179487,4490.769230,4202.564102,4666.666666,3985.128206,4052.820512
107,4396.923076,4541.538461,4521.025641,4270.256410,4497.948717,4206.666666,4435.897435,4220.512820,4235.897435,4494.358974,4201.025641,4662.564102,3988.717949,4054.358974
108,4397.948717,4540.512820,4522.564102,4271.794871,4498.461538,4211.282051,4442.051282,4229.743589,4247.692307,4507.692307,4197.948717,4662.564102,3994.358975,4057.435897
109,4393.846153,4538.974358,4524.615384,4273.333333,4500.000000,4210.769230,4442.564102,4227.692307,4238.974358,4501.538461,4194.871794,4661.025641,3989.230770,4055.384615
110,4384.102564,4537.435897,4514.871794,4269.230769,4496.410256,4205.641025,4440.000000,4216.410256,4217.948717,4485.641025,4190.256410,4650.769230,3978.974359,4047.179487
111,4382.564102,4537.948717,4512.307692,4269.230769,4493.846153,4214.358974,4445.128205,4215.897435,4224.102564,4488.717948,4192.820512,4649.743589,3983.076924,4045.128205
112,4387.692307,4537.948717,4519.487179,4270.256410,4494.358974,4220.000000,4447.692307,4222.564102,4237.948717,4496.410256,4198.461538,4656.923076,3987.179488,4049.743589
113,4391.282051,4534.871794,4520.512820,4266.666666,4492.307692,4212.307692,4443.076923,4222.564102,4230.256410,4494.871794,4196.410256,4655.384615,3981.538462,4050.769230
114,4395.384615,4538.974358,4521.538461,4270.256410,4491.282051,4213.333333,4443.589743,4224.102564,4229.743589,4496.410256,4198.461538,4657.948717,3985.128206,4054.358974
115,4394.871794,4540.000000,4522.564102,4269.230769,4489.230769,4218.974358,4448.205128,4228.205128,4236.923076,4495.897435,4203.076923,4665.641025,3992.307693,4056.923076
116,4384.102564,4523.589743,4511.282051,4260.000000,4485.641025,4210.256410,4446.666666,4223.589743,4232.307692,4490.256410,4197.948717,4657.435897,3984.102565,4047.179487
117,4378.461538,4520.000000,4507.692307,4261.025641,4489.230769,4205.128205,4443.076923,4220.512820,4231.794871,4491.282051,4197.435897,4649.743589,3978.974359,4044.102564
118,4387.179487,4538.974358,4521.538461,4271.282051,4495.897435,4213.846153,4446.153846,4231.282051,4242.051282,4500.000000,4209.743589,4657.948717,3989.743590,4053.846153
119,4393.333333,4542.051282,4525.641025,4275.897435,4503.076923,4214.871794,4446.153846,4239.487179,4249.230769,4507.692307,4213.333333,4665.641025,4002.564102,4058.461538
120,4393.333333,4540.512820,4522.564102,4276.923076,4509.230769,4210.769230,4439.487179,4235.897435,4251.282051,4510.769230,4203.589743,4665.128205,4008.717948,4060.512820
121,4390.769230,4550.769230,4521.538461,4274.358974,4506.666666,4212.307692,4430.769230,4223.589743,4241.025641,4498.974358,4193.846153,4657.948717,3999.487180,4057.948717
122,4382.564102,4549.743589,4512.820512,4265.641025,4500.512820,4209.743589,4428.717948,4208.717948,4221.538461,4477.435897,4187.179487,4647.179487,3980.000000,4043.589743
123,4373.333333,4543.076923,4505.128205,4263.589743,4501.025641,4208.205128,4438.974358,4204.102564,4218.974358,4473.846153,4181.538461,4645.128205,3974.871795,4035.897435
124,4370.256410,4544.102564,4510.256410,4267.179487,4505.641025,4208.717948,4445.641025,4211.794871,4225.128205,4482.051282,4180.512820,4648.205128,3980.000000,4040.000000
125,4372.820512,4539.487179,4516.410256,4266.153846,4506.153846,4207.692307,4442.564102,4218.974358,4227.692307,4486.153846,4184.102564,4647.179487,3975.384616,4042.564102
126,4378.974358,4535.897435,4522.051282,4267.692307,4506.153846,4212.307692,4448.205128,4230.256410,4242.051282,4494.358974,4185.128205,4658.974358,3980.000000,4048.205128
127,4383.589743,4540.512820,4526.153846,4270.256410,4505.128205,4210.256410,4458.461538,4240.512820,4251.282051,4499.487179,4182.564102,4670.256410,3993.846154,4055.384615
128,4380.000000,4538.974358,4526.153846,4262.564102,4502.564102,4198.461538,4458.461538,4233.333333,4240.000000,4494.358974,4188.717948,4665.128205,3989.743590,4051.794871
129,4382.564102,4534.871794,4530.769230,4259.487179,4504.615384,4204.102564,4455.897435,4229.230769,4237.948717,4494.358974,4200.000000,4666.153846,3981.025642,4054.358974
130,4392.820512,4541.025641,4539.487179,4267.179487,4509.230769,4218.461538,4458.461538,4242.564102,4253.333333,4505.641025,4202.051282,4676.410256,3991.794872,4064.102564
131,4401.025641,4550.256410,4547.179487,4274.358974,4515.897435,4216.923076,4459.487179,4255.384615,4260.000000,4514.358974,4206.666666,4683.076923,4009.230769,4070.256410
132,4405.128205,4557.435897,4554.358974,4280.000000,4526.153846,4216.410256,4458.974358,4256.923076,4265.128205,4525.641025,4216.923076,4691.282051,4016.410256,4078.461538
133,4401.538461,4558.461538,4551.794871,4277.948717,4526.153846,4219.487179,4454.358974,4251.794871,4271.282051,4528.717948,4211.794871,4689.743589,4011.794871,4077.948717
134,4385.128205,4544.615384,4534.871794,4264.102564,4519.487179,4213.846153,4446.153846,4237.948717,4254.871794,4506.153846,4190.769230,4668.205128,3994.358975,4055.384615
135,4375.384615,4533.846153,4522.564102,4255.384615,4520.000000,4211.794871,4449.230769,4226.153846,4234.871794,4487.179487,4183.076923,4654.358974,3985.128206,4042.564102
136,4382.564102,4540.000000,4524.615384,4261.025641,4524.102564,4215.897435,4460.512820,4226.153846,4236.410256,4494.871794,4193.846153,4661.538461,3996.410257,4054.871794
137,4385.641025,4544.102564,4529.743589,4265.128205,4522.564102,4220.000000,4461.538461,4230.256410,4241.538461,4508.205128,4196.410256,4665.641025,4003.076923,4058.974358
138,4379.487179,4542.564102,4532.820512,4263.589743,4526.666666,4218.461538,4457.435897,4232.307692,4242.051282,4506.666666,4194.358974,4663.076923,4003.589743,4053.333333
139,4383.076923,4550.769230,4535.897435,4269.230769,4531.282051,4214.871794,4458.461538,4241.538461,4253.846153,4510.769230,4204.615384,4666.666666,4012.307692,4059.487179
140,4396.410256,4557.948717,4539.487179,4278.974358,4529.743589,4216.923076,4458.461538,4251.282051,4269.743589,4526.666666,4218.461538,4675.384615,4017.435897,4068.205128
141,4399.487179,4554.871794,4541.025641,4280.512820,4529.743589,4218.461538,4456.410256,4248.205128,4265.128205,4529.230769,4218.461538,4678.974358,4013.333333,4070.769230
142,4393.333333,4552.820512,4538.974358,4274.358974,4527.179487,4215.384615,4457.435897,4243.076923,4251.282051,4515.897435,4211.794871,4677.435897,4015.384615,4069.230769
143,4396.410256,4556.410256,4538.461538,4275.384615,4528.205128,4217.948717,4461.538461,4247.179487,4256.410256,4513.333333,4213.846153,4675.897435,4019.487179,4068.717948
144,4400.000000,4559.487179,4540.512820,4280.512820,4532.820512,4225.128205,4462.564102,4250.769230,4265.641025,4524.102564,4217.948717,4674.358974,4016.410256,4068.717948
145,4392.307692,4555.384615,4536.410256,4273.846153,4529.230769,4220.512820,4459.487179,4243.076923,4255.897435,4520.512820,4208.717948,4671.794871,4010.769230,4066.666666
146,4388.717948,4550.769230,4533.846153,4268.717948,4525.128205,4212.307692,4458.461538,4237.435897,4244.615384,4512.307692,4196.923076,4669.230769,4007.692307,4062.051282
147,4395.897435,4553.333333,4538.461538,4274.871794,4528.205128,4213.846153,4459.487179,4237.948717,4248.717948,4516.923076,4198.461538,4669.743589,4006.666666,4063.076923
148,4393.333333,4553.846153,4534.358974,4273.846153,4527.692307,4216.410256,4454.358974,4233.846153,4243.076923,4513.333333,4198.974358,4664.102564,4002.051282,4057.948717
149,4382.051282,4548.717948,4522.564102,4258.974358,4526.153846,4213.333333,4448.717948,4225.641025,4225.641025,4500.512820,4192.820512,4653.333333,3997.948718,4045.128205
150,4381.025641,4552.307692,4522.564102,4261.025641,4535.897435,4215.897435,4454.871794,4220.000000,4229.230769,4501.538461,4197.435897,4652.307692,4003.076923,4049.743589
151,4382.051282,4556.410256,4527.179487,4275.897435,4540.000000,4222.051282,4456.923076,4223.076923,4241.538461,4505.641025,4197.948717,4656.410256,4002.564102,4053.846153
152,4381.538461,4551.794871,4528.205128,4271.794871,4532.820512,4215.384615,4447.692307,4225.128205,4236.410256,4499.487179,4190.256410,4657.948717,3994.871795,4044.615384
153,4393.333333,4554.358974,4534.358974,4266.153846,4527.179487,4209.230769,4443.589743,4226.666666,4235.897435,4506.666666,4200.512820,4665.641025,4008.717948,4055.897435
154,4404.102564,4561.025641,4545.128205,4272.820512,4525.128205,4211.282051,4445.128205,4232.307692,4249.743589,4524.102564,4219.487179,4678.461538,4028.717948,4077.435897
155,4400.000000,4556.923076,4549.230769,4273.846153,4525.128205,4205.641025,4443.589743,4238.974358,4254.871794,4525.128205,4221.025641,4680.512820,4028.717948,4076.410256
156,4396.410256,4552.307692,4545.128205,4263.589743,4522.564102,4202.564102,4441.025641,4235.897435,4249.743589,4518.974358,4216.923076,4675.897435,4026.153846,4068.717948
157,4401.025641,4547.179487,4540.512820,4260.512820,4517.435897,4207.179487,4444.615384,4230.769230,4249.230769,4516.923076,4216.923076,4675.897435,4030.769230,4072.307692
158,4401.538461,4543.076923,4539.487179,4265.641025,4511.282051,4208.205128,4453.333333,4233.333333,4251.282051,4514.358974,4208.205128,4674.871794,4025.128205,4073.333333
159,4396.923076,4545.641025,4538.974358,4264.102564,4512.820512,4206.666666,4452.820512,4231.794871,4246.666666,4510.256410,4203.589743,4669.743589,4020.512820,4066.153846
160,4395.384615,4544.615384,4540.000000,4258.974358,4522.051282,4206.666666,4443.589743,4229.743589,4242.051282,4509.743589,4211.794871,4667.179487,4025.128205,4060.000000
161,4403.076923,4544.102564,4550.769230,4267.692307,4524.615384,4209.230769,4447.179487,4237.948717,4249.743589,4515.384615,4221.025641,4671.282051,4029.743589,4068.205128
162,4413.846153,4553.846153,4556.923076,4281.025641,4523.076923,4214.871794,4462.564102,4246.153846,4260.000000,4524.102564,4226.153846,4675.897435,4032.820512,4085.641025
163,4410.256410,4553.846153,4544.615384,4272.820512,4525.641025,4217.948717,4458.974358,4238.461538,4249.230769,4520.000000,4221.025641,4671.794871,4030.769230,4080.512820
164,4395.897435,4542.564102,4535.384615,4265.641025,4525.128205,4212.820512,4444.102564,4227.692307,4235.897435,4505.128205,4208.717948,4661.538461,4021.538461,4060.000000
165,4393.333333,4540.512820,4537.435897,4273.846153,4519.487179,4210.256410,4445.128205,4228.205128,4237.948717,4505.128205,4203.076923,4658.461538,4014.871794,4057.435897
166,4397.948717,4546.153846,4534.871794,4275.384615,4522.051282,4212.820512,4450.769230,4230.256410,4238.461538,4510.256410,4204.615384,4660.512820,4017.948717,4064.615384
167,4394.358974,4549.743589,4528.205128,4272.307692,4528.717948,4213.846153,4446.666666,4229.230769,4240.512820,4504.102564,4198.461538,4660.000000,4023.589743,4062.051282
168,4392.820512,4554.358974,4532.307692,4277.948717,4528.205128,4215.384615,4445.641025,4232.820512,4247.179487,4506.666666,4201.538461,4658.974358,4025.128205,4060.000000
169,4405.641025,4554.871794,4541.025641,4281.538461,4529.230769,4217.948717,4455.384615,4242.051282,4253.333333,4522.051282,4222.564102,4666.153846,4025.641025,4070.256410
170,4413.846153,4553.846153,4542.051282,4278.461538,4530.769230,4221.538461,4461.025641,4251.794871,4261.025641,4528.717948,4228.205128,4673.333333,4026.666666,4075.897435
171,4407.179487,4555.384615,4538.974358,4278.974358,4526.666666,4220.000000,4456.410256,4253.846153,4263.076923,4527.179487,4216.410256,4672.307692,4028.717948,4072.307692
172,4400.512820,4553.846153,4541.025641,4276.923076,4524.102564,4215.897435,4456.923076,4247.179487,4250.256410,4518.461538,4207.179487,4667.692307,4027.692307,4065.641025
173,4398.974358,4547.179487,4540.000000,4270.769230,4525.641025,4216.410256,4459.487179,4236.923076,4238.974358,4502.564102,4206.666666,4662.564102,4020.000000,4060.512820
174,4395.384615,4539.487179,4529.743589,4264.102564,4522.051282,4218.461538,4454.358974,4230.769230,4237.435897,4497.948717,4209.743589,4656.923076,4015.384615,4057.435897
175,4391.282051,4536.410256,4525.128205,4261.025641,4520.000000,4216.410256,4446.153846,4223.589743,4231.282051,4501.025641,4205.641025,4653.846153,4013.333333,4054.871794
176,4392.307692,4540.512820,4531.794871,4262.051282,4523.076923,4211.794871,4444.615384,4216.923076,4225.641025,4495.897435,4191.794871,4653.333333,4007.692307,4051.794871
177,4396.410256,4548.717948,4535.897435,4268.717948,4522.564102,4211.282051,4444.102564,4216.923076,4232.307692,4494.358974,4187.179487,4654.871794,4009.230769,4052.820512
178,4399.487179,4555.384615,4536.410256,4279.487179,4524.102564,4216.410256,4443.589743,4221.538461,4240.000000,4498.974358,4192.307692,4659.487179,4014.871794,4055.897435
179,4403.076923,4555.384615,4541.025641,4283.076923,4531.282051,4218.974358,4445.641025,4224.615384,4235.897435,4498.974358,4196.410256,4664.102564,4013.846153,4056.923076
180,4404.615384,4548.717948,4543.589743,4279.487179,4533.333333,4217.435897,4445.128205,4229.230769,4228.205128,4499.487179,4204.102564,4664.102564,4011.794871,4061.025641
181,4402.051282,4546.666666,4540.512820,4278.974358,4526.153846,4214.871794,4444.102564,4232.820512,4231.794871,4500.000000,4213.333333,4663.076923,4017.948717,4064.615384
182,4402.564102,4553.333333,4541.538461,4278.974358,4521.538461,4218.461538,4448.205128,4234.871794,4243.589743,4500.000000,4213.846153,4665.128205,4028.717948,4069.230769
183,4406.153846,4553.333333,4542.051282,4277.948717,4522.564102,4218.974358,4448.717948,4231.282051,4245.641025,4508.717948,4208.717948,4667.179487,4031.794871,4072.307692
184,4400.512820,4544.102564,4538.974358,4276.410256,4521.025641,4209.743589,4442.564102,4225.641025,4235.384615,4511.282051,4205.128205,4665.128205,4026.666666,4065.128205
185,4396.923076,4545.128205,4536.410256,4277.948717,4522.051282,4209.230769,4440.512820,4227.179487,4230.256410,4498.461538,4203.589743,4661.538461,4025.641025,4059.487179
186,4401.025641,4553.846153,4536.410256,4280.000000,4525.641025,4217.435897,4443.589743,4229.230769,4236.923076,4493.846153,4204.615384,4660.512820,4030.769230,4063.076923
187,4400.000000,4551.282051,4534.358974,4275.897435,4522.564102,4217.435897,4443.076923,4223.076923,4236.923076,4500.512820,4206.153846,4658.461538,4029.743589,4063.589743
188,4398.461538,4550.256410,4537.435897,4275.384615,4520.512820,4216.923076,4443.589743,4226.666666,4235.384615,4507.179487,4206.666666,4660.000000,4031.282051,4064.615384
189,4400.000000,4555.384615,4535.897435,4280.000000,4523.589743,4222.051282,4446.666666,4236.923076,4240.512820,4509.743589,4208.717948,4664.102564,4033.333333,4067.692307
190,4395.897435,4546.153846,4526.666666,4277.435897,4520.512820,4216.410256,4442.051282,4230.256410,4237.435897,4502.051282,4208.717948,4655.384615,4021.025641,4059.487179
191,4395.384615,4541.025641,4530.256410,4275.384615,4519.487179,4213.333333,4443.076923,4225.641025,4231.794871,4492.820512,4206.153846,4648.717948,4015.897435,4054.871794
192,4398.974358,4552.820512,4535.897435,4281.025641,4525.128205,4224.102564,4452.307692,4232.820512,4237.435897,4496.923076,4203.076923,4653.333333,4021.025641,4061.025641
193,4397.948717,4553.333333,4526.153846,4277.948717,4521.025641,4226.666666,4451.282051,4234.358974,4241.025641,4504.102564,4206.153846,4652.307692,4016.923076,4056.410256
194,4394.871794,4538.974358,4518.974358,4266.153846,4516.410256,4219.487179,4444.102564,4231.794871,4238.461538,4502.051282,4204.615384,4644.615384,4014.358974,4047.179487
195,4392.820512,4534.358974,4523.076923,4261.025641,4519.487179,4216.923076,4443.076923,4228.717948,4232.307692,4497.435897,4194.871794,4645.641025,4016.410256,4050.256410
196,4390.769230,4538.974358,4525.128205,4264.102564,4512.307692,4217.435897,4444.615384,4220.512820,4225.641025,4491.282051,4196.410256,4651.794871,4009.743589,4055.384615
197,4392.307692,4538.461538,4523.589743,4265.128205,4508.205128,4215.384615,4439.487179,4214.358974,4224.615384,4487.179487,4200.512820,4651.794871,4003.589743,4050.256410
198,4394.358974,4535.384615,4525.128205,4263.076923,4514.358974,4212.307692,4432.307692,4212.820512,4222.564102,4485.128205,4197.435897,4649.230769,4005.128205,4045.641025
199,4394.871794,4534.871794,4529.743589,4267.692307,4515.384615,4211.282051,4431.794871,4210.256410,4215.384615,4485.641025,4196.410256,4650.769230,4008.717948,4051.282051
200,4399.487179,4545.128205,4538.461538,4278.461538,4515.897435,4214.871794,4439.487179,4216.923076,4225.641025,4496.923076,4204.615384,4658.461538,4016.410256,4057.435897
201,4401.538461,4551.794871,4540.000000,4280.512820,4520.000000,4220.512820,4444.102564,4226.153846,4242.051282,4507.179487,4210.256410,4662.564102,4020.512820,4056.410256
202,4402.564102,4548.717948,4536.410256,4274.358974,4521.538461,4217.948717,4440.512820,4220.512820,4234.871794,4498.974358,4210.769230,4658.461538,4014.358974,4058.974358
203,4406.666666,4547.692307,4537.435897,4276.410256,4517.435897,4214.871794,4440.512820,4214.358974,4224.615384,4492.820512,4213.846153,4660.000000,4013.333333,4066.666666
204,4405.128205,4544.102564,4537.948717,4281.538461,4513.333333,4215.384615,4443.589743,4220.000000,4232.307692,4496.410256,4207.692307,4662.564102,4012.820512,4060.512820
205,4400.512820,4541.538461,4536.923076,4277.948717,4513.846153,4217.435897,4443.076923,4223.589743,4236.410256,4490.769230,4201.025641,4658.461538,4006.666666,4049.230769
206,4404.615384,4547.692307,4540.000000,4275.897435,4513.846153,4218.461538,4443.076923,4221.025641,4235.384615,4489.230769,4209.743589,4660.512820,4010.256410,4056.923076
207,4405.641025,4549.743589,4537.948717,4279.487179,4514.358974,4216.923076,4443.076923,4223.076923,4241.538461,4500.000000,4216.410256,4662.051282,4014.871794,4066.666666
208,4400.512820,4545.641025,4532.307692,4280.000000,4516.410256,4215.384615,4443.076923,4227.179487,4244.102564,4499.487179,4211.282051,4654.358974,4007.692307,4058.461538
209,4404.102564,4551.282051,4533.333333,4278.461538,4516.923076,4217.435897,4444.102564,4230.256410,4238.461538,4490.256410,4212.820512,4652.307692,4009.230769,4057.435897
210,4408.205128,4557.435897,4538.461538,4278.974358,4515.384615,4223.076923,4446.666666,4232.820512,4241.025641,4493.333333,4220.512820,4660.512820,4020.512820,4066.666666
211,4403.076923,4548.205128,4538.974358,4276.923076,4516.923076,4223.076923,4447.692307,4227.692307,4249.230769,4497.948717,4218.461538,4658.461538,4018.974358,4061.538461
212,4398.461538,4543.589743,4532.307692,4272.820512,4512.820512,4218.461538,4445.641025,4224.102564,4251.282051,4492.820512,4212.820512,4652.307692,4012.820512,4053.333333
213,4398.974358,4549.230769,4529.230769,4275.384615,4504.102564,4215.897435,4444.615384,4230.256410,4249.230769,4490.769230,4210.256410,4657.948717,4014.358974,4057.948717
214,4397.948717,4547.692307,4534.358974,4280.000000,4506.153846,4216.410256,4443.589743,4228.205128,4240.000000,4493.333333,4212.307692,4657.435897,4009.743589,4057.948717
215,4396.923076,4544.102564,4534.358974,4280.512820,4513.333333,4220.512820,4444.102564,4223.076923,4235.897435,4489.743589,4216.923076,4649.230769,4001.025641,4052.307692
216,4397.435897,4547.692307,4530.769230,4278.974358,4516.923076,4223.076923,4447.692307,4228.205128,4241.538461,4490.256410,4215.384615,4651.282051,4001.025641,4055.897435
217,4396.410256,4546.153846,4530.256410,4277.435897,4513.333333,4220.000000,4447.692307,4228.717948,4244.615384,4493.846153,4205.641025,4654.871794,3999.487180,4053.333333
218,4395.384615,4537.948717,4529.743589,4276.410256,4505.128205,4214.871794,4442.564102,4223.589743,4242.564102,4489.230769,4202.564102,4649.743589,3993.846154,4042.051282
219,4397.435897,4537.435897,4529.743589,4276.410256,4506.666666,4213.846153,4440.512820,4221.538461,4239.487179,4488.205128,4213.333333,4653.333333,3998.974359,4047.692307
220,4398.461538,4537.435897,4537.435897,4276.410256,4506.153846,4214.871794,4444.102564,4224.615384,4235.897435,4494.358974,4222.564102,4665.128205,4005.641025,4061.538461
221,4397.948717,4533.333333,4541.025641,4275.384615,4501.538461,4216.410256,4446.666666,4225.128205,4235.384615,4491.794871,4216.410256,4666.666666,4004.102564,4061.025641
222,4398.974358,4535.384615,4538.461538,4276.410256,4505.641025,4218.461538,4448.205128,4223.589743,4238.974358,4490.769230,4209.743589,4665.641025,4002.564102,4055.897435
223,4400.000000,4538.974358,4540.000000,4278.974358,4508.205128,4217.948717,4449.230769,4223.589743,4240.512820,4499.487179,4212.820512,4668.717948,4004.615384,4057.948717
224,4397.435897,4537.948717,4538.461538,4275.384615,4504.615384,4213.333333,4445.128205,4224.102564,4238.461538,4499.487179,4210.769230,4663.589743,4002.564102,4055.897435
225,4395.384615,4537.948717,4533.846153,4266.153846,4506.666666,4211.282051,4442.564102,4220.000000,4237.435897,4493.846153,4203.076923,4656.923076,3998.974359,4051.794871
226,4391.794871,4536.923076,4528.717948,4262.564102,4504.102564,4212.820512,4440.512820,4211.794871,4229.230769,4487.179487,4201.025641,4658.461538,3996.923077,4050.256410
227,4383.076923,4531.282051,4522.051282,4264.102564,4493.846153,4205.641025,4436.410256,4204.102564,4218.461538,4476.410256,4202.051282,4654.358974,3991.282052,4043.076923
228,4381.025641,4529.230769,4520.000000,4265.641025,4498.461538,4201.538461,4435.384615,4201.025641,4220.000000,4474.358974,4200.512820,4648.205128,3988.717949,4037.948717
229,4391.794871,4535.897435,4527.179487,4266.153846,4507.179487,4211.282051,4441.538461,4209.230769,4230.256410,4479.487179,4203.589743,4653.333333,3998.974359,4046.666666
230,4398.461538,4548.205128,4537.435897,4271.794871,4508.205128,4217.435897,4447.692307,4220.000000,4239.487179,4488.205128,4206.153846,4661.538461,4009.743589,4056.410256
231,4397.435897,4552.307692,4537.948717,4275.897435,4511.794871,4214.358974,4446.153846,4226.153846,4243.076923,4495.384615,4200.000000,4663.076923,4009.230769,4056.923076
232,4396.923076,4545.128205,4535.897435,4270.769230,4512.820512,4214.871794,4444.615384,4233.333333,4244.102564,4497.435897,4203.589743,4663.076923,4009.743589,4058.461538
233,4392.820512,4543.589743,4536.410256,4266.666666,4512.820512,4216.410256,4452.820512,4236.923076,4244.615384,4500.000000,4214.871794,4665.128205,4014.871794,4063.076923
234,4383.589743,4546.153846,4530.256410,4265.128205,4515.384615,4213.846153,4454.871794,4226.666666,4241.538461,4497.948717,4210.769230,4660.000000,4010.769230,4057.435897
235,4378.974358,4545.128205,4520.512820,4265.641025,4514.358974,4214.871794,4445.128205,4217.435897,4233.846153,4487.179487,4201.025641,4648.717948,4001.538461,4045.128205
236,4380.512820,4547.692307,4521.025641,4269.743589,4514.871794,4215.897435,4446.666666,4219.487179,4228.717948,4483.589743,4196.410256,4648.205128,3999.487180,4045.641025
237,4382.564102,4555.897435,4529.230769,4270.769230,4523.589743,4216.410256,4458.461538,4222.564102,4230.769230,4491.794871,4192.820512,4655.384615,4002.564102,4054.871794
238,4387.179487,4556.410256,4536.410256,4269.743589,4525.128205,4222.564102,4459.487179,4222.564102,4236.410256,4497.435897,4201.538461,4655.384615,4009.743589,4056.923076
239,4391.282051,4552.820512,4538.461538,4274.871794,4522.564102,4229.743589,4458.974358,4227.179487,4240.512820,4498.974358,4214.871794,4657.435897,4016.410256,4054.358974
240,4387.692307,4555.384615,4538.461538,4273.333333,4525.641025,4225.128205,4462.564102,4231.282051,4240.512820,4499.487179,4206.666666,4662.051282,4014.871794,4053.846153
241,4381.538461,4551.794871,4538.974358,4260.000000,4522.051282,4214.871794,4460.512820,4229.230769,4241.025641,4499.487179,4196.410256,4658.461538,4010.256410,4053.333333
242,4380.000000,4544.102564,4540.000000,4258.974358,4518.974358,4214.358974,4458.974358,4231.794871,4241.538461,4503.589743,4201.538461,4660.000000,4008.205128,4056.923076
243,4387.179487,4545.641025,4541.025641,4270.256410,4523.589743,4220.000000,4459.487179,4235.897435,4242.051282,4505.128205,4203.589743,4668.717948,4007.692307,4064.102564
244,4389.230769,4550.769230,4542.564102,4268.717948,4520.000000,4213.846153,4456.410256,4231.282051,4244.102564,4506.153846,4202.564102,4667.692307,4008.717948,4063.076923
245,4381.025641,4545.128205,4538.461538,4257.435897,4511.794871,4203.589743,4449.743589,4222.564102,4239.487179,4503.076923,4203.076923,4661.025641,4003.589743,4054.871794
246,4375.384615,4535.897435,4534.871794,4254.358974,4515.384615,4205.641025,4444.102564,4216.410256,4228.717948,4491.794871,4197.435897,4658.461538,3993.333334,4050.256410
247,4373.846153,4537.435897,4536.410256,4254.358974,4517.435897,4211.794871,4447.179487,4215.384615,4225.128205,4484.615384,4188.717948,4655.897435,3988.205129,4050.256410
248,4374.358974,4539.487179,4538.461538,4250.769230,4511.794871,4211.794871,4456.410256,4216.410256,4229.230769,4492.307692,4184.102564,4654.358974,3990.256411,4048.205128
249,4378.461538,4537.948717,4536.923076,4252.307692,4513.846153,4210.769230,4459.487179,4223.076923,4234.871794,4497.435897,4187.179487,4659.487179,3996.923077,4049.743589
250,4383.076923,4544.102564,4537.948717,4256.410256,4522.564102,4213.333333,4457.435897,4231.794871,4238.974358,4497.948717,4198.461538,4664.615384,4006.666666,4058.461538
251,4386.153846,4552.820512,4542.051282,4257.948717,4523.589743,4213.846153,4458.461538,4232.820512,4240.000000,4500.512820,4208.205128,4665.128205,4014.358974,4064.615384
252,4389.230769,4554.871794,4543.076923,4261.025641,4518.461538,4211.794871,4460.000000,4233.846153,4244.102564,4506.666666,4206.153846,4666.666666,4015.384615,4064.615384
253,4387.692307,4551.794871,4540.512820,4264.102564,4520.000000,4213.333333,4460.512820,4234.871794,4249.230769,4514.358974,4205.128205,4668.717948,4014.358974,4063.076923
254,4383.076923,4550.769230,4539.487179,4261.538461,4520.000000,4212.820512,4460.000000,4232.820512,4248.205128,4515.897435,4209.230769,4666.153846,4018.461538,4061.538461
255,4383.589743,4551.794871,4538.461538,4255.384615,4514.871794,4208.205128,4458.974358,4231.794871,4241.538461,4511.282051,4207.692307,4661.538461,4022.051282,4058.974358
