,AF3,F7,F3,FC5,T7,P7,O1,O2,P8,T8,FC6,F4,F8,AF4
0,4295.897435,4545.128205,4523.589743,4265.641025,4498.974358,4191.794871,4432.307692,4217.948717,4223.076923,4508.717948,4222.564102,4661.538461,3988.717949,4055.897435
1,4293.333333,4549.230769,4524.615384,4258.974358,4502.564102,4193.846153,4433.333333,4214.358974,4228.205128,4511.794871,4228.205128,4663.589743,3990.256411,4054.871794
2,4301.538461,4556.410256,4524.615384,4267.179487,4507.179487,4192.307692,4440.512820,4218.461538,4230.769230,4512.820512,4223.076923,4665.641025,3995.897436,4063.076923
3,4308.717948,4560.000000,4528.717948,4278.974358,4508.717948,4197.435897,4442.564102,4227.692307,4233.846153,4517.948717,4222.564102,4670.769230,3998.974359,4071.282051
4,4294.871794,4550.769230,4523.076923,4266.153846,4497.435897,4190.769230,4431.794871,4214.358974,4225.128205,4511.282051,4217.435897,4663.589743,3992.307693,4059.487179
5,4288.205128,4542.564102,4514.358974,4251.794871,4495.384615,4180.000000,4425.641025,4201.025641,4208.717948,4497.948717,4207.179487,4650.769230,3989.230770,4047.692307
6,4297.948717,4546.666666,4511.794871,4260.000000,4511.282051,4183.076923,4431.794871,4207.179487,4208.205128,4498.461538,4210.256410,4648.717948,3988.717949,4049.743589
7,4305.641025,4553.333333,4515.384615,4266.666666,4516.923076,4187.179487,4432.820512,4209.743589,4217.435897,4508.717948,4218.461538,4653.333333,3981.538462,4050.769230
8,4311.282051,4556.923076,4522.564102,4269.230769,4506.153846,4187.179487,4430.769230,4207.692307,4222.564102,4514.871794,4222.051282,4659.487179,3989.230770,4057.948717
9,4316.410256,4558.461538,4529.743589,4275.897435,4506.153846,4189.743589,4436.410256,4214.871794,4229.743589,4520.000000,4226.666666,4667.179487,4006.153846,4067.692307
10,4313.846153,4555.897435,4534.358974,4275.897435,4511.794871,4187.179487,4434.871794,4216.410256,4235.384615,4524.615384,4228.205128,4668.205128,4003.589743,4066.153846
11,4317.435897,4560.000000,4536.923076,4272.820512,4517.948717,4185.128205,4432.307692,4216.923076,4238.974358,4522.564102,4226.666666,4666.666666,3998.974359,4069.743589
12,4328.717948,4566.153846,4540.512820,4279.487179,4524.102564,4192.820512,4442.564102,4232.307692,4241.538461,4519.487179,4235.897435,4672.820512,4011.282051,4076.923076
13,4325.641025,4557.948717,4538.461538,4278.461538,4515.384615,4191.282051,4446.666666,4235.384615,4236.410256,4516.923076,4237.948717,4671.794871,4007.692307,4066.153846
14,4311.282051,4543.589743,4527.179487,4260.000000,4495.897435,4177.948717,4433.846153,4219.487179,4227.179487,4509.743589,4223.076923,4657.948717,3985.128206,4052.820512
15,4304.615384,4537.948717,4520.000000,4247.179487,4489.743589,4171.794871,4426.153846,4210.769230,4223.589743,4508.205128,4210.769230,4648.717948,3979.487180,4051.282051
16,4308.717948,4540.512820,4523.076923,4253.333333,4500.512820,4177.948717,4429.230769,4213.846153,4225.128205,4512.820512,4210.256410,4650.769230,3986.666667,4055.384615
17,4321.025641,4550.256410,4530.769230,4265.128205,4511.794871,4187.179487,4431.282051,4218.974358,4228.717948,4514.871794,4220.000000,4660.000000,3994.358975,4066.666666
18,4330.256410,4556.410256,4536.410256,4268.717948,4512.820512,4185.128205,4429.743589,4217.435897,4231.794871,4514.871794,4226.666666,4664.615384,3997.948718,4066.153846
19,4326.666666,4555.384615,4536.923076,4268.205128,4509.743589,4183.589743,4428.205128,4216.410256,4228.205128,4513.846153,4220.000000,4663.076923,3989.230770,4054.871794
20,4320.512820,4549.230769,4533.333333,4269.743589,4509.743589,4185.128205,4426.666666,4217.435897,4223.589743,4511.282051,4215.384615,4656.923076,3981.025642,4055.384615
21,4312.307692,4539.487179,4525.128205,4262.051282,4498.461538,4175.384615,4421.025641,4207.179487,4213.846153,4501.538461,4210.256410,4644.615384,3980.512821,4053.333333
22,4297.948717,4533.333333,4516.923076,4246.666666,4482.051282,4164.102564,4410.256410,4194.358974,4203.589743,4492.820512,4197.948717,4632.820512,3975.384616,4040.000000
23,4303.076923,4540.512820,4517.435897,4249.230769,4487.692307,4170.256410,4411.282051,4204.102564,4213.333333,4500.000000,4203.589743,4638.461538,3973.333334,4040.512820
24,4324.615384,4555.384615,4528.717948,4267.179487,4507.179487,4184.102564,4425.128205,4215.384615,4229.743589,4513.333333,4223.589743,4652.307692,3988.205129,4057.435897
25,4332.820512,4560.512820,4537.435897,4274.358974,4511.794871,4187.692307,4428.717948,4209.230769,4229.743589,4517.435897,4227.179487,4657.435897,4001.538461,4064.615384
26,4328.205128,4557.435897,4537.948717,4273.333333,4506.153846,4185.641025,4423.076923,4207.179487,4223.076923,4511.282051,4222.564102,4655.897435,3999.487180,4062.051282
27,4325.128205,4554.871794,4537.948717,4273.846153,4502.051282,4183.076923,4424.615384,4211.282051,4224.615384,4505.641025,4227.692307,4654.358974,3996.410257,4064.102564
28,4324.615384,4551.794871,4533.846153,4266.666666,4496.410256,4182.051282,4423.076923,4206.666666,4225.128205,4505.641025,4225.128205,4651.282051,3991.794872,4065.128205
29,4321.538461,4543.076923,4523.589743,4254.871794,4488.205128,4177.435897,4412.307692,4197.948717,4218.461538,4504.615384,4209.230769,4646.153846,3983.076924,4057.435897
30,4323.589743,4540.512820,4523.589743,4255.897435,4489.743589,4173.846153,4413.333333,4198.974358,4215.897435,4503.076923,4204.615384,4645.128205,3985.641026,4054.871794
31,4334.358974,4551.794871,4537.948717,4266.666666,4502.051282,4183.589743,4429.230769,4210.769230,4224.102564,4510.256410,4218.974358,4653.846153,3993.846154,4061.538461
32,4337.435897,4554.871794,4541.538461,4271.794871,4504.615384,4191.282051,4433.333333,4212.820512,4227.179487,4516.923076,4226.666666,4657.948717,3988.717949,4062.564102
33,4328.717948,4547.179487,4531.282051,4266.153846,4499.487179,4184.615384,4425.128205,4206.153846,4220.512820,4508.717948,4218.461538,4649.230769,3981.538462,4057.435897
34,4326.666666,4545.128205,4528.717948,4259.487179,4497.948717,4179.487179,4424.102564,4207.179487,4218.974358,4499.487179,4212.307692,4646.153846,3984.615385,4058.974358
35,4333.333333,4544.615384,4534.358974,4256.410256,4499.487179,4185.128205,4429.230769,4210.769230,4224.615384,4501.025641,4209.743589,4650.769230,3982.564103,4061.025641
36,4333.846153,4543.076923,4536.923076,4256.410256,4502.051282,4186.666666,4430.769230,4206.666666,4222.051282,4503.076923,4206.666666,4650.769230,3975.384616,4057.435897
37,4335.897435,4550.256410,4537.948717,4262.564102,4505.128205,4185.128205,4429.743589,4204.615384,4220.000000,4500.000000,4212.307692,4652.307692,3980.000000,4053.333333
38,4343.589743,4557.948717,4538.974358,4270.256410,4509.230769,4188.717948,4429.230769,4209.230769,4222.051282,4497.948717,4217.435897,4654.358974,3983.589744,4056.923076
39,4336.923076,4548.717948,4537.948717,4263.589743,4507.179487,4185.128205,4429.230769,4209.230769,4214.871794,4497.948717,4211.794871,4646.153846,3971.794872,4055.897435
40,4327.179487,4540.000000,4535.897435,4253.333333,4496.923076,4175.897435,4424.615384,4206.153846,4207.692307,4495.897435,4206.153846,4638.461538,3963.076924,4048.205128
41,4331.282051,4538.974358,4532.820512,4256.410256,4492.820512,4176.410256,4417.435897,4201.025641,4211.794871,4491.794871,4204.615384,4636.410256,3967.692308,4049.743589
42,4334.871794,4536.923076,4527.179487,4256.923076,4498.461538,4178.974358,4415.384615,4198.461538,4214.871794,4492.307692,4201.025641,4623.589743,3968.717949,4051.282051
43,4333.333333,4539.487179,4525.641025,4252.820512,4496.410256,4173.333333,4416.410256,4202.051282,4214.871794,4496.923076,4205.641025,4610.769230,3970.769231,4045.641025
44,4341.538461,4550.769230,4532.820512,4257.948717,4494.871794,4174.358974,4415.897435,4206.153846,4221.538461,4502.564102,4221.025641,4615.897435,3985.128206,4050.769230
45,4350.256410,4554.871794,4540.000000,4264.615384,4507.179487,4179.487179,4418.461538,4207.179487,4226.153846,4503.076923,4227.692307,4622.051282,3990.769231,4062.051282
46,4345.128205,4548.717948,4535.897435,4261.538461,4510.769230,4174.358974,4418.461538,4202.564102,4217.948717,4497.435897,4221.538461,4616.923076,3982.051283,4060.000000
47,4342.564102,4550.769230,4532.307692,4260.000000,4499.487179,4168.717948,4414.358974,4197.948717,4211.794871,4501.025641,4216.410256,4615.384615,3982.051283,4056.410256
48,4345.128205,4550.256410,4532.820512,4265.128205,4496.923076,4173.333333,4412.307692,4197.948717,4211.794871,4505.128205,4214.871794,4612.307692,3985.641026,4056.410256
49,4342.051282,4537.435897,4528.717948,4261.025641,4502.051282,4171.794871,4414.358974,4196.923076,4210.769230,4493.846153,4206.666666,4604.102564,3973.846154,4051.794871
50,4339.487179,4536.410256,4523.076923,4253.846153,4498.974358,4167.692307,4416.410256,4198.974358,4213.846153,4485.641025,4202.051282,4606.153846,3968.717949,4048.205128
51,4343.589743,4545.641025,4524.615384,4256.410256,4495.384615,4174.871794,4421.025641,4209.743589,4225.128205,4498.461538,4211.794871,4612.820512,3978.974359,4050.769230
52,4343.589743,4538.461538,4526.666666,4255.384615,4498.974358,4179.487179,4425.641025,4215.384615,4230.769230,4507.692307,4220.512820,4610.769230,3982.564103,4055.384615
53,4334.358974,4529.230769,4524.102564,4244.615384,4496.923076,4175.897435,4425.641025,4210.256410,4225.128205,4498.461538,4217.435897,4607.179487,3977.948718,4053.846153
54,4330.256410,4531.282051,4520.000000,4237.948717,4487.692307,4175.384615,4427.179487,4209.230769,4221.538461,4496.410256,4212.820512,4605.641025,3971.794872,4045.641025
55,4332.820512,4529.743589,4510.769230,4240.512820,4487.692307,4176.923076,4431.794871,4213.846153,4225.128205,4505.641025,4210.256410,4602.051282,3966.153847,4037.435897
56,4330.769230,4521.025641,4503.589743,4235.897435,4490.256410,4176.410256,4430.769230,4214.871794,4226.666666,4500.512820,4205.128205,4596.410256,3966.666667,4029.743589
57,4324.102564,4517.435897,4505.128205,4224.615384,4484.615384,4175.897435,4426.153846,4211.794871,4220.512820,4486.153846,4195.897435,4593.333333,3967.692308,4026.666666
58,4326.666666,4521.025641,4506.153846,4222.564102,4487.179487,4174.358974,4423.589743,4212.820512,4218.461538,4490.769230,4190.769230,4594.358974,3965.128206,4029.743589
59,4333.846153,4521.538461,4504.102564,4226.153846,4493.846153,4172.307692,4422.051282,4213.846153,4221.025641,4503.076923,4189.230769,4593.846153,3969.743590,4031.282051
60,4335.384615,4521.025641,4506.666666,4232.307692,4487.692307,4174.358974,4423.076923,4211.794871,4221.025641,4506.153846,4190.769230,4593.846153,3977.948718,4026.666666
61,4331.794871,4525.641025,4505.641025,4234.358974,4481.025641,4174.358974,4422.564102,4207.179487,4222.051282,4502.051282,4192.307692,4601.538461,3979.487180,4023.589743
62,4328.717948,4523.076923,4495.897435,4230.256410,4480.512820,4168.717948,4415.384615,4198.974358,4214.358974,4490.256410,4190.256410,4606.153846,3975.897436,4023.076923
63,4328.205128,4517.435897,4494.871794,4230.769230,4481.025641,4167.692307,4408.717948,4196.410256,4203.589743,4486.153846,4186.666666,4603.076923,3973.846154,4026.153846
64,4328.205128,4528.205128,4504.615384,4238.974358,4485.128205,4168.717948,4414.358974,4203.589743,4206.666666,4498.974358,4191.794871,4608.205128,3976.923077,4033.846153
65,4329.743589,4536.923076,4509.230769,4241.538461,4492.307692,4170.256410,4420.512820,4209.230769,4219.487179,4503.589743,4200.512820,4618.461538,3980.512821,4036.923076
66,4328.205128,4526.666666,4500.512820,4234.358974,4493.846153,4173.333333,4416.410256,4203.076923,4220.000000,4500.512820,4190.769230,4617.948717,3976.923077,4028.205128
67,4327.692307,4522.051282,4494.358974,4237.435897,4490.256410,4170.256410,4412.307692,4196.923076,4211.282051,4497.948717,4182.051282,4618.461538,3977.435898,4025.641025
68,4332.820512,4527.179487,4502.051282,4250.769230,4487.179487,4167.179487,4415.384615,4201.538461,4213.846153,4494.871794,4198.461538,4629.743589,3990.769231,4043.076923
69,4335.897435,4531.282051,4508.205128,4260.512820,4491.794871,4175.384615,4418.461538,4206.666666,4223.589743,4497.435897,4210.256410,4632.820512,3996.410257,4052.307692
70,4333.846153,4533.846153,4499.487179,4256.410256,4501.025641,4180.000000,4416.923076,4205.128205,4226.666666,4506.153846,4199.487179,4629.230769,3989.230770,4042.564102
71,4328.717948,4533.333333,4490.256410,4245.128205,4498.974358,4173.333333,4414.358974,4202.564102,4220.512820,4506.666666,4189.743589,4628.717948,3986.666667,4036.923076
72,4324.102564,4527.692307,4491.282051,4242.564102,4493.333333,4172.307692,4413.846153,4205.641025,4213.846153,4500.512820,4189.230769,4627.179487,3987.179488,4034.871794
73,4322.564102,4525.128205,4491.282051,4246.153846,4494.358974,4176.410256,4416.923076,4208.205128,4215.897435,4498.461538,4195.897435,4624.615384,3982.051283,4034.358974
74,4317.435897,4523.589743,4488.717948,4242.564102,4483.589743,4172.307692,4416.410256,4202.564102,4218.461538,4493.846153,4203.076923,4623.589743,3977.435898,4037.435897
75,4313.333333,4517.435897,4489.230769,4233.846153,4470.769230,4163.589743,4409.743589,4196.923076,4212.307692,4484.615384,4195.897435,4624.615384,3974.358975,4032.307692
76,4321.538461,4520.000000,4488.205128,4236.410256,4478.974358,4162.051282,4407.692307,4195.897435,4204.615384,4483.589743,4190.256410,4629.743589,3976.923077,4028.205128
77,4328.205128,4529.230769,4492.307692,4243.589743,4493.333333,4166.666666,4414.871794,4202.564102,4210.769230,4496.410256,4201.538461,4637.948717,3985.641026,4038.974358
78,4325.641025,4531.794871,4498.461538,4248.205128,4495.384615,4172.820512,4424.102564,4210.769230,4223.076923,4509.743589,4210.256410,4640.512820,3986.666667,4046.153846
79,4325.641025,4523.076923,4497.435897,4246.666666,4494.358974,4172.820512,4424.615384,4208.205128,4223.076923,4501.025641,4204.102564,4635.897435,3982.564103,4037.435897
80,4325.128205,4516.410256,4491.282051,4244.102564,4490.256410,4169.230769,4416.410256,4198.974358,4212.820512,4484.102564,4194.871794,4629.743589,3981.538462,4030.769230
81,4324.615384,4522.051282,4491.282051,4246.666666,4483.076923,4169.743589,4411.794871,4198.461538,4206.666666,4483.589743,4196.923076,4628.205128,3978.974359,4037.435897
82,4331.282051,4528.717948,4493.846153,4249.743589,4485.641025,4170.256410,4415.897435,4203.076923,4212.307692,4497.435897,4201.025641,4634.871794,3978.974359,4043.589743
83,4330.769230,4530.769230,4491.794871,4245.128205,4494.871794,4170.256410,4415.897435,4202.564102,4214.871794,4502.051282,4194.871794,4634.871794,3984.102565,4036.410256
84,4324.102564,4523.589743,4488.717948,4236.923076,4495.897435,4170.256410,4414.358974,4201.025641,4212.820512,4496.410256,4196.410256,4628.205128,3987.179488,4032.820512
85,4326.153846,4517.948717,4490.256410,4237.948717,4492.820512,4170.256410,4415.897435,4203.589743,4217.435897,4500.000000,4210.256410,4631.794871,3982.051283,4040.512820
86,4331.794871,4525.641025,4493.846153,4248.205128,4496.923076,4171.282051,4414.871794,4204.615384,4224.102564,4508.717948,4214.358974,4640.000000,3982.564103,4046.153846
87,4329.230769,4528.205128,4490.769230,4252.307692,4494.358974,4169.743589,4413.846153,4204.102564,4221.538461,4504.102564,4203.589743,4640.512820,3986.666667,4043.589743
88,4323.076923,4515.384615,4482.564102,4242.564102,4483.589743,4164.615384,4412.307692,4200.512820,4211.282051,4486.666666,4193.846153,4630.769230,3976.410257,4034.871794
89,4325.128205,4518.461538,4483.589743,4233.846153,4485.641025,4163.589743,4411.282051,4198.974358,4208.205128,4481.538461,4192.820512,4626.666666,3967.692308,4028.205128
90,4331.282051,4533.846153,4491.794871,4239.487179,4493.333333,4167.179487,4413.846153,4200.000000,4212.307692,4492.820512,4198.974358,4632.307692,3968.205129,4029.230769
91,4329.230769,4527.179487,4492.820512,4247.179487,4490.769230,4167.179487,4414.358974,4193.333333,4208.717948,4493.333333,4197.948717,4632.820512,3966.153847,4028.205128
92,4328.717948,4522.051282,4491.282051,4248.717948,4487.179487,4168.205128,4410.769230,4189.230769,4206.666666,4489.230769,4190.256410,4630.256410,3964.615385,4030.769230
93,4337.435897,4533.846153,4498.461538,4246.153846,4489.230769,4167.692307,4410.769230,4196.923076,4211.794871,4492.307692,4193.846153,4635.384615,3977.435898,4042.051282
94,4338.461538,4531.794871,4500.512820,4242.564102,4484.615384,4162.051282,4410.256410,4203.589743,4212.307692,4488.717948,4202.051282,4635.384615,3983.589744,4040.512820
95,4335.897435,4524.102564,4494.871794,4243.076923,4482.051282,4161.538461,4405.128205,4197.948717,4207.179487,4481.538461,4200.512820,4630.256410,3969.230770,4030.256410
96,4348.717948,4535.897435,4502.051282,4248.205128,4496.923076,4170.769230,4406.666666,4193.846153,4208.205128,4491.282051,4203.076923,4639.487179,3971.282052,4039.487179
97,4360.000000,4545.128205,4513.333333,4254.871794,4512.307692,4174.358974,4414.358974,4196.410256,4212.820512,4502.564102,4210.256410,4647.179487,3987.692308,4051.282051
98,4357.948717,4539.487179,4510.769230,4261.025641,4511.794871,4170.256410,4414.358974,4196.923076,4211.794871,4497.435897,4207.179487,4640.000000,3986.666667,4048.717948
99,4357.948717,4540.512820,4506.666666,4258.461538,4502.051282,4169.743589,4411.282051,4200.512820,4208.717948,4495.897435,4203.589743,4639.487179,3977.948718,4047.179487
100,4356.410256,4541.538461,4506.153846,4249.230769,4494.358974,4170.256410,4410.769230,4199.487179,4206.153846,4488.205128,4202.051282,4643.589743,3974.358975,4046.666666
101,4345.128205,4529.743589,4497.435897,4241.538461,4489.743589,4162.564102,4408.205128,4189.230769,4203.076923,4474.871794,4193.333333,4635.897435,3966.666667,4036.410256
102,4342.051282,4524.102564,4488.205128,4235.384615,4489.230769,4156.923076,4405.128205,4187.692307,4201.538461,4474.871794,4187.179487,4627.692307,3963.589744,4028.205128
103,4349.230769,4529.743589,4492.820512,4232.820512,4491.282051,4163.589743,4410.256410,4198.461538,4205.128205,4485.128205,4193.333333,4634.358974,3971.794872,4036.410256
104,4349.743589,4530.256410,4501.538461,4240.000000,4493.846153,4171.282051,4417.948717,4204.102564,4213.846153,4493.333333,4201.538461,4637.948717,3977.435898,4046.666666
105,4351.282051,4530.256410,4501.538461,4247.179487,4497.948717,4171.794871,4417.435897,4205.641025,4217.948717,4493.846153,4208.205128,4634.358974,3982.564103,4047.692307
106,4361.025641,4539.487179,4502.564102,4251.282051,4502.051282,4172.307692,4416.923076,4210.769230,4221.025641,4493.846153,4214.871794,4637.948717,3992.820513,4048.717948
107,4354.871794,4540.512820,4501.538461,4248.717948,4497.948717,4170.256410,4413.333333,4205.128205,4220.512820,4495.384615,4214.358974,4636.923076,3991.282052,4047.179487
108,4346.666666,4532.307692,4493.333333,4243.076923,4487.179487,4163.076923,4402.564102,4194.358974,4211.282051,4493.846153,4207.179487,4627.692307,3980.000000,4040.000000
109,4358.974358,4535.897435,4495.384615,4245.641025,4490.256410,4164.102564,4402.051282,4197.435897,4209.230769,4494.871794,4206.153846,4630.256410,3982.051283,4043.076923
110,4370.769230,4540.512820,4503.076923,4247.179487,4506.153846,4172.307692,4414.358974,4204.102564,4215.384615,4498.461538,4211.794871,4640.512820,3989.743590,4052.307692
111,4365.128205,4539.487179,4504.102564,4245.128205,4507.692307,4173.846153,4420.000000,4203.589743,4217.435897,4498.461538,4214.358974,4636.923076,3987.179488,4047.179487
112,4361.025641,4537.948717,4498.461538,4248.205128,4495.384615,4169.230769,4415.384615,4202.564102,4218.974358,4494.871794,4210.256410,4627.692307,3977.435898,4040.000000
113,4362.564102,4534.871794,4495.897435,4250.256410,4487.692307,4165.641025,4409.743589,4202.051282,4216.410256,4491.282051,4204.615384,4627.179487,3968.717949,4039.487179
114,4364.102564,4535.897435,4498.974358,4247.692307,4488.205128,4166.153846,4407.692307,4199.487179,4207.692307,4487.692307,4204.102564,4631.794871,3971.794872,4036.923076
115,4369.743589,4540.512820,4507.179487,4249.743589,4492.820512,4169.230769,4411.794871,4198.974358,4207.692307,4490.769230,4207.692307,4635.897435,3982.564103,4042.051282
116,4374.871794,4542.051282,4510.769230,4253.333333,4498.974358,4169.743589,4413.846153,4200.512820,4214.358974,4489.230769,4207.692307,4636.410256,3978.461539,4048.205128
117,4371.282051,4538.461538,4506.666666,4250.769230,4493.333333,4167.179487,4411.794871,4198.461538,4208.205128,4478.461538,4206.666666,4630.769230,3964.615385,4041.025641
118,4365.641025,4536.923076,4507.692307,4247.179487,4486.666666,4168.717948,4413.846153,4196.923076,4201.025641,4477.948717,4201.025641,4625.641025,3963.076924,4036.923076
119,4364.102564,4532.820512,4507.692307,4241.025641,4492.820512,4170.769230,4413.846153,4197.435897,4202.564102,4482.051282,4190.256410,4623.589743,3966.666667,4037.948717
120,4365.128205,4528.717948,4499.487179,4236.923076,4492.820512,4167.179487,4409.230769,4195.897435,4206.153846,4481.025641,4190.256410,4619.487179,3963.589744,4036.410256
121,4366.666666,4533.333333,4501.025641,4244.615384,4487.179487,4168.205128,4415.897435,4197.948717,4209.230769,4480.000000,4206.666666,4621.025641,3969.743590,4043.589743
122,4372.820512,4538.461538,4512.307692,4252.820512,4493.846153,4173.333333,4426.153846,4204.102564,4212.820512,4484.102564,4220.512820,4631.794871,3978.974359,4052.307692
123,4377.948717,4537.948717,4512.820512,4247.692307,4495.897435,4170.256410,4418.461538,4204.102564,4210.769230,4486.153846,4216.410256,4633.846153,3972.820513,4048.717948
124,4377.435897,4533.846153,4509.230769,4245.641025,4488.205128,4165.128205,4412.307692,4198.974358,4207.179487,4486.666666,4208.717948,4628.205128,3967.692308,4046.153846
125,4376.923076,4533.846153,4515.897435,4253.333333,4490.769230,4169.230769,4420.000000,4204.615384,4208.205128,4487.692307,4207.179487,4625.641025,3974.871795,4047.179487
126,4378.974358,4533.846153,4515.897435,4252.820512,4490.256410,4173.846153,4425.641025,4211.794871,4214.871794,4490.256410,4210.769230,4624.615384,3978.974359,4045.641025
127,4381.538461,4534.358974,4507.692307,4247.179487,4478.974358,4172.307692,4424.102564,4211.282051,4222.564102,4494.358974,4220.000000,4623.076923,3977.435898,4045.128205
128,4381.025641,4537.435897,4507.179487,4244.102564,4478.974358,4170.256410,4420.512820,4207.179487,4218.461538,4492.307692,4218.461538,4620.512820,3971.794872,4043.589743
129,4380.000000,4533.333333,4509.230769,4243.589743,4489.743589,4170.256410,4420.512820,4203.076923,4213.846153,4487.692307,4205.128205,4615.384615,3968.205129,4046.153846
130,4381.025641,4531.794871,4507.179487,4245.641025,4493.846153,4170.256410,4420.000000,4206.153846,4217.948717,4494.871794,4205.128205,4614.871794,3974.358975,4053.333333
131,4382.051282,4535.897435,4509.230769,4250.256410,4490.769230,4170.256410,4417.435897,4212.820512,4218.461538,4501.025641,4215.384615,4621.025641,3981.538462,4051.282051
132,4380.512820,4533.846153,4508.717948,4252.307692,4482.051282,4169.743589,4415.384615,4210.769230,4213.846153,4489.230769,4210.256410,4618.974358,3973.846154,4043.589743
133,4380.512820,4530.769230,4506.666666,4248.205128,4480.000000,4169.743589,4415.384615,4199.487179,4212.307692,4476.410256,4201.025641,4610.769230,3963.589744,4043.589743
134,4385.641025,4535.897435,4507.179487,4245.128205,4487.692307,4171.282051,4418.974358,4197.435897,4212.307692,4480.000000,4206.666666,4610.769230,3963.589744,4046.666666
135,4387.179487,4538.974358,4507.179487,4243.589743,4492.307692,4171.282051,4420.512820,4206.666666,4212.307692,4488.205128,4209.230769,4614.358974,3970.256411,4050.769230
136,4382.564102,4531.794871,4504.102564,4242.051282,4486.666666,4167.692307,4412.307692,4202.564102,4208.205128,4482.051282,4200.512820,4610.769230,3968.205129,4049.230769
137,4376.410256,4524.615384,4501.025641,4241.025641,4483.076923,4164.615384,4403.589743,4189.230769,4200.000000,4466.666666,4196.923076,4601.025641,3956.410257,4035.384615
138,4379.487179,4528.717948,4500.000000,4244.615384,4484.615384,4169.230769,4408.205128,4190.769230,4203.076923,4469.743589,4201.538461,4599.487179,3956.923077,4027.179487
139,4389.743589,4537.948717,4505.641025,4248.205128,4486.666666,4175.384615,4415.897435,4203.589743,4214.871794,4487.692307,4210.769230,4612.820512,3971.794872,4041.025641
140,4395.384615,4540.512820,4514.358974,4249.230769,4494.358974,4175.897435,4413.333333,4206.153846,4220.000000,4496.923076,4218.461538,4622.051282,3981.538462,4060.000000
141,4402.564102,4542.051282,4516.923076,4252.820512,4501.025641,4177.948717,4414.871794,4208.205128,4225.128205,4497.948717,4220.512820,4620.000000,3984.102565,4065.641025
142,4411.282051,4547.692307,4517.948717,4256.923076,4497.948717,4182.564102,4422.564102,4212.820512,4230.256410,4505.128205,4219.487179,4620.000000,3990.256411,4061.538461
143,4408.717948,4551.282051,4522.564102,4265.128205,4497.435897,4187.692307,4422.564102,4212.307692,4230.256410,4509.230769,4226.153846,4624.615384,3993.333334,4058.974358
144,4400.512820,4547.692307,4523.589743,4267.692307,4497.435897,4181.538461,4417.948717,4211.282051,4226.153846,4502.051282,4229.743589,4622.051282,3985.128206,4060.000000
145,4405.128205,4544.102564,4520.000000,4255.897435,4492.820512,4171.282051,4418.461538,4212.307692,4222.564102,4496.923076,4221.538461,4616.410256,3978.461539,4061.025641
146,4414.871794,4549.230769,4522.564102,4255.384615,4495.897435,4175.384615,4420.000000,4212.820512,4225.128205,4501.025641,4221.538461,4620.512820,3986.153847,4063.589743
147,4413.846153,4554.358974,4524.102564,4264.102564,4500.000000,4177.948717,4418.461538,4215.897435,4229.230769,4502.564102,4225.128205,4625.641025,3990.769231,4067.179487
148,4408.205128,4548.717948,4519.487179,4256.923076,4494.358974,4175.384615,4418.461538,4217.948717,4228.717948,4501.538461,4226.153846,4623.076923,3984.102565,4066.666666
149,4404.615384,4538.461538,4521.538461,4247.179487,4491.282051,4177.948717,4417.948717,4213.333333,4226.666666,4501.538461,4225.641025,4620.000000,3981.538462,4058.461538
150,4401.538461,4534.871794,4520.000000,4251.282051,4486.666666,4176.410256,4413.846153,4207.692307,4224.615384,4494.871794,4216.923076,4616.923076,3980.512821,4050.769230
151,4396.923076,4532.820512,4506.666666,4249.230769,4473.846153,4166.666666,4408.717948,4201.538461,4218.974358,4484.615384,4205.641025,4607.692307,3971.282052,4048.717948
152,4394.358974,4533.333333,4506.666666,4242.051282,4480.000000,4165.128205,4411.282051,4198.974358,4218.461538,4485.641025,4205.641025,4604.615384,3968.205129,4051.282051
153,4403.589743,4538.974358,4518.974358,4251.282051,4495.897435,4178.461538,4421.025641,4206.666666,4222.051282,4493.333333,4213.846153,4610.256410,3975.897436,4056.923076
154,4410.769230,4538.974358,4516.923076,4257.435897,4492.820512,4184.102564,4422.051282,4211.794871,4220.512820,4494.871794,4214.358974,4611.282051,3981.025642,4054.358974
155,4404.102564,4535.384615,4510.769230,4250.769230,4487.692307,4175.897435,4414.358974,4206.153846,4215.384615,4490.256410,4208.205128,4606.666666,3980.000000,4044.102564
156,4398.461538,4533.846153,4511.794871,4247.179487,4491.282051,4171.282051,4412.820512,4198.461538,4211.794871,4484.615384,4204.615384,4603.589743,3973.846154,4041.025641
157,4404.615384,4535.897435,4512.820512,4247.179487,4489.230769,4178.974358,4418.974358,4196.923076,4213.846153,4481.538461,4208.717948,4606.666666,3967.179488,4048.205128
158,4411.794871,4538.974358,4513.333333,4246.666666,4491.282051,4183.076923,4423.589743,4202.051282,4218.461538,4486.666666,4213.846153,4610.769230,3972.820513,4054.358974
159,4413.333333,4540.512820,4515.384615,4251.794871,4497.435897,4181.025641,4422.564102,4208.205128,4221.025641,4498.461538,4211.282051,4608.205128,3987.179488,4056.410256
160,4411.282051,4541.025641,4510.769230,4254.871794,4495.897435,4182.564102,4420.512820,4205.128205,4222.564102,4502.564102,4207.692307,4603.076923,3992.307693,4054.358974
161,4412.820512,4537.948717,4508.717948,4250.256410,4497.435897,4185.641025,4420.512820,4203.589743,4221.025641,4496.923076,4210.769230,4604.615384,3987.179488,4046.153846
162,4413.846153,4537.435897,4511.794871,4249.230769,4504.102564,4184.102564,4420.000000,4212.307692,4217.435897,4495.384615,4215.384615,4613.333333,3989.230770,4045.641025
163,4405.641025,4540.000000,4507.692307,4247.179487,4496.923076,4175.384615,4414.358974,4209.230769,4215.897435,4495.897435,4209.230769,4612.307692,3994.871795,4053.333333
164,4400.512820,4537.948717,4504.102564,4248.717948,4485.128205,4170.769230,4409.743589,4196.410256,4217.948717,4495.384615,4197.435897,4605.641025,3993.333334,4054.871794
165,4406.666666,4537.435897,4509.743589,4258.974358,4489.230769,4178.974358,4414.358974,4204.102564,4218.974358,4498.974358,4199.487179,4612.307692,3992.820513,4052.820512
166,4414.358974,4547.692307,4516.410256,4268.205128,4501.538461,4192.820512,4427.692307,4221.025641,4227.692307,4510.769230,4216.923076,4629.743589,4003.589743,4060.512820
167,4412.820512,4552.820512,4520.512820,4268.205128,4507.179487,4197.435897,4434.358974,4222.564102,4240.512820,4520.000000,4224.615384,4635.897435,4011.282051,4065.128205
168,4403.076923,4543.076923,4518.974358,4266.153846,4508.717948,4190.769230,4430.256410,4218.461538,4238.974358,4513.333333,4212.820512,4628.717948,4003.589743,4054.358974
169,4397.948717,4537.435897,4512.820512,4264.615384,4507.692307,4188.717948,4431.282051,4218.974358,4229.743589,4503.076923,4203.076923,4626.666666,3996.923077,4049.743589
170,4394.358974,4534.871794,4507.692307,4258.461538,4500.000000,4192.820512,4434.358974,4218.461538,4228.205128,4502.051282,4207.692307,4630.769230,3997.435898,4056.923076
171,4384.615384,4531.282051,4508.205128,4255.897435,4493.333333,4189.743589,4431.794871,4217.435897,4226.666666,4501.538461,4210.256410,4629.230769,3992.820513,4057.435897
172,4381.538461,4530.769230,4507.692307,4258.461538,4494.871794,4182.051282,4426.666666,4211.794871,4220.512820,4497.948717,4206.153846,4624.102564,3983.076924,4047.692307
173,4387.179487,4529.230769,4503.589743,4254.358974,4497.948717,4183.589743,4423.076923,4203.589743,4217.948717,4494.358974,4205.128205,4622.051282,3982.564103,4038.974358
174,4386.153846,4528.717948,4504.615384,4252.820512,4498.974358,4187.692307,4420.512820,4206.153846,4220.000000,4495.897435,4201.025641,4624.102564,3991.282052,4040.512820
175,4384.102564,4531.794871,4507.179487,4259.487179,4498.974358,4183.076923,4421.538461,4210.769230,4221.538461,4497.435897,4200.000000,4626.153846,3990.769231,4046.666666
176,4389.743589,4532.307692,4507.179487,4258.974358,4493.846153,4178.974358,4420.512820,4206.666666,4219.487179,4495.897435,4203.076923,4627.692307,3982.051283,4048.205128
177,4389.230769,4531.282051,4506.153846,4251.794871,4484.102564,4176.923076,4416.923076,4203.076923,4214.358974,4494.358974,4199.487179,4626.153846,3977.435898,4044.102564
178,4387.179487,4532.820512,4505.128205,4251.794871,4488.717948,4174.358974,4417.435897,4203.076923,4212.820512,4494.358974,4196.923076,4625.128205,3980.512821,4044.102564
179,4391.794871,4534.358974,4504.615384,4258.461538,4504.615384,4175.384615,4417.948717,4205.641025,4217.435897,4493.333333,4204.102564,4626.666666,3986.666667,4049.230769
180,4397.948717,4538.461538,4508.205128,4266.666666,4508.717948,4182.564102,4420.000000,4212.307692,4224.615384,4497.435897,4208.717948,4632.820512,3994.358975,4056.410256
181,4401.025641,4542.051282,4512.820512,4270.769230,4502.564102,4180.512820,4420.000000,4213.846153,4224.615384,4501.025641,4205.128205,4635.384615,3996.923077,4060.000000
182,4396.923076,4537.435897,4509.230769,4261.025641,4489.230769,4166.666666,4413.333333,4204.615384,4211.794871,4491.282051,4204.102564,4629.743589,3988.717949,4054.871794
183,4393.333333,4536.410256,4505.128205,4254.871794,4478.974358,4163.589743,4410.256410,4199.487179,4209.743589,4487.179487,4206.666666,4626.153846,3984.615385,4051.794871
184,4404.102564,4545.128205,4508.205128,4265.641025,4489.230769,4175.384615,4415.384615,4207.692307,4220.000000,4497.435897,4207.179487,4631.282051,3992.307693,4054.358974
185,4409.743589,4549.743589,4510.256410,4270.769230,4503.076923,4178.974358,4417.948717,4209.743589,4219.487179,4496.923076,4205.128205,4628.717948,3997.948718,4053.846153
186,4394.871794,4542.564102,4505.128205,4264.615384,4504.615384,4176.410256,4420.512820,4207.179487,4214.871794,4494.358974,4204.102564,4617.435897,3993.333334,4048.205128
187,4386.153846,4532.820512,4503.589743,4260.000000,4501.538461,4180.512820,4424.615384,4212.307692,4221.025641,4501.025641,4206.666666,4615.384615,3987.692308,4045.641025
188,4393.846153,4534.871794,4505.641025,4259.487179,4497.435897,4182.051282,4423.589743,4217.948717,4225.128205,4500.512820,4209.743589,4622.051282,3989.230770,4049.743589
189,4393.846153,4538.974358,4505.128205,4260.512820,4489.230769,4172.820512,4420.512820,4214.358974,4218.461538,4494.871794,4205.641025,4624.102564,3990.769231,4048.717948
190,4385.128205,4531.794871,4503.589743,4259.487179,4482.564102,4165.641025,4416.410256,4207.179487,4213.846153,4495.384615,4198.461538,4620.000000,3984.102565,4041.538461
191,4386.666666,4525.641025,4503.076923,4254.871794,4485.128205,4170.256410,4415.384615,4210.769230,4218.461538,4496.923076,4200.000000,4618.974358,3977.948718,4037.435897
192,4393.333333,4531.794871,4505.641025,4253.333333,4493.333333,4177.435897,4417.948717,4215.384615,4224.102564,4500.512820,4204.615384,4622.051282,3980.512821,4038.974358
193,4394.358974,4534.871794,4506.153846,4257.435897,4498.461538,4180.000000,4419.487179,4217.435897,4224.615384,4505.641025,4205.641025,4622.564102,3987.179488,4044.102564
194,4396.923076,4534.358974,4506.153846,4262.051282,4495.384615,4174.871794,4418.974358,4217.435897,4222.564102,4500.000000,4202.564102,4618.461538,3986.153847,4050.769230
195,4397.435897,4535.384615,4507.692307,4257.435897,4491.282051,4169.743589,4417.435897,4210.256410,4216.410256,4487.179487,4200.000000,4616.923076,3976.923077,4048.205128
196,4387.692307,4532.820512,4506.666666,4250.256410,4484.615384,4168.205128,4413.333333,4201.538461,4211.794871,4485.128205,4200.512820,4615.384615,3974.358975,4036.410256
197,4388.205128,4531.282051,4503.589743,4249.743589,4478.461538,4171.282051,4411.794871,4205.128205,4217.435897,4493.846153,4206.666666,4615.897435,3984.615385,4036.923076
198,4405.641025,4537.435897,4511.794871,4252.307692,4487.179487,4177.435897,4421.538461,4216.923076,4223.589743,4498.974358,4213.333333,4625.641025,3996.410257,4054.871794
199,4411.794871,4543.076923,4523.589743,4260.512820,4499.487179,4178.461538,4429.743589,4222.564102,4222.564102,4498.461538,4217.435897,4635.897435,3998.974359,4069.230769
200,4403.589743,4537.435897,4516.410256,4259.487179,4493.333333,4170.256410,4423.589743,4218.461538,4217.435897,4495.897435,4214.871794,4629.743589,3984.615385,4058.974358
201,4398.461538,4529.230769,4504.102564,4248.717948,4478.974358,4166.153846,4411.282051,4209.230769,4214.358974,4491.794871,4202.051282,4617.435897,3971.282052,4042.051282
202,4398.974358,4532.820512,4506.666666,4248.205128,4480.000000,4169.743589,4411.794871,4206.666666,4214.358974,4486.666666,4195.384615,4617.435897,3980.512821,4038.974358
203,4394.358974,4534.871794,4509.743589,4251.282051,4483.076923,4167.692307,4416.923076,4211.794871,4211.794871,4481.538461,4192.820512,4616.923076,3979.487180,4038.461538
204,4389.743589,4526.666666,4503.589743,4245.641025,4477.948717,4170.769230,4420.000000,4214.871794,4210.769230,4480.512820,4189.230769,4610.256410,3964.615385,4035.384615
205,4397.435897,4531.794871,4506.153846,4249.230769,4484.102564,4182.564102,4426.666666,4220.512820,4221.025641,4487.692307,4198.974358,4616.410256,3973.846154,4046.153846
206,4403.076923,4537.948717,4510.256410,4255.897435,4490.769230,4178.461538,4423.589743,4218.461538,4222.564102,4491.282051,4205.128205,4624.102564,3986.153847,4053.333333
207,4398.461538,4528.717948,4507.179487,4248.205128,4483.589743,4170.769230,4413.333333,4207.179487,4210.256410,4482.051282,4195.384615,4617.948717,3974.358975,4044.615384
208,4399.487179,4534.871794,4513.846153,4252.820512,4487.692307,4180.512820,4417.948717,4210.256410,4211.794871,4485.128205,4195.897435,4621.025641,3975.897436,4042.564102
209,4404.615384,4549.230769,4519.487179,4259.487179,4497.948717,4181.538461,4424.102564,4219.487179,4223.076923,4497.948717,4207.692307,4629.743589,3990.769231,4051.282051
210,4400.512820,4539.487179,4509.230769,4249.743589,4488.205128,4172.307692,4417.435897,4214.358974,4220.512820,4493.333333,4207.692307,4623.076923,3985.641026,4054.358974
211,4401.025641,4530.769230,4504.615384,4249.743589,4484.615384,4182.051282,4418.461538,4213.333333,4220.000000,4492.307692,4214.358974,4620.512820,3985.128206,4055.897435
212,4407.692307,4541.538461,4511.794871,4254.871794,4496.410256,4185.641025,4420.512820,4212.307692,4223.589743,4501.538461,4223.589743,4627.692307,3994.358975,4053.846153
213,4401.025641,4540.512820,4508.205128,4248.205128,4492.820512,4170.769230,4409.743589,4201.025641,4216.410256,4492.820512,4212.307692,4622.564102,3986.666667,4042.564102
214,4393.333333,4526.666666,4500.512820,4246.153846,4479.487179,4165.641025,4402.564102,4198.974358,4206.666666,4478.974358,4201.025641,4615.384615,3974.871795,4036.410256
215,4392.820512,4525.128205,4503.589743,4246.666666,4477.435897,4168.717948,4407.179487,4203.076923,4206.666666,4482.564102,4203.076923,4618.974358,3972.820513,4036.923076
216,4394.358974,4529.743589,4506.153846,4244.615384,4480.000000,4167.179487,4408.205128,4198.461538,4213.333333,4489.230769,4209.743589,4622.564102,3975.384616,4041.025641
217,4403.076923,4533.846153,4504.102564,4256.410256,4483.076923,4169.743589,4409.230769,4204.102564,4218.461538,4491.282051,4216.410256,4626.666666,3984.102565,4052.307692
218,4413.333333,4545.641025,4512.820512,4267.692307,4489.230769,4173.846153,4415.897435,4216.410256,4222.051282,4498.461538,4220.512820,4632.820512,3995.897436,4058.974358
219,4410.769230,4551.282051,4518.974358,4257.948717,4490.769230,4173.846153,4420.512820,4212.820512,4222.564102,4500.000000,4221.025641,4630.256410,3993.846154,4055.897435
220,4402.564102,4539.487179,4511.282051,4250.769230,4492.820512,4174.358974,4421.538461,4206.153846,4221.538461,4493.333333,4217.435897,4626.153846,3985.641026,4053.333333
221,4405.641025,4534.871794,4513.333333,4261.538461,4496.923076,4182.051282,4427.179487,4212.307692,4226.153846,4493.333333,4216.410256,4632.307692,3988.717949,4055.897435
222,4408.717948,4542.051282,4523.076923,4264.615384,4498.461538,4188.717948,4434.871794,4226.153846,4233.846153,4503.589743,4225.641025,4638.974358,3995.384616,4061.538461
223,4405.128205,4539.487179,4518.974358,4257.948717,4497.435897,4186.666666,4432.820512,4230.769230,4231.794871,4506.153846,4232.820512,4636.923076,3992.820513,4065.128205
224,4408.205128,4536.410256,4515.897435,4261.538461,4494.358974,4184.615384,4426.153846,4224.102564,4228.205128,4500.512820,4227.692307,4637.435897,3990.256411,4058.974358
225,4418.461538,4548.205128,4524.615384,4265.641025,4493.846153,4187.692307,4429.230769,4224.615384,4237.435897,4500.000000,4227.179487,4640.000000,3997.948718,4058.461538
226,4420.512820,4555.384615,4527.179487,4262.564102,4498.974358,4186.153846,4435.897435,4232.307692,4243.076923,4506.666666,4230.769230,4637.435897,4001.538461,4065.641025
227,4413.333333,4549.230769,4523.076923,4265.128205,4501.025641,4184.615384,4433.846153,4229.743589,4237.435897,4511.794871,4230.769230,4634.358974,3997.948718,4065.641025
228,4411.282051,4540.512820,4523.589743,4268.205128,4496.410256,4184.102564,4426.666666,4217.435897,4230.769230,4507.179487,4227.179487,4635.384615,3994.871795,4064.615384
229,4412.307692,4538.461538,4526.153846,4257.435897,4490.769230,4177.435897,4424.102564,4209.230769,4222.051282,4496.410256,4221.538461,4633.333333,3985.641026,4062.564102
230,4408.717948,4538.974358,4521.025641,4252.820512,4487.179487,4173.846153,4422.564102,4203.076923,4213.333333,4485.641025,4211.282051,4628.205128,3969.230770,4053.846153
231,4403.589743,4536.410256,4512.820512,4257.435897,4481.025641,4177.435897,4412.820512,4195.897435,4205.128205,4476.923076,4201.025641,4623.076923,3963.589744,4045.128205
232,4399.487179,4527.692307,4515.897435,4251.282051,4481.538461,4179.487179,4413.333333,4201.025641,4205.641025,4474.871794,4199.487179,4623.076923,3974.358975,4044.615384
233,4400.000000,4523.076923,4523.076923,4243.589743,4491.282051,4182.564102,4429.743589,4219.487179,4218.974358,4480.512820,4205.128205,4633.846153,3978.461539,4049.230769
234,4407.179487,4531.282051,4522.564102,4250.769230,4498.974358,4188.205128,4434.871794,4227.692307,4225.641025,4489.743589,4211.282051,4637.948717,3968.717949,4056.410256
235,4413.846153,4543.076923,4522.051282,4263.076923,4494.358974,4186.153846,4425.128205,4218.461538,4222.051282,4493.846153,4215.897435,4628.717948,3971.794872,4062.051282
236,4413.846153,4544.102564,4524.102564,4261.025641,4488.205128,4178.974358,4422.564102,4210.769230,4222.564102,4490.256410,4222.051282,4627.179487,3986.153847,4061.538461
237,4407.692307,4541.025641,4521.538461,4251.794871,4492.820512,4175.897435,4419.487179,4208.717948,4223.076923,4486.666666,4224.102564,4632.307692,3986.153847,4057.948717
238,4403.076923,4542.564102,4520.000000,4254.871794,4488.205128,4171.282051,4411.794871,4201.025641,4214.358974,4488.717948,4221.538461,4626.666666,3977.948718,4054.871794
239,4406.666666,4543.076923,4521.538461,4262.564102,4483.589743,4170.769230,4414.358974,4199.487179,4211.794871,4484.102564,4220.512820,4623.589743,3980.000000,4056.923076
240,4412.307692,4546.153846,4521.025641,4260.000000,4494.358974,4177.435897,4423.076923,4208.205128,4220.512820,4483.589743,4224.102564,4630.769230,3984.102565,4062.051282
241,4412.307692,4551.794871,4520.512820,4254.871794,4505.641025,4184.615384,4428.717948,4214.358974,4227.179487,4497.948717,4225.641025,4634.358974,3983.076924,4062.051282
242,4411.794871,4551.282051,4520.000000,4264.615384,4507.179487,4188.717948,4436.410256,4218.974358,4226.153846,4500.000000,4223.076923,4628.717948,3982.564103,4061.538461
243,4413.846153,4550.769230,4521.538461,4269.743589,4505.641025,4190.256410,4439.487179,4220.512820,4224.615384,4491.282051,4222.564102,4624.615384,3982.564103,4063.076923
244,4411.282051,4547.692307,4524.102564,4255.897435,4499.487179,4185.128205,4430.256410,4213.333333,4225.128205,4493.846153,4218.461538,4627.692307,3979.487180,4057.435897
245,4411.282051,4543.076923,4522.564102,4251.794871,4491.794871,4183.076923,4425.641025,4209.743589,4226.666666,4499.487179,4215.384615,4634.358974,3983.589744,4053.846153
246,4418.461538,4547.692307,4526.153846,4261.538461,4498.461538,4191.794871,4433.333333,4220.000000,4230.769230,4501.025641,4223.076923,4638.974358,3990.769231,4067.179487
247,4421.025641,4554.358974,4533.333333,4260.000000,4508.205128,4194.871794,4432.820512,4221.538461,4230.769230,4502.051282,4234.871794,4637.435897,3983.589744,4076.410256
248,4415.897435,4546.153846,4529.230769,4254.358974,4507.692307,4185.641025,4423.589743,4210.769230,4220.512820,4494.358974,4231.794871,4633.846153,3978.461539,4068.205128
249,4408.717948,4536.410256,4523.076923,4258.974358,4504.102564,4182.564102,4423.076923,4206.153846,4212.307692,4485.641025,4216.410256,4632.307692,3981.025642,4057.435897
250,4404.102564,4536.923076,4523.076923,4254.871794,4498.974358,4184.615384,4426.153846,4208.717948,4213.333333,4486.666666,4207.179487,4628.205128,3971.282052,4051.282051
251,4407.179487,4536.410256,4523.589743,4243.589743,4488.205128,4182.051282,4424.102564,4212.307692,4215.384615,4483.076923,4210.769230,4625.128205,3960.512821,4050.256410
252,4412.820512,4535.897435,4528.205128,4247.179487,4487.692307,4183.076923,4425.641025,4209.743589,4213.333333,4478.461538,4214.358974,4627.692307,3967.692308,4055.897435
253,4413.846153,4542.564102,4531.794871,4256.410256,4501.025641,4185.641025,4425.641025,4208.717948,4210.256410,4485.128205,4208.717948,4633.333333,3978.974359,4062.564102
254,4415.897435,4548.717948,4532.820512,4257.948717,4505.128205,4181.025641,4421.025641,4211.282051,4210.769230,4495.384615,4210.256410,4637.948717,3986.153847,4068.205128
255,4418.461538,4545.128205,4532.820512,4251.794871,4500.512820,4182.564102,4421.538461,4211.282051,4218.461538,4500.000000,4219.487179,4638.974358,3989.230770,4067.692307
256,4412.307692,4540.512820,4527.692307,4247.692307,4503.589743,4189.230769,4424.102564,4205.641025,4222.051282,4501.025641,4218.461538,4632.820512,3981.538462,4056.410256
257,4409.230769,4548.717948,4520.512820,4256.923076,4511.282051,4188.717948,4422.564102,4203.589743,4219.487179,4502.564102,4210.256410,4626.666666,3982.051283,4050.256410
258,4414.358974,4558.974358,4523.076923,4267.179487,4510.769230,4190.769230,4425.641025,4204.615384,4221.025641,4506.666666,4211.794871,4629.743589,3998.974359,4056.923076
259,4411.282051,4555.384615,4526.666666,4264.102564,4505.641025,4197.948717,4430.769230,4201.538461,4223.589743,4511.282051,4217.435897,4635.897435,4002.564102,4060.000000
