,AF3,F7,F3,FC5,T7,P7,O1,O2,P8,T8,FC6,F4,F8,AF4
0,4375.384615,4522.564102,4542.564102,4268.717948,4503.076923,4189.743589,4427.179487,4209.743589,4256.410256,4488.717948,4139.487179,4641.538461,3993.846154,4052.307692
1,4377.435897,4522.051282,4546.153846,4269.743589,4505.641025,4192.307692,4426.666666,4212.307692,4263.076923,4497.948717,4142.564102,4645.641025,3990.256411,4058.974358
2,4377.435897,4528.205128,4543.589743,4268.205128,4502.051282,4188.717948,4415.384615,4204.102564,4262.564102,4497.948717,4141.025641,4637.435897,3990.256411,4057.435897
3,4374.871794,4532.307692,4540.000000,4268.717948,4501.025641,4189.743589,4412.820512,4202.051282,4256.410256,4485.128205,4137.948717,4631.282051,3996.410257,4053.333333
4,4376.410256,4530.769230,4541.538461,4270.256410,4506.666666,4192.820512,4417.948717,4210.256410,4263.076923,4489.743589,4140.512820,4636.923076,3998.974359,4056.410256
5,4376.923076,4533.846153,4543.076923,4269.743589,4506.666666,4186.666666,4415.384615,4210.769230,4272.820512,4506.153846,4145.128205,4642.051282,3997.948718,4059.487179
6,4374.358974,4533.846153,4540.512820,4271.282051,4497.948717,4184.102564,4409.230769,4205.128205,4264.615384,4503.076923,4136.923076,4636.410256,3995.897436,4053.846153
7,4377.948717,4528.717948,4541.025641,4269.743589,4494.358974,4187.692307,4411.282051,4203.589743,4255.897435,4492.820512,4127.179487,4634.871794,3993.333334,4052.307692
8,4380.000000,4528.717948,4542.051282,4261.538461,4497.435897,4183.589743,4412.307692,4206.153846,4259.487179,4498.461538,4134.871794,4639.487179,3990.256411,4053.333333
9,4372.307692,4527.692307,4535.897435,4260.512820,4496.410256,4182.564102,4407.179487,4204.615384,4259.487179,4496.410256,4137.948717,4635.384615,3986.666667,4047.179487
10,4367.692307,4522.564102,4531.282051,4261.538461,4494.871794,4187.179487,4406.153846,4200.000000,4253.846153,4482.051282,4122.564102,4630.256410,3989.743590,4044.615384
11,4369.743589,4517.435897,4531.794871,4258.461538,4493.846153,4181.538461,4409.230769,4195.897435,4250.769230,4480.000000,4111.282051,4629.743589,3989.743590,4047.692307
12,4369.230769,4517.435897,4531.794871,4261.538461,4493.333333,4176.410256,4406.153846,4194.871794,4250.256410,4486.153846,4117.948717,4628.717948,3982.051283,4046.153846
13,4368.717948,4523.076923,4532.307692,4261.538461,4497.948717,4185.641025,4406.153846,4198.461538,4252.307692,4485.128205,4128.717948,4631.282051,3984.102565,4044.615384
14,4367.692307,4526.153846,4531.794871,4254.358974,4498.974358,4192.307692,4410.769230,4198.461538,4252.820512,4481.538461,4125.641025,4632.820512,3992.307693,4044.102564
15,4361.538461,4518.974358,4529.230769,4255.384615,4496.923076,4185.128205,4409.230769,4192.820512,4243.589743,4481.025641,4114.871794,4625.641025,3988.205129,4037.948717
16,4362.051282,4515.897435,4529.230769,4259.487179,4496.923076,4181.538461,4405.128205,4190.256410,4240.512820,4479.487179,4119.487179,4624.102564,3976.923077,4034.871794
17,4369.230769,4520.000000,4529.230769,4259.487179,4497.948717,4185.641025,4410.256410,4193.333333,4250.256410,4481.025641,4131.794871,4630.256410,3974.358975,4040.000000
18,4367.692307,4519.487179,4527.692307,4262.051282,4498.461538,4187.179487,4413.333333,4196.410256,4254.871794,4486.153846,4127.692307,4631.282051,3983.076924,4041.025641
19,4364.102564,4523.589743,4531.794871,4258.461538,4496.410256,4186.153846,4412.307692,4196.923076,4252.820512,4487.692307,4119.487179,4631.282051,3992.307693,4038.974358
20,4366.666666,4526.666666,4534.871794,4251.794871,4496.410256,4187.179487,4414.871794,4196.923076,4256.923076,4489.230769,4128.205128,4635.897435,3997.435898,4045.128205
21,4364.615384,4517.435897,4529.743589,4255.897435,4498.461538,4185.641025,4414.358974,4195.897435,4256.410256,4489.743589,4130.769230,4631.794871,3992.820513,4043.589743
22,4359.487179,4514.358974,4522.564102,4254.871794,4499.487179,4183.589743,4409.743589,4193.846153,4247.692307,4485.128205,4116.923076,4623.589743,3984.102565,4033.333333
23,4365.128205,4527.179487,4525.641025,4250.769230,4500.512820,4189.230769,4417.435897,4196.410256,4250.256410,4485.128205,4114.358974,4628.717948,3986.153847,4037.435897
24,4369.743589,4530.769230,4530.256410,4259.487179,4505.641025,4191.794871,4421.025641,4200.000000,4256.923076,4490.256410,4122.051282,4630.256410,3989.230770,4046.666666
25,4360.000000,4516.410256,4527.692307,4259.487179,4506.153846,4187.179487,4412.820512,4195.897435,4253.333333,4484.615384,4117.948717,4620.512820,3983.076924,4038.974358
26,4353.846153,4513.333333,4525.641025,4247.692307,4498.461538,4185.128205,4414.871794,4192.820512,4252.307692,4477.435897,4116.410256,4618.461538,3977.948718,4032.820512
27,4361.025641,4522.051282,4528.205128,4252.307692,4496.410256,4188.717948,4425.128205,4201.538461,4258.461538,4487.692307,4119.487179,4629.230769,3984.615385,4039.487179
28,4365.128205,4524.102564,4527.692307,4263.076923,4499.487179,4191.282051,4427.179487,4204.615384,4258.461538,4494.358974,4112.820512,4632.820512,3986.666667,4039.487179
29,4361.025641,4518.461538,4525.128205,4261.025641,4504.615384,4189.743589,4421.025641,4199.487179,4252.307692,4485.641025,4109.743589,4628.205128,3981.538462,4036.410256
30,4362.564102,4517.948717,4528.717948,4263.076923,4509.230769,4190.769230,4421.025641,4203.589743,4257.435897,4490.256410,4117.435897,4633.333333,3985.641026,4045.641025
31,4369.230769,4523.589743,4535.897435,4265.641025,4505.641025,4194.358974,4422.564102,4212.307692,4268.717948,4504.615384,4124.102564,4642.564102,3996.410257,4053.846153
32,4368.205128,4520.512820,4536.923076,4254.358974,4497.948717,4192.307692,4420.000000,4210.769230,4265.128205,4500.512820,4122.564102,4641.538461,3994.358975,4045.641025
33,4367.179487,4515.384615,4532.820512,4251.282051,4498.461538,4187.692307,4415.384615,4200.512820,4255.384615,4484.615384,4111.282051,4632.307692,3988.205129,4041.025641
34,4370.256410,4517.435897,4530.256410,4258.974358,4503.076923,4185.641025,4414.871794,4198.461538,4255.384615,4486.153846,4106.666666,4631.794871,3998.461539,4048.717948
35,4366.153846,4517.435897,4531.282051,4258.974358,4501.025641,4186.153846,4417.435897,4202.564102,4256.410256,4496.410256,4111.282051,4636.923076,4003.589743,4048.205128
36,4360.512820,4513.846153,4529.743589,4252.820512,4496.923076,4189.230769,4416.923076,4201.025641,4249.743589,4493.333333,4109.230769,4633.333333,3988.205129,4039.487179
37,4361.025641,4513.333333,4524.102564,4251.282051,4495.897435,4190.769230,4413.846153,4192.307692,4243.076923,4485.128205,4104.102564,4624.102564,3982.564103,4038.461538
38,4362.051282,4518.461538,4523.076923,4251.794871,4496.410256,4184.615384,4414.871794,4192.820512,4246.153846,4484.102564,4105.128205,4625.128205,3992.820513,4041.538461
39,4363.589743,4519.487179,4527.179487,4254.871794,4497.435897,4183.076923,4418.461538,4198.461538,4252.307692,4483.589743,4103.589743,4631.282051,3993.333334,4041.538461
40,4362.564102,4513.846153,4528.717948,4256.923076,4496.410256,4187.179487,4416.923076,4192.307692,4249.743589,4478.461538,4101.025641,4624.615384,3980.512821,4036.923076
41,4356.410256,4509.743589,4523.076923,4255.384615,4496.410256,4185.128205,4416.923076,4188.205128,4242.051282,4470.769230,4098.461538,4615.897435,3973.333334,4029.230769
42,4352.820512,4509.230769,4517.435897,4251.794871,4495.897435,4184.615384,4422.564102,4193.846153,4243.076923,4468.205128,4083.589743,4617.948717,3974.358975,4027.692307
43,4355.384615,4511.282051,4518.974358,4250.769230,4494.871794,4187.692307,4425.641025,4196.410256,4252.307692,4481.025641,4079.487179,4620.512820,3979.487180,4031.794871
44,4358.461538,4513.333333,4521.538461,4254.871794,4495.897435,4186.153846,4424.102564,4197.948717,4255.384615,4494.358974,4097.435897,4620.512820,3982.051283,4035.384615
45,4358.461538,4513.333333,4519.487179,4254.871794,4499.487179,4185.641025,4423.076923,4199.487179,4245.641025,4485.128205,4103.589743,4623.076923,3983.589744,4038.974358
46,4358.461538,4510.256410,4520.512820,4254.358974,4500.512820,4189.230769,4421.538461,4195.384615,4242.564102,4476.410256,4096.923076,4627.692307,3984.102565,4039.487179
47,4361.538461,4512.820512,4526.666666,4260.512820,4502.051282,4189.743589,4425.641025,4196.410256,4252.820512,4489.743589,4101.025641,4632.820512,3979.487180,4037.948717
48,4364.615384,4521.025641,4528.205128,4255.384615,4501.538461,4190.256410,4431.794871,4205.128205,4254.358974,4497.435897,4108.205128,4631.282051,3974.871795,4038.461538
49,4361.538461,4520.000000,4526.666666,4247.692307,4500.000000,4193.333333,4429.743589,4206.153846,4249.743589,4490.256410,4103.589743,4626.153846,3980.000000,4038.461538
50,4360.000000,4513.333333,4529.230769,4262.051282,4506.153846,4196.410256,4429.230769,4206.153846,4254.358974,4490.769230,4101.025641,4627.692307,3990.256411,4038.461538
51,4365.641025,4513.846153,4531.794871,4270.769230,4507.179487,4198.974358,4431.794871,4210.769230,4258.461538,4490.769230,4103.076923,4632.307692,3990.256411,4042.564102
52,4367.692307,4521.538461,4532.307692,4261.538461,4505.128205,4199.487179,4430.256410,4215.897435,4260.512820,4487.179487,4102.564102,4632.820512,3982.051283,4045.128205
53,4367.692307,4526.153846,4534.358974,4262.564102,4508.205128,4201.025641,4431.794871,4219.487179,4262.564102,4492.820512,4109.743589,4635.384615,3978.974359,4041.538461
54,4367.692307,4522.564102,4532.820512,4266.666666,4509.743589,4200.000000,4433.846153,4213.333333,4251.282051,4491.282051,4114.871794,4635.384615,3985.128206,4040.512820
55,4363.589743,4515.897435,4521.025641,4259.487179,4506.666666,4191.794871,4427.692307,4199.487179,4236.923076,4476.923076,4106.666666,4625.641025,3985.641026,4040.512820
56,4360.512820,4514.871794,4516.923076,4255.384615,4505.641025,4190.769230,4423.076923,4194.358974,4238.974358,4476.410256,4095.384615,4622.051282,3980.000000,4035.384615
57,4363.589743,4520.000000,4528.205128,4261.538461,4509.743589,4198.974358,4428.717948,4199.487179,4241.538461,4483.589743,4096.410256,4629.230769,3978.974359,4036.923076
58,4366.666666,4521.025641,4532.820512,4266.666666,4510.256410,4198.974358,4429.743589,4200.512820,4239.487179,4482.051282,4101.538461,4631.794871,3980.000000,4047.179487
59,4367.179487,4517.948717,4528.205128,4264.102564,4506.153846,4193.333333,4426.666666,4201.538461,4248.205128,4484.102564,4101.025641,4633.333333,3986.153847,4047.179487
60,4371.794871,4524.102564,4531.794871,4260.512820,4508.717948,4197.948717,4430.769230,4211.794871,4260.000000,4491.794871,4106.666666,4639.487179,3995.384616,4042.051282
61,4376.923076,4532.820512,4536.410256,4263.589743,4511.282051,4203.076923,4432.820512,4218.461538,4260.000000,4493.333333,4111.794871,4637.948717,3996.923077,4048.717948
62,4374.358974,4533.333333,4532.307692,4264.102564,4507.692307,4196.923076,4428.205128,4212.820512,4253.333333,4494.871794,4105.128205,4632.307692,3990.769231,4053.846153
63,4370.256410,4529.230769,4529.230769,4257.435897,4505.128205,4191.794871,4428.717948,4207.179487,4254.358974,4500.512820,4098.974358,4634.358974,3982.051283,4048.205128
64,4367.692307,4524.102564,4526.153846,4253.846153,4505.641025,4191.794871,4427.692307,4210.769230,4255.384615,4496.410256,4098.974358,4633.333333,3970.769231,4041.025641
65,4364.615384,4521.538461,4524.615384,4256.410256,4504.102564,4189.743589,4424.102564,4213.333333,4250.769230,4482.564102,4094.358974,4629.230769,3967.692308,4037.948717
66,4363.076923,4526.153846,4526.666666,4252.820512,4501.538461,4192.307692,4432.820512,4211.282051,4250.769230,4481.538461,4089.743589,4631.794871,3975.384616,4035.897435
67,4363.076923,4531.282051,4526.666666,4245.641025,4505.128205,4197.435897,4442.564102,4211.282051,4260.000000,4489.230769,4093.333333,4633.333333,3970.256411,4036.410256
68,4366.153846,4533.333333,4526.153846,4249.230769,4508.205128,4194.871794,4440.000000,4217.435897,4267.692307,4491.282051,4094.871794,4633.846153,3965.128206,4041.025641
69,4361.025641,4522.564102,4523.076923,4252.307692,4505.128205,4193.846153,4436.410256,4217.948717,4258.974358,4488.205128,4089.230769,4632.307692,3970.256411,4038.974358
70,4348.205128,4513.333333,4519.487179,4246.153846,4502.051282,4194.358974,4436.923076,4207.179487,4250.769230,4484.615384,4082.051282,4626.666666,3963.076924,4028.717948
71,4352.820512,4523.076923,4525.641025,4251.282051,4507.179487,4194.358974,4440.000000,4203.076923,4253.846153,4482.051282,4080.512820,4630.256410,3952.820513,4028.717948
72,4365.641025,4536.410256,4530.256410,4261.538461,4507.179487,4194.358974,4437.948717,4203.589743,4248.205128,4474.358974,4080.512820,4634.358974,3953.333334,4032.307692
73,4358.974358,4540.000000,4521.025641,4254.871794,4495.384615,4190.769230,4428.205128,4193.333333,4235.384615,4463.589743,4075.897435,4623.589743,3947.179488,4029.230769
74,4351.282051,4540.000000,4515.384615,4250.769230,4494.358974,4187.179487,4429.230769,4187.179487,4234.358974,4458.461538,4071.282051,4618.461538,3934.358975,4028.717948
75,4361.025641,4538.461538,4523.076923,4260.000000,4500.000000,4188.717948,4436.410256,4194.358974,4239.487179,4457.948717,4069.743589,4627.692307,3931.794872,4033.333333
76,4364.102564,4532.820512,4526.153846,4259.487179,4496.410256,4188.205128,4432.307692,4195.384615,4234.358974,4459.487179,4074.871794,4630.769230,3934.358975,4036.410256
77,4357.948717,4534.871794,4524.615384,4252.820512,4495.384615,4184.615384,4428.717948,4192.820512,4232.820512,4464.615384,4082.564102,4626.666666,3936.923077,4032.820512
78,4360.512820,4543.589743,4528.717948,4260.512820,4503.076923,4189.230769,4434.358974,4198.461538,4241.538461,4467.692307,4084.102564,4632.820512,3944.102565,4028.205128
79,4363.076923,4545.641025,4532.820512,4268.717948,4508.205128,4193.846153,4432.820512,4199.487179,4241.538461,4463.076923,4081.538461,4637.435897,3945.641026,4030.256410
80,4353.846153,4533.846153,4526.153846,4258.461538,4502.564102,4188.717948,4425.128205,4187.179487,4228.205128,4451.794871,4076.923076,4625.128205,3935.384616,4030.256410
81,4346.153846,4522.051282,4515.897435,4248.717948,4496.923076,4181.538461,4421.538461,4176.923076,4220.512820,4446.666666,4067.692307,4613.846153,3931.794872,4023.076923
82,4346.666666,4529.230769,4517.435897,4256.410256,4500.000000,4180.512820,4421.025641,4178.974358,4227.179487,4452.307692,4065.641025,4617.435897,3935.384616,4019.487179
83,4348.205128,4536.410256,4520.512820,4261.025641,4503.076923,4186.666666,4425.641025,4186.666666,4234.871794,4457.435897,4073.333333,4623.589743,3935.897436,4023.076923
84,4351.794871,4534.358974,4522.051282,4258.974358,4501.538461,4187.179487,4429.230769,4192.307692,4237.948717,4462.051282,4080.512820,4627.692307,3939.487180,4025.128205
85,4353.333333,4530.769230,4526.666666,4259.487179,4499.487179,4184.102564,4427.179487,4196.410256,4245.128205,4470.769230,4088.717948,4632.820512,3949.743590,4024.102564
86,4349.743589,4532.820512,4524.102564,4254.871794,4497.948717,4185.128205,4424.102564,4202.564102,4247.692307,4472.307692,4093.333333,4633.333333,3950.256411,4027.179487
87,4346.666666,4534.871794,4514.871794,4252.820512,4496.410256,4184.102564,4418.974358,4201.025641,4241.538461,4465.641025,4087.179487,4629.743589,3938.974359,4027.179487
88,4347.179487,4531.794871,4516.923076,4262.051282,4496.923076,4181.538461,4412.820512,4191.282051,4236.923076,4466.153846,4084.615384,4628.717948,3937.435898,4023.076923
89,4347.692307,4530.769230,4520.000000,4264.615384,4501.538461,4186.153846,4415.384615,4190.769230,4244.615384,4474.358974,4090.769230,4629.230769,3950.769231,4024.102564
90,4351.794871,4535.897435,4517.948717,4259.487179,4505.128205,4190.769230,4423.076923,4198.974358,4255.897435,4476.923076,4094.358974,4630.769230,3955.384616,4029.230769
91,4357.948717,4541.538461,4520.512820,4263.589743,4503.076923,4188.717948,4422.564102,4202.051282,4259.487179,4478.974358,4093.846153,4632.820512,3947.179488,4031.794871
92,4360.512820,4543.589743,4525.128205,4264.615384,4498.974358,4188.717948,4420.000000,4201.025641,4256.923076,4485.128205,4095.897435,4635.384615,3952.820513,4035.897435
93,4361.025641,4541.538461,4526.666666,4259.487179,4505.128205,4188.717948,4422.051282,4200.000000,4253.846153,4485.128205,4098.461538,4636.923076,3969.230770,4040.512820
94,4360.512820,4542.051282,4529.230769,4261.025641,4509.230769,4188.205128,4423.589743,4197.948717,4251.282051,4478.461538,4100.000000,4635.897435,3968.717949,4038.461538
95,4363.076923,4545.641025,4532.820512,4263.076923,4504.102564,4190.256410,4423.076923,4200.000000,4250.256410,4477.948717,4103.076923,4638.461538,3957.948718,4038.974358
96,4370.256410,4548.717948,4536.410256,4271.282051,4506.153846,4190.769230,4427.692307,4207.692307,4255.897435,4484.615384,4108.717948,4648.717948,3960.512821,4044.615384
97,4373.333333,4549.743589,4538.974358,4283.076923,4509.230769,4195.897435,4438.461538,4214.358974,4267.179487,4486.666666,4113.846153,4654.358974,3972.307693,4048.717948
98,4368.717948,4549.230769,4540.512820,4276.410256,4507.692307,4197.948717,4440.512820,4217.435897,4270.256410,4488.205128,4113.333333,4650.256410,3974.871795,4050.769230
99,4363.589743,4546.153846,4537.948717,4265.128205,4507.179487,4192.820512,4432.820512,4220.000000,4261.538461,4493.846153,4113.333333,4646.153846,3967.179488,4044.615384
100,4361.538461,4541.538461,4532.307692,4269.743589,4507.692307,4189.743589,4427.692307,4214.871794,4251.794871,4488.205128,4111.282051,4641.538461,3962.564103,4034.871794
101,4363.076923,4541.025641,4529.743589,4271.282051,4507.179487,4190.769230,4430.769230,4204.102564,4252.820512,4477.948717,4108.205128,4638.461538,3968.205129,4041.025641
102,4368.717948,4546.153846,4533.333333,4269.230769,4506.153846,4192.307692,4430.769230,4204.102564,4257.435897,4479.487179,4113.333333,4642.051282,3972.307693,4050.769230
103,4367.179487,4548.205128,4533.846153,4277.435897,4507.179487,4193.846153,4427.692307,4207.179487,4251.282051,4478.974358,4116.410256,4644.615384,3967.179488,4043.076923
104,4361.025641,4543.589743,4531.794871,4274.871794,4508.717948,4193.846153,4425.128205,4201.538461,4247.692307,4474.358974,4113.333333,4639.487179,3966.153847,4037.948717
105,4367.692307,4544.615384,4536.410256,4264.615384,4510.769230,4193.333333,4424.615384,4203.589743,4257.948717,4486.666666,4113.846153,4640.000000,3979.487180,4049.230769
106,4380.512820,4556.410256,4544.615384,4273.846153,4510.256410,4197.435897,4428.205128,4218.461538,4268.717948,4500.512820,4120.000000,4649.230769,3989.743590,4054.871794
107,4380.512820,4558.974358,4545.641025,4284.615384,4511.282051,4199.487179,4429.743589,4220.512820,4265.641025,4492.820512,4123.589743,4651.282051,3983.076924,4052.307692
108,4374.871794,4551.282051,4542.051282,4281.025641,4513.846153,4194.871794,4427.692307,4211.282051,4258.974358,4486.666666,4128.205128,4646.666666,3978.461539,4053.333333
109,4374.871794,4549.743589,4541.538461,4282.051282,4511.794871,4194.871794,4426.666666,4208.717948,4259.487179,4491.282051,4128.717948,4646.666666,3984.615385,4050.256410
110,4370.256410,4546.153846,4541.538461,4280.512820,4507.692307,4195.897435,4425.128205,4211.794871,4261.538461,4490.256410,4116.410256,4647.179487,3984.615385,4042.564102
111,4364.615384,4537.948717,4535.384615,4265.641025,4505.128205,4191.282051,4418.461538,4209.230769,4265.641025,4483.589743,4111.794871,4641.025641,3973.846154,4043.076923
112,4370.769230,4541.538461,4532.307692,4264.615384,4508.205128,4191.794871,4414.871794,4206.153846,4266.153846,4484.102564,4118.461538,4639.487179,3970.769231,4051.794871
113,4381.538461,4550.769230,4540.000000,4278.974358,4512.307692,4196.923076,4419.487179,4211.282051,4262.051282,4491.794871,4121.025641,4646.666666,3982.564103,4060.000000
114,4381.025641,4546.153846,4544.615384,4279.487179,4511.282051,4193.846153,4419.487179,4209.743589,4258.461538,4494.358974,4116.923076,4650.769230,3995.384616,4061.025641
115,4373.333333,4545.128205,4541.538461,4271.282051,4505.641025,4188.717948,4415.384615,4201.538461,4258.461538,4488.717948,4108.717948,4645.641025,3992.307693,4053.333333
116,4371.794871,4552.307692,4539.487179,4271.282051,4504.102564,4191.282051,4417.435897,4196.923076,4257.435897,4485.128205,4101.538461,4639.487179,3973.333334,4046.153846
117,4371.794871,4541.025641,4535.384615,4269.230769,4508.205128,4194.358974,4419.487179,4197.948717,4253.333333,4482.051282,4101.538461,4635.384615,3964.615385,4044.615384
118,4365.128205,4520.512820,4531.282051,4262.564102,4505.641025,4189.230769,4413.846153,4195.897435,4253.846153,4477.948717,4102.051282,4633.333333,3970.769231,4042.051282
119,4356.923076,4517.948717,4531.794871,4264.102564,4497.435897,4182.051282,4407.179487,4190.769230,4255.897435,4475.384615,4096.410256,4632.820512,3970.769231,4036.410256
120,4356.410256,4528.717948,4530.769230,4267.179487,4498.461538,4180.512820,4407.179487,4192.820512,4251.282051,4477.435897,4098.974358,4631.282051,3965.641026,4034.358974
121,4359.487179,4526.666666,4526.666666,4260.512820,4500.000000,4181.538461,4412.820512,4197.948717,4242.564102,4479.487179,4099.487179,4631.282051,3967.179488,4035.384615
122,4357.948717,4516.923076,4526.153846,4256.410256,4495.897435,4179.487179,4416.923076,4196.410256,4240.000000,4478.974358,4092.820512,4632.820512,3967.179488,4035.897435
123,4350.769230,4513.333333,4524.102564,4260.000000,4495.384615,4179.487179,4417.948717,4194.358974,4244.615384,4471.282051,4094.358974,4629.743589,3958.461539,4031.282051
124,4347.179487,4516.410256,4518.461538,4253.846153,4494.871794,4182.564102,4417.435897,4199.487179,4248.205128,4464.102564,4096.410256,4627.692307,3960.000000,4027.692307
125,4355.897435,4520.512820,4519.487179,4250.769230,4495.897435,4182.564102,4417.948717,4207.179487,4249.743589,4471.282051,4092.307692,4630.769230,3972.307693,4032.820512
126,4364.102564,4521.538461,4528.717948,4264.615384,4499.487179,4187.692307,4419.487179,4211.794871,4256.923076,4483.076923,4099.487179,4633.333333,3974.871795,4037.948717
127,4362.564102,4520.000000,4532.820512,4271.282051,4498.974358,4192.307692,4423.076923,4215.384615,4268.205128,4485.641025,4107.179487,4634.358974,3971.282052,4037.435897
128,4362.564102,4518.974358,4529.230769,4266.153846,4497.948717,4185.128205,4423.076923,4214.358974,4267.179487,4485.641025,4104.102564,4634.871794,3972.820513,4040.000000
129,4367.179487,4524.615384,4529.230769,4268.717948,4501.025641,4185.641025,4418.974358,4210.256410,4255.384615,4487.179487,4103.589743,4634.871794,3978.974359,4045.641025
130,4364.615384,4528.717948,4531.282051,4269.230769,4499.487179,4187.692307,4417.435897,4202.564102,4252.307692,4484.615384,4103.076923,4632.307692,3977.435898,4043.589743
131,4361.538461,4522.051282,4528.717948,4262.051282,4493.846153,4183.076923,4416.923076,4198.461538,4255.384615,4483.076923,4095.897435,4629.743589,3965.641026,4039.487179
132,4362.051282,4511.794871,4528.717948,4261.538461,4493.846153,4183.076923,4417.435897,4203.076923,4255.897435,4483.076923,4090.769230,4630.769230,3960.000000,4038.974358
133,4358.974358,4509.743589,4529.230769,4262.051282,4493.846153,4184.102564,4417.948717,4203.076923,4253.846153,4473.333333,4088.205128,4630.256410,3966.153847,4035.897435
134,4356.410256,4513.333333,4528.717948,4262.051282,4492.307692,4181.025641,4417.948717,4196.923076,4248.205128,4468.205128,4086.153846,4627.692307,3969.230770,4031.794871
135,4362.051282,4515.897435,4531.794871,4266.153846,4493.846153,4184.615384,4422.564102,4200.512820,4250.256410,4480.000000,4091.282051,4629.743589,3964.102565,4031.282051
136,4366.153846,4515.897435,4535.897435,4268.717948,4496.923076,4191.282051,4424.102564,4210.256410,4258.461538,4487.692307,4095.897435,4634.871794,3969.743590,4037.948717
137,4361.025641,4512.307692,4529.743589,4262.051282,4498.461538,4186.666666,4419.487179,4209.230769,4257.948717,4483.589743,4095.897435,4634.358974,3982.051283,4044.102564
138,4355.897435,4511.282051,4523.589743,4256.410256,4492.820512,4177.435897,4417.435897,4200.512820,4249.230769,4477.435897,4095.897435,4631.282051,3974.358975,4037.435897
139,4356.923076,4512.820512,4525.641025,4257.435897,4488.205128,4177.435897,4421.538461,4200.000000,4246.153846,4471.282051,4095.897435,4631.282051,3963.076924,4029.743589
140,4361.538461,4512.820512,4528.717948,4264.102564,4492.307692,4184.615384,4423.076923,4202.564102,4250.769230,4469.230769,4095.384615,4633.333333,3975.384616,4035.897435
141,4363.076923,4512.820512,4527.179487,4262.564102,4497.435897,4190.256410,4417.435897,4199.487179,4255.897435,4475.384615,4096.410256,4631.794871,3984.102565,4041.025641
142,4356.923076,4514.871794,4522.564102,4250.769230,4497.435897,4187.179487,4413.333333,4201.025641,4254.871794,4475.897435,4091.282051,4624.102564,3966.666667,4030.769230
143,4347.692307,4516.410256,4516.410256,4248.205128,4495.897435,4186.666666,4415.897435,4202.564102,4250.256410,4466.666666,4078.461538,4615.897435,3952.820513,4022.051282
144,4349.230769,4512.820512,4516.410256,4257.948717,4497.435897,4190.256410,4422.051282,4199.487179,4252.307692,4466.153846,4078.974358,4618.974358,3963.589744,4027.179487
145,4363.076923,4514.358974,4524.102564,4268.717948,4500.000000,4194.358974,4425.641025,4206.153846,4258.461538,4481.538461,4092.307692,4628.205128,3977.435898,4037.435897
146,4370.769230,4524.102564,4529.230769,4275.384615,4504.102564,4196.923076,4425.641025,4214.871794,4261.538461,4490.769230,4101.538461,4635.897435,3978.461539,4044.102564
147,4366.153846,4529.743589,4524.102564,4273.846153,4503.589743,4192.307692,4421.538461,4208.205128,4255.384615,4477.435897,4101.025641,4634.358974,3975.384616,4040.000000
148,4359.487179,4524.615384,4515.384615,4264.615384,4499.487179,4188.717948,4412.820512,4195.897435,4245.128205,4468.205128,4092.307692,4624.615384,3973.846154,4032.307692
149,4359.487179,4517.948717,4515.384615,4261.538461,4500.512820,4193.333333,4412.307692,4197.435897,4248.205128,4480.000000,4084.102564,4622.564102,3976.923077,4037.435897
150,4365.128205,4519.487179,4523.076923,4264.615384,4502.564102,4195.384615,4416.923076,4201.538461,4252.307692,4484.615384,4084.615384,4629.230769,3978.461539,4045.128205
151,4363.589743,4519.487179,4525.128205,4262.051282,4496.923076,4185.641025,4412.820512,4195.384615,4240.000000,4472.307692,4084.102564,4629.743589,3972.820513,4040.000000
152,4356.923076,4515.384615,4518.461538,4261.538461,4491.794871,4180.512820,4406.666666,4185.641025,4231.282051,4465.641025,4081.025641,4623.076923,3968.717949,4031.282051
153,4358.974358,4517.948717,4516.923076,4267.179487,4495.384615,4189.743589,4410.256410,4187.179487,4238.461538,4469.743589,4083.589743,4621.538461,3971.794872,4031.282051
154,4368.205128,4526.666666,4525.641025,4269.743589,4500.000000,4196.410256,4418.461538,4198.461538,4244.102564,4474.871794,4087.692307,4627.179487,3976.410257,4037.435897
155,4370.769230,4527.692307,4532.307692,4267.692307,4501.538461,4196.410256,4421.025641,4206.666666,4248.717948,4483.076923,4097.948717,4635.384615,3978.974359,4044.615384
156,4371.794871,4524.615384,4536.923076,4270.256410,4501.025641,4195.897435,4419.487179,4211.282051,4257.948717,4490.769230,4105.128205,4641.538461,3987.179488,4050.256410
157,4376.410256,4531.794871,4541.025641,4277.948717,4504.615384,4201.538461,4421.538461,4212.307692,4261.538461,4493.333333,4101.025641,4641.025641,3991.282052,4050.769230
158,4380.000000,4536.923076,4538.974358,4282.051282,4508.205128,4205.128205,4424.102564,4213.333333,4262.051282,4495.897435,4107.179487,4641.025641,3987.692308,4053.846153
159,4377.435897,4529.743589,4534.871794,4277.948717,4506.153846,4201.025641,4424.102564,4214.871794,4262.051282,4494.358974,4118.974358,4641.538461,3989.230770,4056.410256
160,4371.282051,4522.051282,4532.307692,4270.769230,4502.564102,4197.435897,4423.589743,4208.717948,4256.923076,4485.128205,4106.153846,4635.897435,3992.820513,4051.282051
161,4366.153846,4524.615384,4529.230769,4264.615384,4501.025641,4197.948717,4422.051282,4201.538461,4251.794871,4476.923076,4085.641025,4632.307692,3992.307693,4044.615384
162,4363.076923,4527.692307,4527.179487,4262.051282,4498.461538,4195.384615,4416.410256,4201.538461,4252.307692,4473.846153,4083.076923,4631.282051,3977.948718,4039.487179
163,4363.076923,4526.666666,4526.666666,4264.102564,4495.384615,4189.743589,4412.307692,4201.025641,4250.256410,4476.923076,4081.025641,4627.692307,3965.128206,4038.461538
164,4368.205128,4528.717948,4529.743589,4266.153846,4495.897435,4191.794871,4418.461538,4204.102564,4249.230769,4483.076923,4079.487179,4630.256410,3974.358975,4042.051282
165,4368.717948,4531.282051,4535.897435,4264.615384,4496.410256,4193.333333,4431.282051,4208.205128,4254.871794,4483.076923,4088.717948,4635.384615,3978.974359,4042.564102
166,4364.615384,4528.205128,4535.897435,4262.564102,4496.410256,4191.794871,4432.820512,4210.769230,4259.487179,4480.512820,4091.794871,4633.846153,3965.641026,4038.974358
167,4368.717948,4528.205128,4532.307692,4263.076923,4498.974358,4196.923076,4427.179487,4210.256410,4253.846153,4481.025641,4083.076923,4631.794871,3966.666667,4041.538461
168,4375.897435,4534.358974,4532.307692,4265.641025,4499.487179,4202.564102,4428.717948,4205.641025,4252.307692,4480.000000,4084.102564,4634.358974,3981.538462,4046.666666
169,4375.897435,4535.384615,4535.384615,4266.666666,4500.000000,4201.025641,4430.769230,4202.051282,4262.051282,4485.641025,4096.410256,4636.923076,3983.076924,4047.179487
170,4374.871794,4538.461538,4535.897435,4268.205128,4505.641025,4201.025641,4427.692307,4207.692307,4264.102564,4494.871794,4096.410256,4638.974358,3978.974359,4047.179487
171,4376.923076,4541.025641,4534.358974,4274.358974,4507.179487,4203.076923,4427.179487,4214.871794,4259.487179,4495.384615,4090.769230,4642.564102,3986.666667,4050.769230
172,4378.461538,4538.974358,4533.846153,4277.435897,4505.641025,4201.025641,4431.794871,4215.897435,4264.102564,4493.333333,4095.384615,4646.153846,3989.743590,4052.820512
173,4378.974358,4541.025641,4535.384615,4278.974358,4507.692307,4201.538461,4434.358974,4218.974358,4272.820512,4496.410256,4099.487179,4646.153846,3984.102565,4049.230769
174,4374.358974,4540.512820,4531.282051,4276.410256,4505.641025,4202.564102,4430.769230,4217.948717,4266.153846,4492.820512,4092.307692,4641.538461,3980.512821,4046.666666
175,4370.256410,4536.923076,4527.179487,4267.692307,4504.102564,4200.512820,4427.692307,4207.179487,4254.871794,4483.589743,4090.256410,4638.974358,3982.564103,4047.692307
176,4373.846153,4536.410256,4530.256410,4267.179487,4506.666666,4202.051282,4429.230769,4204.615384,4256.923076,4487.692307,4093.333333,4640.000000,3985.128206,4049.743589
177,4375.384615,4536.923076,4533.846153,4280.000000,4506.666666,4206.153846,4430.769230,4210.256410,4261.025641,4497.435897,4093.846153,4642.051282,3980.512821,4048.717948
178,4376.410256,4537.948717,4533.846153,4282.051282,4505.128205,4204.615384,4429.743589,4206.666666,4256.923076,4496.923076,4097.435897,4645.641025,3977.948718,4049.743589
179,4380.512820,4544.615384,4537.948717,4276.410256,4510.769230,4206.153846,4429.230769,4201.538461,4253.333333,4492.307692,4098.461538,4648.205128,3987.179488,4052.307692
180,4382.564102,4548.717948,4544.102564,4281.025641,4514.871794,4210.256410,4428.205128,4211.282051,4262.564102,4496.923076,4100.512820,4650.256410,3999.487180,4055.384615
181,4385.128205,4546.666666,4547.179487,4286.666666,4513.846153,4210.769230,4429.743589,4221.025641,4270.256410,4502.051282,4109.743589,4657.948717,4003.076923,4061.025641
182,4386.666666,4544.615384,4545.641025,4285.128205,4514.871794,4212.307692,4434.871794,4216.410256,4265.128205,4497.435897,4114.358974,4663.076923,3997.435898,4064.102564
183,4378.461538,4540.000000,4537.435897,4282.564102,4512.820512,4210.256410,4433.846153,4212.307692,4257.435897,4491.282051,4105.128205,4655.384615,3993.846154,4056.410256
184,4371.282051,4539.487179,4535.384615,4277.435897,4505.641025,4204.615384,4429.743589,4212.820512,4257.435897,4490.256410,4097.948717,4648.717948,3990.769231,4048.205128
185,4373.846153,4533.846153,4539.487179,4273.333333,4500.512820,4197.948717,4427.179487,4206.153846,4255.384615,4483.589743,4094.871794,4646.666666,3984.615385,4045.128205
186,4376.410256,4526.666666,4540.000000,4274.358974,4506.153846,4201.025641,4428.717948,4202.051282,4249.230769,4482.564102,4096.923076,4645.641025,3985.641026,4041.538461
187,4377.435897,4536.923076,4543.076923,4277.948717,4516.410256,4211.282051,4437.435897,4213.846153,4256.923076,4494.358974,4107.179487,4651.282051,3994.358975,4046.666666
188,4380.512820,4546.153846,4548.717948,4277.948717,4515.897435,4211.794871,4440.512820,4223.589743,4270.256410,4502.564102,4111.794871,4657.435897,3997.435898,4058.974358
189,4381.025641,4546.153846,4545.641025,4277.435897,4510.256410,4208.205128,4433.846153,4217.435897,4268.717948,4501.025641,4110.769230,4655.384615,3997.435898,4059.487179
190,4379.487179,4546.153846,4542.051282,4277.435897,4512.307692,4208.717948,4428.717948,4211.282051,4258.461538,4498.974358,4109.230769,4653.846153,4000.000000,4053.333333
191,4380.512820,4542.564102,4545.128205,4280.000000,4513.846153,4208.717948,4431.282051,4215.897435,4258.461538,4498.461538,4104.102564,4655.897435,3996.410257,4055.384615
192,4382.051282,4540.000000,4545.641025,4282.051282,4507.179487,4207.692307,4436.410256,4222.564102,4268.205128,4495.384615,4102.564102,4658.974358,3996.923077,4057.435897
193,4381.538461,4543.589743,4547.692307,4273.846153,4503.076923,4207.692307,4439.487179,4221.025641,4271.794871,4496.923076,4109.743589,4663.076923,4004.615384,4057.948717
194,4378.974358,4541.025641,4549.743589,4271.282051,4507.692307,4207.179487,4440.000000,4217.435897,4266.666666,4500.000000,4114.358974,4662.564102,4004.102564,4058.461538
195,4381.025641,4537.948717,4551.282051,4284.615384,4513.846153,4211.282051,4441.538461,4224.102564,4267.179487,4499.487179,4115.897435,4660.000000,4005.641025,4056.923076
196,4388.205128,4549.230769,4556.410256,4291.282051,4517.435897,4221.025641,4448.205128,4235.384615,4278.974358,4508.717948,4123.076923,4667.179487,4017.435897,4065.641025
197,4391.282051,4551.282051,4561.538461,4282.564102,4514.871794,4218.974358,4449.230769,4237.435897,4283.589743,4519.487179,4124.615384,4672.307692,4022.564102,4074.871794
198,4382.564102,4540.512820,4555.384615,4274.871794,4507.692307,4207.179487,4442.051282,4229.743589,4271.282051,4510.256410,4115.384615,4665.128205,4018.974358,4065.641025
199,4377.435897,4539.487179,4546.666666,4275.897435,4507.692307,4207.179487,4438.974358,4223.076923,4265.641025,4494.871794,4114.358974,4656.410256,4009.743589,4054.358974
200,4378.461538,4543.589743,4543.589743,4276.923076,4512.820512,4212.307692,4437.435897,4219.487179,4270.769230,4495.384615,4118.461538,4650.769230,4000.512820,4053.333333
201,4374.358974,4540.512820,4541.538461,4270.769230,4510.769230,4207.179487,4432.307692,4218.461538,4271.794871,4500.000000,4112.307692,4646.666666,4005.128205,4054.871794
202,4372.307692,4537.435897,4540.512820,4271.282051,4503.589743,4204.102564,4432.820512,4217.948717,4268.717948,4499.487179,4108.205128,4645.641025,4010.256410,4053.333333
203,4377.948717,4539.487179,4542.564102,4276.923076,4507.179487,4212.820512,4438.974358,4221.538461,4271.282051,4501.538461,4118.974358,4647.179487,4001.538461,4055.897435
204,4379.487179,4543.589743,4546.666666,4271.282051,4511.282051,4211.282051,4436.923076,4222.564102,4273.333333,4501.025641,4125.128205,4647.692307,4000.000000,4056.923076
205,4375.384615,4541.025641,4544.615384,4268.717948,4504.615384,4200.512820,4429.230769,4214.871794,4264.615384,4495.897435,4118.974358,4648.205128,4008.205128,4053.333333
206,4372.307692,4532.307692,4538.461538,4275.384615,4503.589743,4200.512820,4428.205128,4212.820512,4256.410256,4491.282051,4115.897435,4648.717948,4004.615384,4052.820512
207,4370.256410,4526.666666,4538.461538,4269.743589,4507.692307,4207.179487,4435.384615,4224.102564,4263.589743,4490.769230,4119.487179,4647.692307,3995.897436,4052.820512
208,4372.820512,4534.871794,4544.102564,4264.615384,4507.692307,4208.717948,4441.538461,4230.256410,4274.871794,4495.897435,4130.256410,4647.692307,3996.410257,4052.820512
209,4380.000000,4541.538461,4545.641025,4278.974358,4508.717948,4210.256410,4442.564102,4229.230769,4271.282051,4497.435897,4143.589743,4651.282051,4000.512820,4055.384615
210,4381.025641,4536.923076,4545.641025,4284.615384,4511.794871,4210.769230,4441.025641,4228.717948,4268.717948,4499.487179,4143.589743,4657.435897,4002.051282,4061.025641
211,4380.000000,4534.871794,4549.743589,4269.743589,4511.282051,4207.179487,4439.487179,4226.153846,4276.410256,4508.717948,4135.384615,4658.974358,4004.102564,4062.051282
212,4380.000000,4538.461538,4548.717948,4267.179487,4508.717948,4206.666666,4435.384615,4222.564102,4271.794871,4507.692307,4142.564102,4656.410256,4006.666666,4056.923076
213,4376.923076,4536.410256,4543.076923,4274.871794,4506.153846,4209.230769,4435.897435,4224.102564,4264.102564,4495.897435,4161.538461,4656.923076,4003.076923,4055.897435
214,4377.435897,4533.333333,4543.076923,4276.923076,4507.692307,4210.769230,4445.641025,4230.769230,4272.307692,4498.461538,4167.692307,4657.435897,4002.564102,4059.487179
215,4380.000000,4529.230769,4544.615384,4273.846153,4512.307692,4207.179487,4444.615384,4230.769230,4276.410256,4505.641025,4154.358974,4651.794871,4010.769230,4057.948717
216,4377.948717,4524.615384,4537.948717,4266.666666,4510.769230,4203.076923,4431.794871,4221.025641,4268.717948,4501.025641,4147.692307,4647.692307,4009.743589,4053.333333
217,4375.384615,4530.769230,4534.871794,4264.102564,4506.153846,4204.102564,4429.743589,4218.974358,4270.769230,4498.974358,4164.102564,4648.717948,3998.974359,4051.794871
218,4377.948717,4537.948717,4540.512820,4270.769230,4506.666666,4210.256410,4438.974358,4226.153846,4275.897435,4504.615384,4183.076923,4651.794871,4004.102564,4054.358974
219,4378.974358,4533.333333,4544.615384,4274.358974,4510.256410,4210.769230,4437.948717,4226.153846,4271.794871,4507.179487,4182.564102,4653.333333,4016.923076,4057.435897
220,4374.871794,4530.769230,4541.025641,4268.205128,4507.692307,4199.487179,4424.615384,4213.333333,4264.102564,4495.897435,4169.230769,4646.666666,4007.692307,4055.897435
221,4371.282051,4533.846153,4536.410256,4266.666666,4504.615384,4196.410256,4422.564102,4204.615384,4255.384615,4486.666666,4165.128205,4636.923076,3991.794872,4047.692307
222,4373.333333,4535.384615,4537.435897,4271.282051,4506.666666,4202.564102,4429.743589,4208.205128,4254.358974,4493.333333,4174.358974,4640.000000,3993.333334,4047.179487
223,4377.435897,4533.846153,4543.076923,4272.820512,4508.205128,4204.615384,4430.769230,4215.384615,4263.076923,4503.589743,4182.564102,4649.743589,4003.076923,4054.871794
224,4377.948717,4532.307692,4544.102564,4271.794871,4505.641025,4202.051282,4429.230769,4217.435897,4266.153846,4501.025641,4186.666666,4647.179487,4007.692307,4057.435897
225,4375.897435,4531.282051,4541.538461,4274.358974,4505.128205,4198.461538,4428.205128,4217.435897,4260.000000,4493.333333,4184.102564,4642.564102,4005.641025,4052.820512
226,4380.000000,4537.435897,4544.102564,4275.897435,4505.128205,4196.923076,4428.205128,4221.538461,4262.051282,4494.358974,4181.025641,4647.692307,4006.153846,4053.333333
227,4385.128205,4542.564102,4547.179487,4268.717948,4500.512820,4196.923076,4429.230769,4220.512820,4266.666666,4497.435897,4190.256410,4651.794871,4009.743589,4058.974358
228,4383.589743,4538.974358,4548.205128,4268.717948,4501.538461,4196.923076,4429.743589,4216.923076,4270.769230,4504.102564,4201.025641,4649.743589,4009.230769,4060.512820
229,4383.076923,4536.410256,4549.743589,4279.487179,4506.666666,4198.974358,4432.307692,4221.025641,4276.923076,4512.307692,4194.358974,4651.794871,4011.282051,4059.487179
230,4381.538461,4538.974358,4548.717948,4272.820512,4508.717948,4202.051282,4430.769230,4220.512820,4270.769230,4501.025641,4190.256410,4650.256410,4009.230769,4055.384615
231,4371.282051,4530.256410,4538.974358,4258.974358,4501.025641,4196.410256,4426.153846,4210.256410,4251.282051,4485.641025,4193.333333,4637.948717,3995.897436,4045.128205
232,4369.230769,4518.461538,4532.820512,4264.615384,4496.410256,4191.282051,4426.153846,4207.692307,4248.717948,4490.769230,4193.333333,4632.307692,3997.435898,4044.102564
233,4374.871794,4522.564102,4538.974358,4267.692307,4502.564102,4197.435897,4429.230769,4216.410256,4264.102564,4496.923076,4200.512820,4640.512820,4010.256410,4051.794871
234,4371.794871,4529.230769,4543.076923,4259.487179,4504.615384,4197.435897,4429.743589,4221.538461,4266.666666,4491.282051,4200.000000,4642.051282,4004.102564,4046.666666
235,4368.717948,4524.102564,4540.000000,4259.487179,4501.025641,4193.333333,4428.205128,4216.410256,4256.923076,4492.820512,4187.179487,4637.435897,3994.871795,4041.538461
236,4373.333333,4524.615384,4539.487179,4267.179487,4496.923076,4192.307692,4425.128205,4213.846153,4257.435897,4496.923076,4189.743589,4639.487179,3998.974359,4049.230769
237,4371.282051,4528.717948,4543.076923,4268.717948,4494.871794,4190.769230,4422.564102,4217.948717,4269.230769,4496.410256,4206.666666,4641.025641,3997.948718,4049.230769
238,4367.179487,4524.615384,4542.051282,4262.051282,4496.410256,4192.307692,4425.641025,4217.948717,4268.717948,4497.948717,4209.230769,4640.000000,3996.410257,4041.538461
239,4371.282051,4523.076923,4541.538461,4258.974358,4497.948717,4195.897435,4430.256410,4213.846153,4257.948717,4494.871794,4201.025641,4640.512820,4006.666666,4044.615384
240,4376.410256,4531.282051,4545.641025,4268.717948,4496.410256,4196.923076,4430.256410,4213.333333,4256.923076,4489.743589,4203.589743,4641.538461,4007.692307,4052.820512
241,4377.948717,4534.358974,4546.153846,4274.358974,4497.948717,4198.461538,4432.307692,4216.410256,4262.564102,4487.692307,4211.794871,4644.615384,3997.435898,4054.871794
242,4375.384615,4527.692307,4542.564102,4266.666666,4500.512820,4197.435897,4433.846153,4212.820512,4261.025641,4484.615384,4205.128205,4642.051282,3990.769231,4047.692307
243,4365.128205,4517.435897,4537.435897,4260.512820,4492.307692,4192.307692,4429.743589,4206.153846,4253.333333,4482.051282,4188.717948,4633.846153,3989.230770,4037.948717
244,4362.564102,4516.923076,4537.435897,4261.025641,4487.692307,4191.794871,4427.179487,4209.743589,4251.794871,4484.102564,4191.282051,4635.897435,3996.923077,4039.487179
245,4371.794871,4528.717948,4543.076923,4261.025641,4495.384615,4196.410256,4433.333333,4217.948717,4261.025641,4490.256410,4212.307692,4643.589743,4004.615384,4050.769230
246,4374.358974,4532.307692,4545.128205,4262.564102,4500.000000,4195.897435,4435.897435,4217.435897,4266.153846,4493.333333,4219.487179,4640.512820,4003.076923,4051.794871
247,4367.179487,4520.512820,4536.923076,4262.564102,4493.846153,4190.769230,4424.102564,4208.717948,4256.410256,4487.179487,4203.589743,4629.743589,3997.948718,4040.512820
248,4362.051282,4515.384615,4529.230769,4255.384615,4484.615384,4184.102564,4416.410256,4201.025641,4245.128205,4475.897435,4189.230769,4622.564102,3989.743590,4034.358974
249,4362.564102,4517.435897,4531.282051,4252.820512,4486.666666,4182.564102,4420.000000,4197.948717,4245.641025,4471.282051,4192.307692,4625.641025,3985.128206,4039.487179
250,4365.641025,4518.974358,4534.358974,4253.846153,4494.358974,4188.205128,4424.102564,4205.128205,4253.333333,4478.461538,4202.564102,4628.717948,3989.743590,4042.051282
251,4362.051282,4517.948717,4528.717948,4249.743589,4492.307692,4190.256410,4424.102564,4210.769230,4253.333333,4482.564102,4196.410256,4621.538461,3991.794872,4032.820512
252,4352.307692,4515.384615,4523.076923,4248.717948,4489.230769,4187.179487,4421.538461,4204.615384,4247.692307,4477.948717,4187.692307,4615.384615,3986.153847,4023.589743
253,4357.435897,4518.461538,4528.205128,4257.435897,4498.461538,4191.282051,4422.564102,4206.153846,4255.384615,4483.076923,4192.307692,4619.487179,3988.205129,4030.769230
254,4374.871794,4529.743589,4535.897435,4262.051282,4502.051282,4197.435897,4426.666666,4214.871794,4267.692307,4498.974358,4200.000000,4627.692307,3995.384616,4044.102564
255,4377.948717,4541.025641,4534.871794,4262.051282,4497.435897,4195.897435,4427.179487,4215.897435,4260.512820,4498.974358,4204.102564,4633.333333,3997.948718,4046.153846
256,4366.153846,4536.923076,4529.230769,4261.025641,4498.461538,4191.282051,4423.076923,4211.282051,4247.692307,4482.564102,4202.051282,4629.743589,3997.948718,4040.000000
257,4359.487179,4521.025641,4526.153846,4253.333333,4497.435897,4188.717948,4416.923076,4205.641025,4245.641025,4474.358974,4191.794871,4617.435897,3989.230770,4034.358974
258,4362.564102,4516.410256,4526.666666,4252.820512,4494.358974,4189.743589,4416.923076,4202.564102,4250.256410,4483.076923,4190.256410,4615.897435,3980.000000,4032.307692
259,4363.589743,4523.589743,4530.769230,4260.512820,4494.358974,4191.282051,4421.025641,4208.205128,4255.897435,4489.743589,4202.051282,4626.666666,3983.076924,4035.897435
