,AF3,F7,F3,FC5,T7,P7,O1,O2,P8,T8,FC6,F4,F8,AF4
0,4418.974358,4526.666666,4509.230769,4246.153846,4506.666666,4195.897435,4426.666666,4202.051282,4228.717948,4509.230769,4207.692307,4662.564102,3993.333334,4033.846153
1,4416.923076,4527.692307,4510.256410,4245.128205,4501.538461,4187.179487,4426.666666,4201.538461,4225.641025,4506.666666,4202.564102,4658.974358,3992.307693,4038.461538
2,4413.333333,4526.666666,4509.230769,4244.102564,4506.153846,4188.205128,4426.153846,4197.435897,4227.692307,4512.820512,4194.358974,4652.307692,3995.384616,4034.358974
3,4405.641025,4526.666666,4505.641025,4245.128205,4508.205128,4193.333333,4428.205128,4200.000000,4225.128205,4515.897435,4185.641025,4647.692307,3995.897436,4022.051282
4,4400.512820,4526.153846,4505.641025,4246.666666,4505.641025,4190.769230,4428.717948,4202.564102,4222.051282,4507.692307,4184.102564,4645.641025,3992.820513,4021.025641
5,4405.128205,4527.692307,4508.717948,4248.717948,4509.743589,4186.666666,4425.128205,4200.512820,4226.666666,4503.589743,4182.051282,4646.666666,3995.897436,4026.666666
6,4406.153846,4531.794871,4508.717948,4251.794871,4514.358974,4189.743589,4428.205128,4200.000000,4224.615384,4507.692307,4173.846153,4644.615384,4000.000000,4019.487179
7,4400.512820,4530.256410,4510.256410,4248.205128,4507.692307,4194.358974,4437.948717,4199.487179,4216.923076,4510.769230,4172.307692,4641.025641,3992.307693,4012.820512
8,4401.538461,4527.179487,4516.410256,4244.615384,4502.564102,4196.923076,4443.076923,4199.487179,4223.589743,4510.769230,4185.128205,4644.102564,3986.153847,4026.666666
9,4409.230769,4530.256410,4525.641025,4255.384615,4510.769230,4196.923076,4442.564102,4211.794871,4239.487179,4516.923076,4191.282051,4651.794871,3996.410257,4038.461538
10,4409.743589,4537.948717,4531.282051,4269.743589,4522.564102,4198.461538,4444.102564,4221.025641,4244.102564,4524.615384,4182.564102,4656.410256,4011.794871,4033.333333
11,4402.564102,4542.051282,4527.692307,4265.128205,4524.102564,4202.051282,4444.615384,4211.282051,4238.461538,4523.076923,4182.564102,4656.410256,4013.333333,4026.666666
12,4399.487179,4543.589743,4521.538461,4254.358974,4521.538461,4200.000000,4444.615384,4205.641025,4233.846153,4517.948717,4188.205128,4649.230769,4004.615384,4026.153846
13,4400.512820,4542.564102,4518.461538,4256.410256,4517.948717,4195.897435,4444.615384,4208.205128,4235.384615,4511.282051,4186.153846,4643.076923,3995.384616,4025.128205
14,4399.487179,4541.025641,4523.076923,4262.051282,4515.897435,4197.948717,4447.692307,4212.307692,4242.051282,4511.794871,4187.179487,4647.179487,4000.000000,4023.076923
15,4397.948717,4543.076923,4529.743589,4263.076923,4523.589743,4207.179487,4454.871794,4220.512820,4246.666666,4525.128205,4192.820512,4653.846153,4011.794871,4024.615384
16,4401.538461,4545.128205,4526.666666,4264.615384,4530.256410,4210.256410,4454.871794,4223.589743,4243.076923,4531.282051,4194.358974,4654.358974,4010.769230,4030.256410
17,4406.666666,4547.692307,4525.641025,4265.641025,4525.128205,4202.564102,4445.128205,4221.538461,4241.538461,4528.717948,4201.025641,4654.871794,4010.256410,4035.897435
18,4408.717948,4551.282051,4531.282051,4264.615384,4520.512820,4200.000000,4442.564102,4218.974358,4244.102564,4533.846153,4209.743589,4660.512820,4022.564102,4038.461538
19,4404.102564,4547.692307,4531.794871,4263.076923,4519.487179,4201.025641,4445.128205,4213.846153,4243.076923,4531.282051,4204.102564,4663.589743,4022.051282,4037.435897
20,4402.051282,4544.102564,4530.769230,4258.461538,4518.974358,4197.948717,4443.589743,4208.205128,4237.948717,4517.435897,4200.000000,4663.076923,4005.641025,4037.435897
21,4406.666666,4547.692307,4535.384615,4261.025641,4523.076923,4200.512820,4444.102564,4213.333333,4236.923076,4522.051282,4209.743589,4663.589743,4007.692307,4038.974358
22,4407.179487,4547.692307,4536.923076,4270.256410,4525.128205,4204.615384,4446.666666,4220.000000,4238.461538,4531.282051,4211.794871,4661.538461,4022.564102,4034.358974
23,4400.512820,4542.051282,4529.743589,4266.153846,4515.897435,4201.025641,4444.615384,4217.435897,4241.025641,4523.589743,4204.102564,4655.384615,4022.051282,4026.153846
24,4399.487179,4540.512820,4527.692307,4254.871794,4511.794871,4200.512820,4445.128205,4218.461538,4247.692307,4522.051282,4201.538461,4652.820512,4010.256410,4027.692307
25,4397.435897,4538.461538,4528.205128,4253.846153,4513.846153,4201.025641,4445.641025,4222.564102,4248.717948,4525.641025,4199.487179,4651.282051,4001.538461,4031.282051
26,4389.743589,4536.410256,4525.641025,4256.410256,4510.769230,4197.948717,4443.589743,4223.076923,4241.538461,4523.589743,4196.923076,4649.743589,4001.025641,4024.615384
27,4395.384615,4540.512820,4525.128205,4256.410256,4514.358974,4202.051282,4445.641025,4220.512820,4242.051282,4530.769230,4201.025641,4653.333333,4010.256410,4020.512820
28,4405.641025,4538.974358,4525.641025,4251.794871,4520.512820,4203.589743,4447.179487,4216.410256,4245.128205,4534.358974,4206.153846,4653.333333,4011.282051,4024.615384
29,4401.025641,4530.769230,4524.615384,4247.692307,4514.871794,4193.846153,4444.102564,4211.794871,4239.487179,4517.948717,4203.076923,4648.717948,4000.512820,4027.692307
30,4394.871794,4530.769230,4523.076923,4252.820512,4511.794871,4192.307692,4443.076923,4210.769230,4236.923076,4511.794871,4197.435897,4648.205128,3997.435898,4027.179487
31,4397.435897,4534.358974,4520.000000,4260.000000,4513.333333,4195.384615,4438.461538,4210.256410,4241.538461,4521.025641,4198.461538,4650.256410,4001.025641,4020.000000
32,4394.871794,4531.794871,4515.897435,4257.948717,4510.769230,4194.871794,4431.282051,4208.205128,4240.512820,4520.512820,4201.538461,4648.717948,3995.897436,4017.435897
33,4392.820512,4535.384615,4517.435897,4252.820512,4510.769230,4194.871794,4431.282051,4211.282051,4238.974358,4515.897435,4205.641025,4648.205128,3993.846154,4027.179487
34,4397.948717,4538.461538,4516.923076,4253.846153,4509.743589,4191.794871,4432.820512,4210.769230,4237.435897,4514.358974,4202.051282,4644.615384,3997.435898,4031.282051
35,4395.897435,4533.846153,4512.820512,4254.358974,4501.025641,4188.717948,4427.179487,4199.487179,4231.282051,4507.179487,4194.871794,4640.512820,3990.769231,4023.076923
36,4394.871794,4533.846153,4515.384615,4257.435897,4502.051282,4190.769230,4427.179487,4198.974358,4229.743589,4507.179487,4200.512820,4644.102564,3985.641026,4020.512820
37,4400.512820,4535.897435,4520.000000,4255.384615,4515.384615,4195.897435,4433.333333,4205.128205,4230.256410,4512.307692,4207.179487,4648.717948,3993.333334,4024.615384
38,4396.923076,4532.820512,4517.948717,4246.153846,4517.435897,4192.820512,4429.230769,4199.487179,4224.102564,4506.153846,4198.461538,4648.205128,3999.487180,4023.589743
39,4395.897435,4536.923076,4521.025641,4248.205128,4512.307692,4190.769230,4427.692307,4200.512820,4229.230769,4504.102564,4195.384615,4650.769230,3999.487180,4025.641025
40,4408.205128,4543.076923,4527.692307,4257.435897,4513.846153,4197.435897,4435.897435,4213.333333,4238.974358,4513.333333,4209.230769,4655.897435,3998.974359,4035.384615
41,4404.615384,4534.358974,4518.974358,4255.384615,4510.256410,4196.410256,4435.384615,4211.794871,4234.871794,4510.256410,4205.641025,4648.205128,3990.769231,4029.230769
42,4384.615384,4527.692307,4506.153846,4248.205128,4498.974358,4187.179487,4426.666666,4200.512820,4227.179487,4501.025641,4186.666666,4634.871794,3976.410257,4008.717948
43,4381.025641,4529.230769,4506.153846,4244.615384,4498.461538,4185.641025,4426.153846,4199.487179,4226.666666,4499.487179,4184.615384,4633.333333,3980.000000,4008.205128
44,4388.205128,4527.692307,4510.769230,4247.692307,4507.692307,4191.794871,4431.794871,4205.128205,4227.692307,4499.487179,4195.897435,4638.461538,3995.384616,4025.128205
45,4390.256410,4533.846153,4512.307692,4257.435897,4513.846153,4193.846153,4433.333333,4208.205128,4229.743589,4502.051282,4206.153846,4643.589743,3992.820513,4027.179487
46,4394.871794,4546.153846,4518.461538,4261.025641,4514.871794,4191.794871,4429.230769,4205.641025,4231.794871,4506.153846,4209.743589,4647.179487,3987.692308,4018.974358
47,4403.589743,4546.153846,4524.615384,4257.435897,4511.794871,4191.794871,4427.692307,4205.641025,4232.307692,4508.717948,4211.282051,4650.769230,4002.051282,4024.615384
48,4409.743589,4541.025641,4523.076923,4262.051282,4513.333333,4195.897435,4435.897435,4213.333333,4236.923076,4515.897435,4215.897435,4655.384615,4013.846153,4038.461538
49,4410.769230,4544.102564,4524.615384,4263.076923,4518.974358,4196.923076,4437.948717,4214.871794,4240.000000,4513.846153,4222.564102,4656.410256,4006.153846,4045.128205
50,4401.538461,4542.051282,4522.564102,4253.333333,4509.230769,4189.743589,4426.666666,4206.666666,4237.948717,4500.512820,4220.000000,4652.307692,3995.897436,4038.974358
51,4395.384615,4532.307692,4517.948717,4253.846153,4501.025641,4189.743589,4430.256410,4209.743589,4240.512820,4503.076923,4213.333333,4651.282051,3994.871795,4034.358974
52,4402.564102,4534.358974,4522.564102,4260.000000,4510.256410,4200.512820,4445.641025,4220.000000,4246.153846,4515.897435,4217.948717,4655.897435,4001.538461,4040.512820
53,4403.589743,4532.307692,4522.051282,4250.256410,4510.256410,4198.974358,4440.000000,4218.461538,4242.051282,4513.333333,4218.974358,4652.307692,4000.000000,4034.871794
54,4394.358974,4521.538461,4507.179487,4237.948717,4499.487179,4188.717948,4427.692307,4214.358974,4236.410256,4506.153846,4207.692307,4644.615384,3985.128206,4020.512820
55,4392.307692,4522.051282,4505.128205,4242.051282,4501.025641,4191.794871,4435.897435,4212.820512,4239.487179,4507.692307,4202.564102,4644.615384,3980.000000,4020.512820
56,4396.923076,4529.743589,4515.897435,4248.205128,4506.153846,4198.461538,4446.153846,4214.358974,4242.564102,4512.820512,4211.794871,4647.179487,3993.846154,4031.794871
57,4401.538461,4529.230769,4515.384615,4250.769230,4509.743589,4198.461538,4444.102564,4218.974358,4241.025641,4513.846153,4220.512820,4649.743589,3997.948718,4039.487179
58,4401.025641,4523.076923,4511.282051,4249.230769,4507.179487,4193.333333,4440.512820,4218.461538,4238.461538,4503.589743,4216.410256,4650.769230,3985.128206,4037.435897
59,4395.384615,4512.820512,4512.820512,4241.025641,4493.846153,4188.717948,4440.000000,4211.282051,4236.410256,4501.025641,4213.846153,4650.256410,3980.512821,4033.333333
60,4397.948717,4511.794871,4516.923076,4238.461538,4491.794871,4192.307692,4438.461538,4210.769230,4233.333333,4513.333333,4218.974358,4651.282051,3982.564103,4034.871794
61,4410.769230,4525.641025,4520.512820,4247.692307,4503.076923,4196.410256,4432.820512,4209.230769,4228.205128,4503.076923,4218.974358,4653.846153,3976.410257,4042.051282
62,4414.358974,4533.333333,4515.384615,4252.307692,4501.025641,4191.794871,4426.666666,4200.512820,4223.076923,4481.025641,4209.230769,4652.820512,3973.846154,4038.461538
63,4406.153846,4529.230769,4510.769230,4247.179487,4493.333333,4183.076923,4424.102564,4195.897435,4220.512820,4487.692307,4209.230769,4648.205128,3981.025642,4028.717948
64,4407.179487,4528.717948,4514.871794,4247.692307,4495.897435,4183.589743,4426.153846,4198.461538,4226.666666,4505.641025,4224.102564,4650.256410,3986.153847,4033.333333
65,4415.897435,4531.282051,4519.487179,4254.871794,4502.051282,4188.205128,4428.205128,4204.102564,4234.358974,4512.307692,4232.820512,4654.871794,3988.717949,4050.256410
66,4414.358974,4532.820512,4517.948717,4258.974358,4502.051282,4191.794871,4427.692307,4208.205128,4232.307692,4512.307692,4229.230769,4652.820512,3990.769231,4053.846153
67,4409.230769,4532.820512,4516.923076,4256.410256,4498.461538,4192.307692,4427.179487,4207.179487,4230.769230,4502.564102,4223.076923,4652.820512,3985.641026,4042.564102
68,4410.256410,4530.256410,4512.820512,4249.230769,4498.461538,4185.641025,4426.153846,4202.564102,4232.307692,4496.923076,4222.564102,4654.358974,3981.538462,4038.461538
69,4409.230769,4527.179487,4507.179487,4245.641025,4500.000000,4184.102564,4425.128205,4200.000000,4229.230769,4501.538461,4227.692307,4649.230769,3981.538462,4040.512820
70,4406.153846,4531.794871,4507.179487,4247.692307,4500.000000,4189.743589,4427.179487,4200.000000,4227.692307,4501.538461,4234.871794,4645.641025,3983.076924,4036.923076
71,4408.717948,4534.358974,4507.179487,4248.205128,4502.564102,4192.307692,4428.717948,4202.051282,4230.769230,4499.487179,4232.307692,4647.179487,3983.589744,4038.461538
72,4408.205128,4528.205128,4508.205128,4249.743589,4498.974358,4186.153846,4424.102564,4198.974358,4228.205128,4498.461538,4221.538461,4647.179487,3983.076924,4045.641025
73,4404.102564,4525.641025,4509.230769,4251.282051,4490.769230,4183.589743,4422.051282,4194.871794,4224.615384,4496.923076,4222.564102,4646.666666,3979.487180,4048.205128
74,4406.153846,4530.769230,4507.692307,4246.153846,4493.846153,4188.717948,4426.153846,4194.871794,4221.025641,4492.820512,4227.692307,4645.128205,3973.846154,4036.923076
75,4410.256410,4533.846153,4506.153846,4243.589743,4502.051282,4191.282051,4426.666666,4191.282051,4215.897435,4487.179487,4222.051282,4642.051282,3971.282052,4026.153846
76,4412.307692,4533.333333,4506.666666,4253.846153,4505.128205,4191.282051,4426.153846,4191.282051,4217.948717,4490.256410,4218.974358,4648.205128,3980.512821,4033.333333
77,4413.333333,4532.820512,4509.743589,4260.512820,4505.641025,4190.769230,4424.102564,4194.358974,4222.564102,4496.923076,4229.743589,4653.333333,3989.743590,4047.692307
78,4413.846153,4532.820512,4509.230769,4251.282051,4499.487179,4185.641025,4417.948717,4194.871794,4224.615384,4493.846153,4235.897435,4648.205128,3979.487180,4044.102564
79,4409.743589,4533.333333,4503.076923,4246.666666,4498.974358,4183.589743,4417.948717,4191.794871,4225.128205,4488.717948,4226.666666,4643.589743,3969.230770,4034.871794
80,4407.692307,4530.769230,4503.589743,4253.333333,4508.205128,4188.717948,4423.076923,4190.769230,4226.153846,4495.897435,4222.051282,4644.615384,3978.461539,4038.974358
81,4409.230769,4521.025641,4506.666666,4254.358974,4500.000000,4186.666666,4420.512820,4190.256410,4223.076923,4502.564102,4229.230769,4644.615384,3986.153847,4045.641025
82,4405.641025,4520.512820,4498.974358,4243.076923,4485.641025,4180.000000,4414.358974,4190.256410,4218.974358,4496.410256,4227.692307,4641.025641,3974.871795,4043.076923
83,4402.051282,4523.589743,4494.358974,4235.384615,4489.230769,4184.615384,4417.435897,4192.820512,4219.487179,4492.307692,4222.051282,4642.051282,3967.179488,4040.000000
84,4406.666666,4520.000000,4503.076923,4239.487179,4502.051282,4192.307692,4425.641025,4197.435897,4223.589743,4496.923076,4228.205128,4650.769230,3974.358975,4043.076923
85,4415.897435,4522.564102,4508.205128,4248.717948,4509.230769,4192.820512,4430.769230,4204.102564,4228.717948,4503.076923,4236.923076,4656.923076,3981.538462,4047.179487
86,4415.897435,4527.179487,4507.179487,4249.743589,4508.717948,4192.820512,4427.179487,4204.102564,4229.230769,4502.564102,4237.948717,4654.871794,3977.435898,4046.666666
87,4409.743589,4522.051282,4503.076923,4242.051282,4503.589743,4192.820512,4424.102564,4197.435897,4226.666666,4500.000000,4237.435897,4649.230769,3976.410257,4046.666666
88,4407.179487,4515.384615,4498.974358,4243.589743,4502.564102,4190.256410,4428.205128,4197.435897,4227.179487,4497.435897,4236.410256,4647.692307,3981.025642,4050.256410
89,4407.179487,4517.948717,4501.538461,4246.153846,4502.564102,4190.256410,4426.666666,4200.000000,4230.769230,4496.410256,4231.794871,4647.179487,3976.923077,4045.128205
90,4403.589743,4519.487179,4500.512820,4238.461538,4493.333333,4184.102564,4414.871794,4190.769230,4224.615384,4495.897435,4226.153846,4641.538461,3962.051283,4031.794871
91,4400.512820,4515.384615,4493.333333,4234.871794,4483.589743,4175.897435,4408.717948,4178.461538,4208.717948,4491.794871,4220.512820,4633.846153,3956.410257,4028.717948
92,4400.000000,4512.820512,4489.743589,4237.948717,4487.692307,4177.948717,4411.282051,4180.512820,4205.641025,4490.256410,4225.128205,4635.897435,3964.615385,4036.410256
93,4398.974358,4511.794871,4495.384615,4234.871794,4496.410256,4180.000000,4410.769230,4184.102564,4214.358974,4493.333333,4237.435897,4644.615384,3967.692308,4037.435897
94,4403.589743,4514.358974,4501.538461,4232.820512,4492.307692,4175.897435,4406.666666,4180.000000,4213.846153,4491.794871,4233.333333,4648.717948,3965.641026,4032.820512
95,4413.333333,4523.076923,4504.615384,4237.948717,4489.743589,4175.897435,4409.743589,4182.564102,4211.794871,4493.333333,4218.461538,4651.282051,3973.333334,4038.974358
96,4414.358974,4525.641025,4502.051282,4242.051282,4492.820512,4178.974358,4413.846153,4189.743589,4220.512820,4500.000000,4216.923076,4651.794871,3979.487180,4050.769230
97,4407.692307,4516.923076,4501.538461,4241.025641,4489.230769,4179.487179,4410.769230,4187.692307,4226.666666,4502.564102,4224.615384,4651.794871,3979.487180,4048.205128
98,4410.769230,4520.512820,4507.179487,4240.512820,4489.230769,4184.102564,4411.282051,4187.692307,4224.615384,4508.717948,4223.076923,4654.871794,3984.615385,4043.076923
99,4414.358974,4533.333333,4508.717948,4245.641025,4498.974358,4188.717948,4417.948717,4195.897435,4226.666666,4517.948717,4212.307692,4658.974358,3989.743590,4047.692307
100,4406.666666,4530.769230,4506.666666,4252.307692,4507.179487,4188.717948,4421.025641,4200.512820,4232.307692,4516.410256,4208.717948,4660.000000,3991.282052,4053.333333
101,4405.128205,4525.641025,4510.256410,4250.769230,4506.666666,4188.717948,4422.051282,4197.435897,4229.230769,4515.897435,4208.205128,4658.461538,4001.538461,4053.846153
102,4407.692307,4530.256410,4514.358974,4249.743589,4504.102564,4186.153846,4426.153846,4196.923076,4226.666666,4520.000000,4202.051282,4654.358974,4001.025641,4048.205128
103,4400.512820,4532.307692,4511.282051,4254.871794,4509.230769,4186.666666,4427.692307,4201.538461,4233.846153,4517.948717,4195.897435,4651.794871,3986.153847,4043.076923
104,4391.794871,4531.794871,4506.153846,4251.794871,4513.333333,4191.282051,4425.641025,4202.564102,4233.846153,4515.384615,4191.794871,4649.230769,3985.128206,4042.564102
105,4389.230769,4531.794871,4505.128205,4241.538461,4504.615384,4189.230769,4428.205128,4197.948717,4229.230769,4517.435897,4187.692307,4641.538461,3993.846154,4037.948717
106,4386.153846,4525.128205,4503.589743,4242.051282,4497.948717,4184.615384,4430.769230,4193.333333,4234.871794,4512.820512,4187.692307,4638.974358,3991.794872,4029.743589
107,4386.153846,4526.666666,4503.589743,4250.256410,4505.641025,4186.666666,4427.692307,4195.384615,4240.000000,4510.769230,4193.846153,4645.128205,3993.333334,4033.333333
108,4390.256410,4540.000000,4508.205128,4253.846153,4512.820512,4191.282051,4431.282051,4203.076923,4238.461538,4521.538461,4194.358974,4651.282051,4000.000000,4043.589743
109,4389.230769,4538.461538,4513.846153,4252.820512,4515.897435,4191.282051,4439.487179,4203.589743,4238.974358,4528.205128,4189.230769,4651.282051,3995.384616,4041.025641
110,4389.743589,4533.333333,4513.846153,4257.435897,4515.384615,4189.743589,4443.076923,4196.923076,4241.025641,4521.025641,4190.256410,4650.256410,3989.230770,4035.897435
111,4391.282051,4540.512820,4516.410256,4266.666666,4515.897435,4195.384615,4442.564102,4200.512820,4244.615384,4517.435897,4194.871794,4650.256410,3997.435898,4042.051282
112,4386.666666,4541.538461,4518.974358,4265.128205,4517.948717,4200.512820,4443.076923,4210.769230,4246.666666,4520.512820,4196.923076,4649.743589,4001.025641,4047.179487
113,4383.076923,4535.384615,4520.000000,4254.358974,4513.333333,4194.358974,4443.076923,4207.179487,4242.051282,4513.846153,4198.974358,4650.256410,3992.820513,4042.051282
114,4386.666666,4538.974358,4521.025641,4254.871794,4512.307692,4192.820512,4442.564102,4203.589743,4238.974358,4511.282051,4204.615384,4653.333333,3997.435898,4044.102564
115,4391.794871,4548.205128,4524.102564,4265.128205,4519.487179,4197.948717,4444.102564,4211.282051,4245.128205,4528.717948,4210.256410,4656.923076,4009.230769,4054.358974
116,4393.846153,4545.641025,4525.641025,4268.717948,4519.487179,4197.948717,4444.615384,4214.871794,4250.769230,4532.307692,4211.794871,4660.000000,4006.153846,4054.871794
117,4391.282051,4535.384615,4520.512820,4262.564102,4511.282051,4194.871794,4443.589743,4212.307692,4251.282051,4516.923076,4208.205128,4658.461538,3999.487180,4046.153846
118,4385.641025,4533.846153,4520.000000,4255.897435,4509.230769,4194.358974,4442.051282,4213.846153,4252.307692,4516.923076,4196.410256,4653.333333,3995.384616,4040.512820
119,4386.666666,4539.487179,4525.128205,4255.897435,4514.358974,4193.846153,4443.589743,4214.358974,4251.282051,4523.076923,4194.358974,4654.871794,3991.282052,4043.589743
120,4389.230769,4540.512820,4525.128205,4258.974358,4515.384615,4196.410256,4446.153846,4212.307692,4246.666666,4519.487179,4204.615384,4658.461538,3991.794872,4047.692307
121,4386.153846,4539.487179,4523.076923,4264.102564,4514.358974,4202.564102,4447.179487,4216.410256,4249.743589,4524.102564,4207.179487,4655.897435,3996.923077,4046.153846
122,4383.589743,4540.000000,4522.564102,4265.128205,4516.410256,4201.025641,4447.179487,4216.923076,4251.794871,4524.102564,4205.641025,4653.333333,3997.435898,4041.538461
123,4384.615384,4534.871794,4522.051282,4258.461538,4516.410256,4194.358974,4445.641025,4209.743589,4242.564102,4511.794871,4205.128205,4650.256410,3992.307693,4042.564102
124,4383.589743,4533.846153,4520.512820,4252.820512,4512.307692,4194.358974,4442.564102,4210.256410,4238.974358,4509.743589,4196.923076,4645.641025,3986.666667,4044.615384
125,4378.974358,4536.410256,4521.025641,4253.333333,4511.282051,4196.923076,4441.538461,4213.846153,4242.564102,4514.358974,4192.307692,4643.076923,3981.538462,4038.974358
126,4378.974358,4533.333333,4522.051282,4254.871794,4513.846153,4195.897435,4444.615384,4206.666666,4238.974358,4510.256410,4202.564102,4641.025641,3981.538462,4033.846153
127,4382.051282,4532.307692,4522.051282,4255.897435,4512.307692,4193.846153,4443.076923,4199.487179,4234.358974,4504.615384,4209.743589,4640.000000,3984.615385,4035.897435
128,4380.000000,4532.820512,4518.974358,4253.846153,4503.076923,4191.794871,4435.897435,4198.461538,4233.333333,4503.589743,4208.205128,4642.564102,3986.666667,4040.512820
129,4383.589743,4532.820512,4517.435897,4253.333333,4502.051282,4192.820512,4435.897435,4198.461538,4234.871794,4506.153846,4210.769230,4645.641025,3986.666667,4045.128205
130,4394.358974,4535.384615,4522.051282,4258.974358,4512.820512,4197.435897,4442.564102,4197.435897,4241.025641,4512.820512,4215.897435,4649.743589,3988.717949,4048.205128
131,4394.358974,4540.000000,4524.615384,4261.538461,4517.435897,4195.384615,4442.051282,4192.820512,4243.076923,4515.897435,4214.358974,4655.897435,3995.897436,4046.153846
132,4387.179487,4538.974358,4520.512820,4255.897435,4510.769230,4189.230769,4432.307692,4183.589743,4232.820512,4505.641025,4209.743589,4650.769230,3993.333334,4045.128205
133,4389.230769,4535.897435,4519.487179,4254.871794,4508.205128,4192.307692,4430.769230,4179.487179,4228.205128,4500.512820,4209.743589,4644.615384,3985.641026,4047.179487
134,4393.333333,4535.897435,4522.564102,4259.487179,4513.333333,4198.974358,4440.000000,4182.564102,4236.923076,4513.333333,4217.435897,4648.717948,3992.307693,4045.641025
135,4392.307692,4535.897435,4523.076923,4259.487179,4514.871794,4199.487179,4442.564102,4182.564102,4241.538461,4512.820512,4222.564102,4649.230769,4003.076923,4048.717948
136,4389.743589,4534.358974,4517.948717,4256.410256,4511.794871,4195.384615,4434.871794,4176.923076,4239.487179,4493.333333,4214.871794,4645.641025,3994.871795,4055.897435
137,4387.179487,4534.358974,4514.358974,4250.256410,4504.615384,4187.179487,4429.230769,4170.256410,4232.307692,4486.666666,4204.102564,4644.615384,3979.487180,4055.897435
138,4386.666666,4532.307692,4515.897435,4244.615384,4500.000000,4182.564102,4427.179487,4167.692307,4228.717948,4487.692307,4207.179487,4643.076923,3981.025642,4046.666666
139,4388.205128,4527.692307,4518.974358,4247.179487,4505.641025,4187.179487,4429.230769,4169.743589,4233.846153,4481.538461,4216.923076,4644.615384,3991.282052,4044.615384
140,4389.743589,4528.717948,4519.487179,4249.743589,4514.871794,4193.333333,4436.410256,4172.820512,4235.384615,4488.205128,4215.384615,4651.282051,3988.717949,4049.230769
141,4391.794871,4533.846153,4520.000000,4247.692307,4516.923076,4193.333333,4437.948717,4172.820512,4231.794871,4499.487179,4212.820512,4652.307692,3980.000000,4048.717948
142,4393.846153,4538.461538,4523.076923,4253.846153,4515.897435,4191.794871,4436.923076,4177.435897,4238.974358,4498.461538,4220.000000,4653.333333,3982.564103,4047.692307
143,4394.871794,4536.923076,4527.692307,4265.641025,4518.974358,4195.897435,4441.538461,4181.025641,4247.692307,4496.923076,4223.589743,4654.871794,3991.794872,4052.307692
144,4391.282051,4531.282051,4523.076923,4262.051282,4513.846153,4195.384615,4438.461538,4173.846153,4236.923076,4495.897435,4218.974358,4647.179487,3988.205129,4052.307692
145,4381.025641,4529.743589,4509.743589,4247.179487,4500.512820,4184.102564,4425.641025,4164.102564,4224.615384,4487.692307,4211.794871,4635.897435,3972.820513,4041.025641
146,4376.410256,4530.769230,4503.589743,4244.102564,4498.974358,4180.512820,4423.076923,4164.102564,4224.102564,4482.051282,4205.128205,4634.871794,3964.615385,4035.897435
147,4378.974358,4525.641025,4515.384615,4251.794871,4510.769230,4191.282051,4434.358974,4173.846153,4229.743589,4489.230769,4207.692307,4642.051282,3973.333334,4043.589743
148,4381.538461,4521.538461,4523.589743,4252.820512,4516.410256,4197.435897,4440.512820,4181.025641,4236.923076,4495.897435,4218.461538,4646.666666,3983.076924,4048.205128
149,4383.076923,4521.538461,4514.358974,4241.538461,4508.205128,4191.794871,4434.358974,4177.948717,4233.333333,4492.820512,4225.128205,4646.153846,3981.025642,4044.615384
150,4381.025641,4520.512820,4507.179487,4237.948717,4496.923076,4183.589743,4427.179487,4168.205128,4224.102564,4485.641025,4218.461538,4642.051282,3968.717949,4038.461538
151,4385.128205,4526.666666,4515.897435,4247.692307,4497.435897,4181.025641,4427.179487,4165.641025,4222.564102,4482.564102,4204.102564,4641.025641,3966.153847,4041.025641
152,4397.948717,4536.410256,4524.615384,4258.461538,4507.179487,4187.179487,4430.769230,4176.410256,4229.743589,4488.205128,4209.743589,4648.717948,3981.538462,4052.820512
153,4402.564102,4537.435897,4522.564102,4260.000000,4510.256410,4192.820512,4432.307692,4182.051282,4233.846153,4494.871794,4231.282051,4654.871794,3987.179488,4059.487179
154,4396.410256,4536.410256,4520.000000,4258.461538,4506.666666,4189.743589,4430.769230,4173.846153,4232.307692,4492.820512,4233.333333,4652.307692,3975.897436,4055.897435
155,4401.025641,4542.051282,4523.589743,4263.076923,4509.743589,4187.179487,4428.205128,4171.794871,4231.282051,4494.358974,4221.025641,4650.256410,3973.846154,4059.487179
156,4407.692307,4548.205128,4527.179487,4267.179487,4518.974358,4197.948717,4430.769230,4181.025641,4233.333333,4503.589743,4229.230769,4654.871794,3982.051283,4070.769230
157,4405.128205,4548.717948,4528.717948,4266.666666,4524.102564,4203.589743,4431.794871,4181.025641,4235.897435,4500.000000,4241.538461,4660.000000,3986.153847,4066.666666
158,4405.641025,4550.769230,4530.256410,4270.256410,4524.102564,4198.974358,4431.282051,4180.000000,4238.974358,4494.358974,4238.974358,4664.102564,3993.333334,4061.538461
159,4407.692307,4552.307692,4530.769230,4275.384615,4520.512820,4198.461538,4433.846153,4185.128205,4244.102564,4503.076923,4238.974358,4663.076923,3999.487180,4072.307692
160,4406.153846,4544.615384,4526.153846,4268.205128,4515.384615,4199.487179,4434.358974,4181.538461,4242.051282,4505.641025,4243.589743,4659.487179,3992.307693,4077.435897
161,4407.179487,4536.410256,4521.025641,4258.461538,4513.846153,4198.461538,4431.794871,4176.410256,4236.410256,4497.435897,4244.102564,4657.948717,3982.564103,4072.820512
162,4410.769230,4540.512820,4523.076923,4261.538461,4513.333333,4193.846153,4430.769230,4181.025641,4238.461538,4497.948717,4242.564102,4659.487179,3981.538462,4069.230769
163,4407.179487,4542.051282,4524.102564,4263.589743,4508.717948,4186.666666,4429.230769,4180.512820,4235.897435,4502.564102,4235.897435,4659.487179,3984.102565,4063.076923
164,4395.897435,4528.205128,4513.846153,4255.897435,4501.538461,4184.615384,4424.615384,4172.307692,4224.615384,4493.333333,4228.717948,4653.333333,3980.512821,4057.435897
165,4390.769230,4521.538461,4509.230769,4245.128205,4498.974358,4184.615384,4422.564102,4173.333333,4222.051282,4486.666666,4233.333333,4647.179487,3974.358975,4058.461538
166,4394.358974,4528.717948,4513.846153,4246.153846,4500.000000,4184.615384,4425.641025,4176.410256,4226.666666,4494.871794,4242.051282,4648.717948,3971.794872,4055.384615
167,4397.948717,4530.769230,4514.358974,4252.307692,4502.564102,4186.666666,4430.256410,4174.358974,4227.179487,4497.948717,4235.384615,4650.769230,3968.717949,4049.230769
168,4390.256410,4522.051282,4505.128205,4246.666666,4499.487179,4185.128205,4425.128205,4171.794871,4224.615384,4484.615384,4223.076923,4643.076923,3963.589744,4049.230769
169,4383.589743,4517.948717,4503.076923,4237.948717,4493.333333,4180.512820,4417.948717,4169.743589,4223.076923,4480.000000,4222.564102,4641.025641,3964.102565,4053.333333
170,4394.871794,4527.179487,4508.717948,4247.179487,4499.487179,4184.615384,4422.564102,4173.846153,4224.615384,4490.769230,4233.846153,4650.769230,3972.820513,4058.974358
171,4400.000000,4532.307692,4508.717948,4257.435897,4506.666666,4189.743589,4429.743589,4177.948717,4225.641025,4490.256410,4239.487179,4652.307692,3972.820513,4056.410256
172,4387.179487,4526.153846,4505.641025,4247.692307,4498.974358,4188.717948,4428.717948,4175.384615,4222.564102,4482.564102,4234.871794,4647.692307,3961.538462,4048.717948
173,4388.205128,4518.461538,4505.128205,4237.435897,4494.871794,4185.641025,4427.692307,4172.820512,4221.538461,4485.128205,4236.410256,4649.743589,3963.589744,4047.692307
174,4405.641025,4519.487179,4507.692307,4244.102564,4500.512820,4185.641025,4428.205128,4177.948717,4222.564102,4486.153846,4240.512820,4653.333333,3972.307693,4053.846153
175,4406.666666,4527.179487,4511.282051,4253.333333,4503.076923,4187.179487,4427.179487,4178.974358,4223.589743,4483.589743,4236.923076,4652.820512,3970.256411,4058.974358
176,4396.923076,4531.282051,4510.256410,4253.846153,4501.025641,4187.692307,4424.102564,4168.717948,4220.000000,4484.102564,4230.769230,4649.743589,3966.666667,4057.435897
177,4398.974358,4525.128205,4504.102564,4249.743589,4496.923076,4182.564102,4416.410256,4157.948717,4210.256410,4482.564102,4230.769230,4647.179487,3965.128206,4050.769230
178,4404.615384,4520.512820,4502.564102,4249.743589,4493.333333,4178.461538,4415.384615,4157.948717,4208.717948,4476.923076,4236.923076,4647.692307,3960.512821,4053.846153
179,4405.641025,4527.179487,4510.256410,4252.820512,4497.435897,4183.589743,4424.615384,4171.282051,4222.051282,4484.615384,4244.102564,4652.307692,3968.717949,4062.564102
180,4407.692307,4530.769230,4514.871794,4251.794871,4503.589743,4190.769230,4431.794871,4181.025641,4226.666666,4498.461538,4251.282051,4655.897435,3979.487180,4059.487179
181,4407.692307,4525.641025,4510.256410,4247.692307,4502.564102,4188.205128,4427.179487,4174.358974,4217.435897,4493.846153,4251.282051,4652.307692,3972.820513,4050.769230
182,4400.512820,4520.000000,4504.615384,4245.128205,4493.846153,4177.435897,4416.410256,4165.128205,4211.794871,4476.410256,4238.461538,4640.512820,3961.025642,4051.282051
183,4398.974358,4525.128205,4504.615384,4244.615384,4492.820512,4178.461538,4415.897435,4167.179487,4215.384615,4474.358974,4230.256410,4637.435897,3961.538462,4053.846153
184,4407.692307,4529.230769,4508.205128,4243.589743,4501.025641,4186.153846,4423.589743,4171.282051,4217.435897,4485.641025,4237.948717,4648.205128,3966.666667,4055.384615
185,4407.692307,4517.948717,4506.666666,4240.000000,4496.410256,4178.974358,4418.974358,4168.717948,4213.846153,4484.615384,4240.512820,4649.230769,3966.666667,4055.897435
186,4397.435897,4507.179487,4503.589743,4238.974358,4483.076923,4172.307692,4411.794871,4170.769230,4213.846153,4476.410256,4236.410256,4643.076923,3962.051283,4056.410256
187,4400.000000,4514.871794,4507.179487,4243.076923,4487.692307,4182.564102,4421.538461,4176.410256,4223.589743,4478.461538,4239.487179,4648.205128,3962.051283,4056.410256
188,4411.282051,4526.153846,4510.256410,4244.615384,4498.974358,4189.743589,4428.205128,4177.948717,4224.102564,4486.153846,4239.487179,4652.820512,3968.205129,4051.282051
189,4408.205128,4523.076923,4505.641025,4243.589743,4497.948717,4182.051282,4420.512820,4177.435897,4216.410256,4482.564102,4234.358974,4647.179487,3961.025642,4045.128205
190,4398.461538,4513.846153,4502.051282,4243.076923,4493.333333,4176.923076,4414.358974,4175.897435,4217.948717,4475.897435,4235.384615,4640.000000,3947.179488,4041.538461
191,4398.974358,4511.282051,4505.641025,4239.487179,4490.256410,4178.974358,4412.307692,4169.230769,4215.384615,4480.512820,4231.282051,4639.487179,3953.846154,4037.948717
192,4404.102564,4522.564102,4506.666666,4242.564102,4494.358974,4183.589743,4416.410256,4169.743589,4213.333333,4488.205128,4220.000000,4645.128205,3970.256411,4037.948717
193,4400.000000,4530.256410,4500.512820,4250.769230,4497.435897,4186.153846,4418.974358,4173.846153,4218.461538,4483.076923,4215.384615,4643.589743,3970.256411,4037.435897
194,4389.230769,4518.461538,4497.435897,4246.666666,4486.666666,4181.538461,4413.846153,4166.153846,4215.384615,4476.410256,4207.692307,4632.820512,3959.487180,4029.230769
195,4392.307692,4517.435897,4503.076923,4244.102564,4488.205128,4181.538461,4416.410256,4167.692307,4215.384615,4489.743589,4204.102564,4637.435897,3964.615385,4034.358974
196,4408.205128,4533.333333,4513.333333,4252.820512,4507.179487,4191.794871,4428.205128,4183.589743,4230.769230,4506.153846,4213.333333,4656.923076,3985.128206,4051.794871
197,4410.769230,4538.974358,4521.025641,4256.410256,4510.256410,4195.897435,4432.307692,4193.333333,4241.538461,4502.564102,4212.820512,4663.076923,3996.410257,4053.333333
198,4399.487179,4533.846153,4517.948717,4250.256410,4498.974358,4191.794871,4430.769230,4187.692307,4234.358974,4493.846153,4198.461538,4652.307692,3987.179488,4041.025641
199,4390.256410,4527.692307,4506.153846,4244.102564,4498.974358,4189.230769,4432.307692,4181.025641,4226.666666,4494.871794,4190.256410,4641.025641,3972.307693,4034.871794
200,4387.179487,4526.153846,4509.230769,4248.205128,4508.205128,4188.717948,4432.820512,4183.076923,4229.230769,4500.000000,4191.794871,4640.512820,3974.871795,4033.333333
201,4385.128205,4531.282051,4521.538461,4257.948717,4506.666666,4191.282051,4434.871794,4186.153846,4233.333333,4500.000000,4190.256410,4646.666666,3981.025642,4029.743589
202,4390.769230,4540.512820,4523.076923,4261.025641,4506.153846,4195.897435,4442.051282,4188.205128,4234.871794,4496.923076,4187.179487,4649.230769,3982.564103,4034.871794
203,4396.410256,4541.538461,4524.615384,4258.974358,4511.282051,4197.435897,4446.153846,4190.769230,4234.871794,4496.410256,4191.282051,4650.256410,3989.743590,4044.102564
204,4387.692307,4534.358974,4525.128205,4257.948717,4507.179487,4191.794871,4442.564102,4188.717948,4231.794871,4494.871794,4191.282051,4648.205128,3990.256411,4038.974358
205,4378.461538,4532.820512,4519.487179,4255.897435,4502.051282,4186.153846,4440.000000,4182.564102,4228.205128,4493.846153,4186.153846,4642.564102,3984.615385,4031.282051
206,4385.641025,4543.076923,4526.153846,4262.051282,4513.333333,4195.384615,4444.102564,4187.179487,4235.384615,4504.615384,4192.820512,4647.692307,3985.128206,4040.512820
207,4392.820512,4550.256410,4537.435897,4268.205128,4524.615384,4204.102564,4448.717948,4200.000000,4246.666666,4517.948717,4206.666666,4656.410256,3992.307693,4049.230769
208,4384.615384,4541.538461,4529.743589,4260.512820,4516.923076,4196.410256,4445.641025,4200.000000,4244.102564,4510.769230,4201.538461,4646.666666,3996.923077,4038.461538
209,4373.846153,4531.794871,4516.410256,4250.256410,4502.564102,4185.128205,4439.487179,4191.794871,4232.307692,4487.692307,4186.666666,4636.923076,3989.230770,4028.717948
210,4373.333333,4534.358974,4519.487179,4252.820512,4499.487179,4185.641025,4440.000000,4187.179487,4226.153846,4483.589743,4189.743589,4642.564102,3977.435898,4035.384615
211,4380.000000,4543.589743,4525.641025,4263.076923,4513.333333,4193.333333,4444.102564,4189.230769,4232.307692,4498.974358,4198.974358,4651.794871,3981.538462,4043.589743
212,4383.076923,4546.153846,4524.102564,4269.230769,4522.564102,4197.948717,4444.102564,4192.820512,4240.512820,4507.692307,4201.025641,4652.307692,3988.717949,4040.512820
213,4379.487179,4542.051282,4522.051282,4268.717948,4518.461538,4196.410256,4443.076923,4190.256410,4238.461538,4504.102564,4206.153846,4646.153846,3985.641026,4038.974358
214,4375.384615,4543.076923,4523.076923,4262.051282,4515.384615,4194.871794,4443.589743,4182.564102,4232.820512,4498.461538,4204.102564,4641.025641,3985.641026,4042.051282
215,4373.333333,4544.615384,4518.461538,4253.846153,4511.794871,4192.820512,4439.487179,4177.435897,4228.205128,4493.333333,4193.333333,4636.923076,3983.589744,4033.846153
216,4375.897435,4543.076923,4512.820512,4256.410256,4506.666666,4191.282051,4434.871794,4175.384615,4229.230769,4491.794871,4189.743589,4638.974358,3981.538462,4023.589743
217,4377.948717,4545.128205,4517.948717,4265.128205,4508.205128,4192.307692,4439.487179,4178.461538,4239.487179,4497.948717,4193.846153,4642.564102,3987.692308,4030.769230
218,4373.333333,4545.641025,4521.538461,4259.487179,4511.282051,4192.307692,4444.615384,4185.128205,4244.102564,4504.102564,4203.076923,4641.025641,3988.205129,4043.076923
219,4370.256410,4536.923076,4516.923076,4248.205128,4510.256410,4190.769230,4442.051282,4186.153846,4239.487179,4504.615384,4205.128205,4637.435897,3982.564103,4041.025641
220,4377.435897,4533.846153,4519.487179,4253.846153,4509.743589,4193.333333,4441.025641,4183.076923,4238.461538,4501.025641,4197.435897,4643.589743,3988.205129,4033.846153
221,4385.128205,4545.128205,4526.153846,4265.128205,4512.307692,4195.897435,4444.615384,4181.538461,4238.461538,4500.000000,4200.000000,4652.307692,3995.897436,4038.461538
222,4381.538461,4549.743589,4523.076923,4266.153846,4515.384615,4194.358974,4441.025641,4178.974358,4233.846153,4501.538461,4209.743589,4646.153846,3991.282052,4043.589743
223,4380.000000,4546.153846,4520.000000,4266.153846,4517.435897,4196.923076,4435.384615,4181.025641,4235.384615,4499.487179,4204.102564,4636.923076,3984.615385,4041.025641
224,4387.179487,4550.769230,4523.589743,4269.743589,4517.435897,4198.461538,4438.974358,4187.692307,4244.615384,4501.025641,4197.948717,4641.025641,3984.102565,4040.512820
225,4382.051282,4551.794871,4520.000000,4267.692307,4513.333333,4196.923076,4441.538461,4184.615384,4240.000000,4500.000000,4202.051282,4642.564102,3983.076924,4036.923076
226,4377.948717,4546.666666,4519.487179,4266.153846,4511.282051,4198.461538,4439.487179,4177.948717,4232.820512,4492.307692,4204.102564,4638.974358,3981.025642,4035.384615
227,4391.794871,4555.384615,4534.871794,4276.923076,4517.948717,4199.487179,4442.051282,4186.666666,4241.025641,4495.897435,4214.358974,4648.205128,3987.179488,4049.743589
228,4400.000000,4565.641025,4541.538461,4281.538461,4523.076923,4202.051282,4447.692307,4195.897435,4249.230769,4513.333333,4226.153846,4660.000000,3996.410257,4062.051282
229,4392.307692,4559.487179,4530.256410,4265.641025,4518.974358,4203.589743,4444.102564,4194.358974,4246.153846,4516.410256,4219.487179,4653.846153,3997.435898,4051.282051
230,4386.153846,4548.205128,4527.692307,4255.384615,4510.256410,4195.897435,4435.897435,4186.153846,4243.076923,4503.589743,4210.769230,4646.666666,3989.743590,4040.512820
231,4385.128205,4543.076923,4530.769230,4264.615384,4511.794871,4187.179487,4429.230769,4181.025641,4238.974358,4497.948717,4217.435897,4650.769230,3982.051283,4047.179487
232,4383.589743,4544.615384,4524.615384,4269.230769,4514.871794,4187.692307,4426.666666,4182.564102,4231.794871,4498.974358,4225.641025,4650.769230,3985.641026,4055.897435
233,4384.615384,4550.769230,4520.512820,4258.974358,4508.205128,4190.769230,4428.717948,4180.000000,4231.794871,4498.974358,4221.025641,4644.615384,3991.282052,4052.307692
234,4385.641025,4547.692307,4522.564102,4254.871794,4503.076923,4188.205128,4428.717948,4177.948717,4232.820512,4497.435897,4209.230769,4642.564102,3981.025642,4044.615384
235,4383.589743,4533.846153,4521.025641,4261.538461,4504.615384,4184.615384,4425.641025,4176.410256,4227.179487,4493.333333,4205.641025,4643.076923,3969.230770,4043.589743
236,4381.538461,4531.794871,4520.000000,4262.564102,4503.076923,4185.128205,4426.666666,4173.846153,4226.153846,4491.282051,4209.230769,4640.512820,3976.923077,4040.000000
237,4380.512820,4543.589743,4520.512820,4256.410256,4503.589743,4190.769230,4432.820512,4175.897435,4230.256410,4491.794871,4207.179487,4637.948717,3979.487180,4036.923076
238,4385.641025,4551.282051,4522.564102,4252.820512,4514.358974,4195.384615,4433.846153,4179.487179,4236.410256,4495.384615,4209.743589,4642.051282,3973.846154,4046.153846
239,4396.410256,4550.769230,4525.641025,4255.897435,4515.897435,4188.717948,4428.717948,4177.435897,4235.897435,4501.538461,4223.076923,4650.256410,3988.717949,4057.948717
240,4395.384615,4543.076923,4523.589743,4254.358974,4504.102564,4180.512820,4424.615384,4175.384615,4229.743589,4500.000000,4220.512820,4647.692307,4002.051282,4053.333333
241,4383.076923,4534.358974,4520.000000,4251.794871,4499.487179,4183.589743,4424.615384,4177.948717,4232.307692,4493.846153,4206.666666,4637.948717,3988.205129,4045.641025
242,4384.102564,4531.282051,4521.538461,4257.435897,4502.051282,4187.179487,4427.692307,4175.897435,4235.384615,4496.410256,4209.743589,4637.948717,3974.358975,4046.153846
243,4390.769230,4536.410256,4520.000000,4260.000000,4507.692307,4186.153846,4428.717948,4172.820512,4226.666666,4497.948717,4213.333333,4641.025641,3981.538462,4043.076923
244,4385.641025,4541.025641,4514.871794,4255.897435,4510.769230,4188.205128,4427.692307,4174.871794,4223.589743,4485.641025,4211.794871,4643.076923,3992.307693,4045.641025
245,4387.179487,4543.589743,4521.538461,4255.384615,4507.692307,4192.820512,4429.230769,4182.564102,4234.871794,4481.025641,4223.076923,4649.230769,3992.820513,4056.410256
246,4392.820512,4536.923076,4523.076923,4256.410256,4503.076923,4191.282051,4429.230769,4185.641025,4238.974358,4491.794871,4229.743589,4646.666666,3981.025642,4050.769230
247,4387.692307,4525.128205,4515.384615,4254.871794,4501.025641,4183.589743,4425.128205,4178.461538,4231.282051,4498.974358,4214.871794,4640.000000,3972.820513,4037.948717
248,4390.256410,4529.230769,4518.974358,4260.000000,4503.589743,4184.615384,4426.153846,4177.948717,4231.282051,4497.948717,4212.820512,4648.205128,3982.564103,4049.743589
249,4395.384615,4536.410256,4521.025641,4261.025641,4500.512820,4189.230769,4429.743589,4179.487179,4228.717948,4488.717948,4225.641025,4648.717948,3986.666667,4058.461538
250,4385.128205,4523.589743,4509.230769,4252.307692,4492.820512,4184.615384,4427.179487,4167.179487,4219.487179,4482.051282,4217.948717,4632.307692,3972.307693,4041.025641
251,4377.435897,4514.358974,4502.564102,4250.256410,4496.410256,4181.538461,4423.076923,4166.153846,4216.410256,4486.666666,4205.641025,4630.769230,3964.615385,4031.794871
252,4386.153846,4526.666666,4511.794871,4252.307692,4507.692307,4186.153846,4423.589743,4172.820512,4225.128205,4491.794871,4211.282051,4642.564102,3972.307693,4042.564102
253,4390.256410,4534.358974,4517.948717,4252.820512,4505.128205,4187.179487,4422.051282,4169.230769,4227.692307,4487.179487,4215.384615,4643.589743,3977.435898,4048.205128
254,4387.692307,4528.717948,4510.769230,4251.794871,4495.897435,4183.589743,4416.923076,4165.641025,4221.025641,4480.000000,4216.923076,4637.948717,3975.897436,4044.615384
255,4385.128205,4528.717948,4504.102564,4247.179487,4498.974358,4184.102564,4421.538461,4168.717948,4218.974358,4478.461538,4219.487179,4634.358974,3972.820513,4042.564102
256,4383.589743,4529.230769,4506.666666,4248.717948,4503.076923,4186.153846,4428.205128,4168.205128,4222.051282,4480.512820,4218.461538,4633.846153,3972.820513,4042.564102
257,4388.717948,4527.179487,4511.282051,4252.820512,4500.000000,4184.615384,4422.564102,4171.794871,4225.641025,4486.666666,4219.487179,4638.974358,3978.974359,4045.128205
258,4394.358974,4526.153846,4512.307692,4246.153846,4496.410256,4182.051282,4417.435897,4176.410256,4223.076923,4492.820512,4224.102564,4643.076923,3979.487180,4049.230769
259,4397.948717,4529.230769,4518.461538,4246.153846,4500.000000,4183.589743,4425.128205,4176.410256,4220.000000,4495.384615,4230.769230,4647.692307,3977.435898,4053.846153
