,AF3,F7,F3,FC5,T7,P7,O1,O2,P8,T8,FC6,F4,F8,AF4
0,4490.769230,4541.538461,4536.410256,4267.692307,4477.435897,4200.512820,4440.000000,4198.461538,4220.512820,4517.948717,4215.384615,4634.871794,3980.000000,4064.615384
1,4493.846153,4543.076923,4538.974358,4273.333333,4478.461538,4201.538461,4444.102564,4204.102564,4229.230769,4524.615384,4220.512820,4642.051282,3987.179488,4067.692307
2,4496.923076,4539.487179,4539.487179,4277.948717,4480.512820,4196.410256,4441.538461,4200.000000,4232.307692,4523.076923,4213.846153,4642.564102,3984.615385,4069.743589
3,4504.615384,4538.974358,4538.974358,4276.410256,4479.487179,4198.974358,4442.564102,4202.051282,4225.641025,4517.435897,4212.820512,4641.025641,3986.666667,4072.820512
4,4507.179487,4541.025641,4538.974358,4268.205128,4478.461538,4202.564102,4444.615384,4205.641025,4223.589743,4520.000000,4216.923076,4645.641025,3989.743590,4072.307692
5,4495.897435,4533.846153,4536.923076,4255.897435,4469.743589,4193.846153,4437.435897,4199.487179,4220.512820,4516.923076,4211.282051,4641.025641,3977.948718,4065.128205
6,4492.820512,4530.769230,4535.384615,4262.564102,4466.153846,4190.769230,4434.871794,4195.384615,4216.410256,4508.717948,4208.205128,4637.948717,3972.820513,4062.564102
7,4512.820512,4545.641025,4540.000000,4286.666666,4483.076923,4200.000000,4442.564102,4203.076923,4222.564102,4513.846153,4219.487179,4651.282051,3987.692308,4076.410256
8,4524.102564,4557.435897,4542.564102,4291.794871,4493.333333,4206.153846,4444.102564,4205.641025,4224.615384,4520.000000,4224.615384,4654.871794,3994.871795,4087.692307
9,4518.461538,4554.358974,4541.538461,4282.051282,4488.205128,4202.564102,4441.538461,4204.615384,4223.076923,4520.512820,4221.538461,4647.692307,3991.282052,4084.102564
10,4518.974358,4552.307692,4540.512820,4285.641025,4490.256410,4202.051282,4442.564102,4212.820512,4227.692307,4518.461538,4225.641025,4649.230769,3990.256411,4080.512820
11,4518.974358,4551.282051,4538.974358,4289.743589,4491.794871,4203.589743,4441.025641,4211.282051,4227.692307,4513.846153,4225.641025,4650.769230,3988.205129,4080.512820
12,4509.230769,4544.102564,4534.358974,4281.538461,4484.102564,4200.000000,4436.410256,4198.974358,4221.025641,4514.358974,4215.897435,4641.538461,3981.025642,4074.871794
13,4504.615384,4540.000000,4532.307692,4273.846153,4479.487179,4198.974358,4433.846153,4198.974358,4219.487179,4520.000000,4215.384615,4636.923076,3974.871795,4069.743589
14,4509.743589,4539.487179,4534.358974,4272.820512,4481.025641,4201.538461,4435.897435,4207.692307,4223.589743,4516.410256,4217.948717,4641.025641,3977.435898,4071.794871
15,4514.871794,4536.923076,4535.897435,4275.384615,4480.000000,4197.435897,4440.512820,4211.794871,4227.692307,4515.384615,4215.384615,4646.666666,3985.641026,4077.435897
16,4515.897435,4537.435897,4537.435897,4275.897435,4475.897435,4191.794871,4443.589743,4216.410256,4234.871794,4526.666666,4219.487179,4650.256410,3984.102565,4081.025641
17,4517.435897,4537.435897,4539.487179,4273.333333,4470.769230,4193.846153,4441.538461,4216.923076,4234.871794,4526.666666,4220.512820,4649.230769,3974.871795,4077.948717
18,4516.923076,4532.820512,4540.512820,4272.307692,4470.769230,4198.461538,4437.435897,4211.794871,4229.743589,4517.948717,4216.410256,4647.692307,3976.410257,4072.820512
19,4514.358974,4532.820512,4537.435897,4271.794871,4474.871794,4197.948717,4434.358974,4213.846153,4231.794871,4522.564102,4217.435897,4649.230769,3980.000000,4072.820512
20,4511.794871,4535.897435,4537.435897,4271.282051,4474.871794,4196.923076,4433.333333,4215.384615,4230.769230,4525.128205,4217.948717,4647.692307,3973.333334,4073.333333
21,4511.282051,4531.794871,4535.384615,4277.435897,4475.897435,4198.461538,4435.384615,4208.717948,4224.102564,4516.410256,4215.384615,4642.051282,3970.769231,4071.282051
22,4513.846153,4529.743589,4525.128205,4281.025641,4476.410256,4198.461538,4438.974358,4205.641025,4223.589743,4512.820512,4215.384615,4640.512820,3974.871795,4067.179487
23,4513.333333,4533.333333,4526.153846,4274.871794,4474.871794,4199.487179,4442.051282,4208.205128,4226.153846,4516.923076,4215.384615,4641.025641,3977.435898,4066.153846
24,4514.871794,4534.358974,4532.820512,4270.769230,4476.923076,4201.025641,4443.076923,4207.179487,4223.589743,4518.461538,4213.846153,4642.051282,3976.410257,4071.794871
25,4517.948717,4532.820512,4533.846153,4271.794871,4477.435897,4200.000000,4444.615384,4203.076923,4224.102564,4518.974358,4216.410256,4645.641025,3974.358975,4076.410256
26,4516.410256,4529.230769,4531.794871,4269.743589,4471.282051,4199.487179,4445.128205,4203.076923,4225.641025,4522.564102,4216.923076,4644.102564,3968.205129,4072.307692
27,4508.717948,4528.205128,4526.666666,4265.641025,4468.205128,4202.051282,4443.589743,4202.564102,4221.538461,4522.051282,4214.358974,4639.487179,3965.128206,4068.205128
28,4506.666666,4530.769230,4523.076923,4266.153846,4468.717948,4202.051282,4443.589743,4195.897435,4220.000000,4517.435897,4211.794871,4640.000000,3967.179488,4070.769230
29,4508.205128,4526.666666,4519.487179,4265.641025,4464.102564,4191.794871,4442.051282,4189.743589,4220.512820,4510.769230,4205.128205,4636.410256,3962.564103,4068.205128
30,4504.615384,4517.435897,4511.282051,4263.076923,4465.641025,4188.205128,4438.461538,4182.051282,4212.307692,4504.615384,4195.897435,4627.692307,3955.384616,4057.435897
31,4503.076923,4518.461538,4509.230769,4267.692307,4471.282051,4196.410256,4437.435897,4173.333333,4207.692307,4504.102564,4194.871794,4622.564102,3950.256411,4052.820512
32,4507.692307,4525.641025,4516.410256,4266.666666,4470.256410,4200.512820,4441.025641,4172.820512,4213.333333,4507.179487,4202.051282,4622.564102,3948.205129,4054.358974
33,4512.820512,4527.179487,4516.410256,4257.948717,4469.230769,4197.435897,4442.564102,4179.487179,4214.358974,4507.179487,4201.538461,4623.589743,3950.256411,4053.846153
34,4523.589743,4529.743589,4517.948717,4266.666666,4475.897435,4198.461538,4442.051282,4182.564102,4213.846153,4507.179487,4198.974358,4629.230769,3957.948718,4058.974358
35,4535.384615,4537.948717,4528.205128,4286.153846,4480.000000,4202.564102,4443.589743,4185.641025,4221.025641,4512.820512,4209.230769,4638.461538,3967.692308,4073.333333
36,4541.025641,4539.487179,4528.717948,4285.128205,4477.435897,4203.076923,4444.615384,4185.641025,4225.128205,4518.461538,4215.384615,4640.000000,3971.794872,4077.435897
37,4537.435897,4534.358974,4523.076923,4274.358974,4476.923076,4202.051282,4442.051282,4181.538461,4218.974358,4513.333333,4204.615384,4635.897435,3966.153847,4068.717948
38,4534.358974,4533.333333,4521.538461,4272.820512,4476.410256,4199.487179,4440.000000,4176.923076,4211.794871,4500.512820,4190.769230,4629.743589,3951.794872,4060.512820
39,4538.461538,4531.794871,4521.538461,4272.820512,4471.282051,4196.923076,4434.358974,4171.282051,4207.692307,4497.435897,4189.743589,4623.589743,3943.076924,4058.461538
40,4540.512820,4527.692307,4522.051282,4271.282051,4468.205128,4197.435897,4427.692307,4172.307692,4207.179487,4505.128205,4195.897435,4624.102564,3947.179488,4061.538461
41,4535.897435,4527.692307,4520.000000,4272.307692,4466.153846,4194.871794,4431.794871,4177.948717,4211.794871,4506.153846,4202.051282,4627.179487,3951.794872,4062.564102
42,4540.000000,4527.179487,4518.974358,4269.743589,4463.076923,4193.333333,4442.051282,4177.948717,4215.897435,4508.205128,4202.564102,4626.666666,3954.871795,4059.487179
43,4548.717948,4521.025641,4521.538461,4262.564102,4466.153846,4197.948717,4445.128205,4182.051282,4220.000000,4515.384615,4198.974358,4629.743589,3956.923077,4060.000000
44,4546.666666,4520.512820,4521.025641,4262.564102,4468.717948,4202.051282,4443.076923,4186.153846,4224.102564,4514.871794,4200.000000,4632.820512,3956.410257,4063.076923
45,4543.076923,4523.589743,4518.974358,4272.307692,4467.692307,4198.974358,4442.564102,4178.461538,4218.974358,4506.666666,4201.538461,4628.205128,3952.820513,4062.051282
46,4549.743589,4523.076923,4520.000000,4271.794871,4466.666666,4195.897435,4441.538461,4176.923076,4212.307692,4506.153846,4197.948717,4626.666666,3952.307693,4061.025641
47,4555.384615,4524.102564,4521.538461,4264.102564,4466.153846,4197.948717,4440.512820,4186.153846,4217.435897,4513.846153,4203.076923,4632.307692,3960.512821,4068.205128
48,4555.897435,4531.794871,4522.564102,4267.179487,4467.179487,4200.000000,4443.589743,4186.153846,4225.128205,4521.538461,4217.435897,4636.410256,3971.282052,4076.410256
49,4557.435897,4536.923076,4524.102564,4274.871794,4473.846153,4200.512820,4445.128205,4185.128205,4224.102564,4521.538461,4216.410256,4637.948717,3974.358975,4076.923076
50,4556.410256,4529.743589,4519.487179,4272.820512,4476.410256,4200.512820,4442.051282,4187.179487,4215.897435,4517.948717,4205.128205,4635.897435,3963.589744,4069.743589
51,4552.820512,4522.051282,4515.384615,4273.333333,4472.820512,4201.025641,4441.025641,4180.512820,4211.794871,4513.846153,4206.153846,4629.743589,3955.384616,4063.076923
52,4558.461538,4525.641025,4517.948717,4280.512820,4475.897435,4201.538461,4442.564102,4176.923076,4214.358974,4509.230769,4208.205128,4628.205128,3958.461539,4065.128205
53,4567.179487,4535.384615,4521.025641,4278.461538,4477.948717,4201.538461,4445.128205,4183.076923,4216.410256,4513.846153,4206.666666,4633.333333,3958.974359,4071.794871
54,4569.743589,4532.820512,4521.538461,4268.205128,4471.282051,4202.564102,4451.794871,4185.641025,4217.948717,4521.025641,4210.769230,4636.923076,3958.461539,4073.333333
55,4570.256410,4525.128205,4517.435897,4265.641025,4465.128205,4202.564102,4450.769230,4187.692307,4220.000000,4514.871794,4212.307692,4635.384615,3962.564103,4069.743589
56,4570.256410,4526.153846,4512.820512,4268.717948,4462.564102,4199.487179,4444.615384,4191.794871,4216.410256,4512.820512,4210.256410,4631.794871,3964.102565,4070.256410
57,4574.871794,4530.256410,4517.948717,4270.769230,4462.564102,4198.461538,4451.794871,4193.333333,4217.435897,4524.102564,4214.358974,4633.333333,3962.564103,4075.384615
58,4585.641025,4531.282051,4523.589743,4270.769230,4467.179487,4204.102564,4456.410256,4193.333333,4222.564102,4524.102564,4215.897435,4636.410256,3967.179488,4080.512820
59,4592.307692,4535.897435,4522.564102,4276.410256,4474.358974,4211.794871,4450.769230,4195.384615,4221.538461,4520.000000,4214.871794,4634.871794,3970.769231,4080.000000
60,4597.948717,4540.512820,4521.025641,4284.102564,4479.487179,4214.358974,4451.282051,4195.897435,4222.564102,4527.692307,4220.000000,4634.358974,3971.794872,4075.384615
61,4597.435897,4533.846153,4515.384615,4277.435897,4476.410256,4207.692307,4450.256410,4190.769230,4225.128205,4524.102564,4216.410256,4631.282051,3970.256411,4069.230769
62,4589.230769,4523.589743,4502.564102,4261.025641,4466.153846,4199.487179,4440.000000,4185.128205,4218.461538,4511.282051,4202.051282,4618.461538,3964.102565,4062.564102
63,4593.846153,4522.051282,4502.564102,4260.512820,4464.102564,4200.000000,4440.000000,4184.102564,4214.358974,4515.384615,4198.974358,4613.846153,3965.641026,4062.051282
64,4606.666666,4524.102564,4513.846153,4267.692307,4471.794871,4203.589743,4445.128205,4186.153846,4216.410256,4525.128205,4206.153846,4624.102564,3975.384616,4067.179487
65,4608.717948,4525.641025,4520.000000,4265.641025,4475.384615,4201.538461,4445.641025,4190.256410,4220.512820,4527.179487,4210.256410,4631.282051,3982.051283,4071.794871
66,4612.820512,4528.717948,4523.076923,4266.666666,4474.358974,4200.512820,4449.230769,4195.897435,4228.717948,4529.743589,4214.358974,4633.846153,3985.128206,4074.871794
67,4621.025641,4532.307692,4524.615384,4272.820512,4473.846153,4201.538461,4447.692307,4196.923076,4229.230769,4530.769230,4213.333333,4635.384615,3985.128206,4072.820512
68,4616.923076,4524.615384,4523.076923,4265.641025,4469.743589,4200.000000,4441.538461,4186.153846,4217.948717,4525.641025,4201.538461,4630.769230,3974.871795,4061.025641
69,4610.769230,4515.897435,4521.025641,4256.923076,4469.743589,4199.487179,4441.025641,4181.538461,4212.820512,4515.897435,4195.384615,4626.666666,3967.692308,4050.256410
70,4617.435897,4524.102564,4523.076923,4260.000000,4475.897435,4200.000000,4443.589743,4186.153846,4215.897435,4509.230769,4201.538461,4630.256410,3976.923077,4054.358974
71,4623.076923,4533.846153,4523.076923,4261.538461,4475.384615,4199.487179,4442.564102,4184.102564,4217.435897,4515.384615,4203.076923,4631.282051,3980.512821,4057.948717
72,4625.128205,4528.717948,4521.538461,4262.564102,4471.794871,4200.000000,4441.025641,4183.076923,4218.974358,4521.538461,4199.487179,4629.743589,3974.358975,4052.820512
73,4628.205128,4528.717948,4524.615384,4266.153846,4473.333333,4200.000000,4442.564102,4186.153846,4216.923076,4514.871794,4203.589743,4630.256410,3976.410257,4055.897435
74,4629.230769,4532.820512,4528.717948,4265.641025,4472.820512,4198.974358,4443.589743,4184.615384,4213.846153,4513.333333,4208.205128,4630.769230,3984.102565,4062.564102
75,4630.256410,4528.717948,4533.333333,4263.589743,4470.769230,4198.974358,4442.564102,4184.615384,4218.461538,4524.615384,4211.282051,4631.794871,3988.205129,4062.564102
76,4634.358974,4530.256410,4536.923076,4264.615384,4472.307692,4198.974358,4440.512820,4193.333333,4227.692307,4529.230769,4214.358974,4637.435897,3991.282052,4065.128205
77,4637.435897,4534.358974,4538.461538,4265.641025,4473.333333,4198.974358,4441.538461,4202.051282,4233.846153,4528.717948,4219.487179,4645.128205,3993.846154,4072.820512
78,4639.487179,4532.820512,4538.461538,4264.102564,4473.333333,4201.025641,4445.641025,4205.128205,4236.923076,4533.846153,4223.589743,4642.564102,3996.410257,4073.333333
79,4638.974358,4529.743589,4533.846153,4262.051282,4474.358974,4201.025641,4445.641025,4200.000000,4232.307692,4532.307692,4217.948717,4632.307692,3994.358975,4064.615384
80,4635.897435,4530.769230,4528.205128,4263.589743,4476.410256,4200.000000,4443.076923,4194.358974,4223.589743,4524.615384,4205.641025,4628.205128,3982.564103,4058.461538
81,4636.923076,4532.820512,4528.205128,4268.717948,4476.410256,4200.512820,4443.076923,4194.871794,4222.051282,4520.000000,4206.666666,4631.282051,3977.435898,4058.461538
82,4637.948717,4528.717948,4525.128205,4268.205128,4473.333333,4198.974358,4444.102564,4189.743589,4221.538461,4516.923076,4207.179487,4628.717948,3980.512821,4055.897435
83,4633.846153,4523.589743,4519.487179,4262.051282,4470.256410,4195.897435,4441.025641,4186.153846,4216.410256,4512.307692,4200.512820,4625.128205,3976.410257,4052.820512
84,4640.512820,4531.282051,4528.205128,4261.538461,4472.820512,4199.487179,4445.641025,4198.461538,4223.589743,4515.384615,4205.128205,4632.307692,3976.923077,4056.923076
85,4649.743589,4538.974358,4539.487179,4264.102564,4477.435897,4203.589743,4454.871794,4209.230769,4236.923076,4526.666666,4212.307692,4639.487179,3983.589744,4063.076923
86,4644.102564,4532.820512,4537.948717,4264.102564,4474.358974,4200.512820,4449.230769,4203.076923,4234.358974,4525.641025,4206.666666,4633.846153,3975.897436,4058.974358
87,4646.666666,4529.230769,4537.435897,4267.179487,4473.333333,4199.487179,4444.615384,4198.461538,4228.205128,4517.435897,4203.076923,4628.717948,3969.743590,4055.897435
88,4658.461538,4529.230769,4541.538461,4269.230769,4474.358974,4202.564102,4453.333333,4202.564102,4232.820512,4521.025641,4209.230769,4633.333333,3977.948718,4058.974358
89,4661.025641,4523.076923,4541.538461,4263.076923,4472.307692,4202.564102,4453.846153,4204.615384,4234.871794,4531.794871,4211.282051,4638.974358,3985.641026,4058.974358
90,4663.589743,4520.512820,4537.435897,4260.000000,4473.846153,4201.538461,4444.615384,4203.589743,4234.871794,4531.282051,4205.641025,4639.487179,3985.128206,4058.974358
91,4674.358974,4529.230769,4536.410256,4270.256410,4475.384615,4199.487179,4442.564102,4205.128205,4237.435897,4520.512820,4205.128205,4638.974358,3978.461539,4062.564102
92,4680.000000,4534.358974,4538.974358,4277.435897,4471.794871,4198.461538,4445.641025,4207.179487,4235.384615,4518.974358,4212.307692,4637.435897,3972.820513,4062.564102
93,4682.051282,4531.282051,4535.897435,4273.333333,4473.846153,4201.025641,4442.564102,4205.641025,4230.769230,4526.153846,4215.384615,4636.410256,3974.871795,4061.025641
94,4686.666666,4528.717948,4531.282051,4270.769230,4480.512820,4203.589743,4442.051282,4206.666666,4233.333333,4524.615384,4210.256410,4638.974358,3981.025642,4066.666666
95,4688.717948,4529.743589,4534.358974,4269.743589,4478.974358,4203.076923,4450.769230,4208.717948,4237.948717,4519.487179,4215.384615,4640.512820,3986.666667,4070.256410
96,4692.820512,4531.282051,4538.974358,4266.666666,4475.897435,4203.589743,4457.948717,4209.743589,4237.435897,4525.128205,4222.564102,4638.974358,3988.717949,4067.692307
97,4698.461538,4531.282051,4537.435897,4265.641025,4475.384615,4203.589743,4452.307692,4211.794871,4235.384615,4533.333333,4217.948717,4638.461538,3984.615385,4065.128205
98,4703.076923,4529.743589,4534.358974,4266.666666,4471.794871,4201.025641,4444.102564,4213.333333,4233.846153,4527.692307,4215.897435,4637.435897,3979.487180,4064.102564
99,4704.102564,4526.153846,4535.384615,4264.102564,4471.282051,4200.000000,4446.153846,4211.794871,4234.871794,4518.974358,4216.923076,4632.307692,3975.897436,4060.512820
100,4703.589743,4525.641025,4538.974358,4260.000000,4468.717948,4199.487179,4446.153846,4210.256410,4235.897435,4520.512820,4212.820512,4630.769230,3973.333334,4059.487179
101,4709.230769,4530.769230,4534.358974,4259.487179,4465.641025,4196.923076,4443.076923,4206.666666,4233.333333,4524.102564,4211.282051,4633.846153,3978.974359,4062.051282
102,4713.846153,4531.794871,4525.641025,4261.025641,4464.615384,4196.410256,4443.076923,4201.025641,4229.743589,4521.538461,4210.769230,4632.307692,3984.615385,4061.025641
103,4715.384615,4528.717948,4525.641025,4265.641025,4467.692307,4199.487179,4442.564102,4202.051282,4231.794871,4520.512820,4206.666666,4631.794871,3980.512821,4059.487179
104,4719.487179,4525.641025,4527.692307,4271.794871,4471.282051,4201.538461,4443.076923,4203.589743,4233.846153,4524.102564,4209.230769,4634.871794,3974.871795,4057.948717
105,4720.000000,4525.641025,4523.589743,4264.615384,4471.794871,4198.974358,4441.538461,4200.512820,4228.717948,4522.564102,4209.743589,4631.794871,3973.846154,4054.358974
106,4720.512820,4523.589743,4522.051282,4254.871794,4472.307692,4197.948717,4441.025641,4200.512820,4224.615384,4517.948717,4205.128205,4628.205128,3971.794872,4054.871794
107,4726.666666,4518.974358,4523.589743,4260.512820,4473.333333,4201.025641,4442.051282,4204.615384,4226.153846,4517.435897,4207.692307,4628.205128,3970.256411,4053.846153
108,4732.307692,4521.025641,4522.564102,4270.769230,4474.358974,4202.051282,4443.589743,4207.179487,4229.743589,4520.000000,4208.205128,4628.205128,3970.769231,4050.256410
109,4736.410256,4529.230769,4523.589743,4273.846153,4473.846153,4200.000000,4443.589743,4207.692307,4230.769230,4519.487179,4202.564102,4627.179487,3969.743590,4052.307692
110,4746.153846,4534.358974,4526.153846,4273.846153,4470.256410,4198.461538,4444.102564,4204.615384,4230.769230,4520.512820,4207.179487,4629.230769,3971.794872,4060.000000
111,4754.871794,4528.205128,4526.153846,4269.743589,4468.717948,4200.512820,4445.128205,4207.179487,4232.307692,4523.589743,4222.564102,4636.410256,3980.000000,4066.153846
112,4757.948717,4519.487179,4524.615384,4260.000000,4465.128205,4196.410256,4440.512820,4211.794871,4231.282051,4523.076923,4221.025641,4637.435897,3981.025642,4066.153846
113,4763.076923,4522.564102,4523.076923,4261.538461,4462.051282,4187.692307,4435.384615,4207.692307,4229.230769,4522.564102,4207.179487,4631.282051,3975.384616,4061.025641
114,4773.333333,4524.615384,4526.666666,4274.358974,4466.666666,4184.615384,4434.871794,4204.102564,4229.743589,4522.564102,4207.179487,4629.743589,3971.282052,4058.974358
115,4777.948717,4522.051282,4526.153846,4280.000000,4473.333333,4186.666666,4433.333333,4208.717948,4230.256410,4521.025641,4212.307692,4630.256410,3969.230770,4058.461538
116,4784.102564,4529.230769,4520.512820,4280.512820,4474.871794,4191.794871,4434.358974,4212.307692,4231.282051,4522.051282,4210.256410,4625.641025,3973.333334,4060.000000
117,4798.974358,4540.512820,4529.230769,4286.153846,4481.025641,4200.000000,4441.538461,4212.820512,4236.923076,4526.666666,4211.282051,4628.717948,3984.102565,4068.717948
118,4808.717948,4544.102564,4540.000000,4291.282051,4487.692307,4203.589743,4444.615384,4213.333333,4239.487179,4526.666666,4219.487179,4635.384615,3983.076924,4071.282051
119,4804.615384,4537.435897,4531.794871,4285.128205,4482.564102,4200.512820,4443.076923,4210.769230,4234.871794,4524.615384,4217.948717,4627.692307,3972.307693,4060.000000
120,4801.538461,4526.666666,4520.512820,4273.333333,4470.769230,4198.974358,4441.025641,4208.205128,4228.717948,4522.564102,4207.692307,4620.000000,3966.153847,4055.897435
121,4805.641025,4519.487179,4519.487179,4265.128205,4466.666666,4198.461538,4437.435897,4205.641025,4225.641025,4521.025641,4205.641025,4623.589743,3966.153847,4058.461538
122,4808.205128,4520.000000,4521.538461,4266.153846,4470.256410,4196.923076,4437.948717,4205.641025,4228.717948,4525.641025,4211.282051,4628.717948,3970.256411,4058.974358
123,4813.333333,4521.538461,4526.666666,4270.256410,4473.333333,4196.923076,4442.051282,4210.769230,4229.743589,4527.692307,4216.923076,4631.282051,3974.871795,4061.538461
124,4821.025641,4522.051282,4527.692307,4269.230769,4472.307692,4196.923076,4440.000000,4209.743589,4226.153846,4521.538461,4215.384615,4631.794871,3971.282052,4066.666666
125,4826.666666,4527.692307,4526.153846,4271.282051,4471.794871,4198.461538,4439.487179,4209.743589,4226.666666,4518.974358,4214.358974,4630.256410,3968.717949,4068.205128
126,4836.410256,4534.871794,4531.794871,4281.538461,4477.435897,4201.025641,4443.076923,4217.948717,4233.333333,4524.102564,4220.000000,4632.307692,3977.435898,4068.717948
127,4844.615384,4537.948717,4538.461538,4285.641025,4484.615384,4201.538461,4444.102564,4218.461538,4235.897435,4531.282051,4225.128205,4640.512820,3987.692308,4073.846153
128,4847.692307,4538.461538,4537.948717,4283.076923,4485.128205,4201.538461,4444.102564,4213.846153,4234.358974,4532.820512,4230.769230,4643.076923,3986.666667,4079.487179
129,4851.794871,4539.487179,4536.923076,4291.794871,4482.051282,4201.538461,4444.102564,4215.897435,4231.794871,4531.282051,4234.871794,4637.948717,3982.051283,4080.000000
130,4858.974358,4540.512820,4536.410256,4300.512820,4480.512820,4202.051282,4443.589743,4214.871794,4231.282051,4532.307692,4230.769230,4635.384615,3980.512821,4078.974358
131,4863.589743,4538.974358,4538.461538,4294.871794,4481.025641,4203.076923,4445.641025,4210.256410,4230.769230,4531.282051,4222.051282,4636.923076,3978.461539,4079.487179
132,4861.538461,4540.000000,4535.384615,4286.153846,4481.025641,4201.025641,4442.564102,4205.641025,4226.666666,4522.564102,4216.410256,4633.846153,3972.307693,4073.846153
133,4860.000000,4535.897435,4528.717948,4280.512820,4477.435897,4198.974358,4438.974358,4203.076923,4224.615384,4518.974358,4216.410256,4630.769230,3969.230770,4070.256410
134,4862.051282,4528.717948,4531.794871,4276.923076,4476.410256,4200.000000,4440.512820,4208.205128,4229.230769,4525.641025,4219.487179,4632.307692,3974.358975,4075.897435
135,4868.205128,4533.333333,4538.461538,4281.538461,4479.487179,4201.538461,4443.589743,4216.410256,4236.410256,4531.794871,4225.128205,4633.846153,3980.512821,4077.435897
136,4874.871794,4537.948717,4540.512820,4288.717948,4482.564102,4203.076923,4447.179487,4221.538461,4241.025641,4537.435897,4231.794871,4637.948717,3980.512821,4077.435897
137,4875.384615,4532.307692,4534.871794,4285.128205,4485.128205,4203.589743,4448.205128,4220.000000,4235.897435,4541.538461,4232.820512,4639.487179,3977.435898,4077.435897
138,4873.333333,4527.179487,4530.256410,4281.538461,4485.128205,4202.564102,4445.128205,4216.410256,4229.230769,4536.410256,4226.153846,4632.307692,3975.897436,4073.846153
139,4876.410256,4533.846153,4531.794871,4286.666666,4482.564102,4201.538461,4445.128205,4218.461538,4233.846153,4527.179487,4221.538461,4631.282051,3976.923077,4074.358974
140,4882.564102,4534.871794,4529.743589,4285.641025,4480.000000,4199.487179,4444.615384,4214.871794,4232.820512,4521.025641,4217.948717,4631.794871,3972.307693,4076.410256
141,4882.051282,4525.128205,4522.051282,4280.000000,4477.948717,4196.923076,4439.487179,4202.051282,4219.487179,4518.461538,4213.846153,4624.615384,3963.589744,4071.282051
142,4882.051282,4525.641025,4521.025641,4280.000000,4477.435897,4197.948717,4439.487179,4200.512820,4218.461538,4518.461538,4218.461538,4625.641025,3962.051283,4067.179487
143,4885.641025,4533.846153,4525.641025,4283.589743,4482.564102,4198.974358,4442.564102,4212.820512,4228.205128,4522.051282,4225.128205,4632.307692,3968.205129,4069.743589
144,4890.256410,4534.358974,4527.692307,4285.128205,4484.615384,4200.000000,4442.051282,4216.410256,4230.769230,4526.153846,4224.615384,4631.282051,3973.846154,4074.358974
145,4896.410256,4526.153846,4534.358974,4278.461538,4477.435897,4201.538461,4443.076923,4215.384615,4230.256410,4526.666666,4227.692307,4635.897435,3981.538462,4084.102564
146,4897.948717,4521.538461,4538.974358,4276.410256,4473.333333,4191.282051,4438.461538,4212.307692,4229.743589,4522.564102,4230.256410,4643.076923,3985.641026,4087.692307
147,4900.000000,4526.153846,4535.897435,4280.512820,4473.333333,4185.641025,4430.256410,4209.230769,4222.051282,4522.564102,4228.717948,4638.974358,3978.461539,4083.589743
148,4902.564102,4536.923076,4538.974358,4280.000000,4473.333333,4197.948717,4437.435897,4212.307692,4217.435897,4524.102564,4230.256410,4635.384615,3973.333334,4083.076923
149,4900.000000,4537.435897,4535.384615,4280.000000,4475.384615,4198.974358,4445.641025,4210.256410,4219.487179,4517.435897,4227.179487,4636.923076,3972.820513,4080.512820
150,4897.948717,4522.051282,4522.564102,4282.564102,4474.358974,4186.666666,4437.435897,4204.615384,4217.435897,4510.256410,4219.487179,4633.333333,3967.692308,4075.897435
151,4904.615384,4520.512820,4525.128205,4284.615384,4472.820512,4190.769230,4434.358974,4212.307692,4213.333333,4519.487179,4224.102564,4633.846153,3966.666667,4081.538461
152,4912.820512,4527.692307,4535.384615,4288.205128,4477.435897,4203.076923,4443.589743,4221.025641,4221.025641,4527.692307,4230.769230,4640.512820,3973.846154,4088.205128
153,4916.923076,4524.102564,4534.871794,4291.282051,4483.589743,4200.512820,4447.179487,4217.435897,4230.769230,4522.051282,4229.230769,4640.512820,3978.461539,4084.615384
154,4915.384615,4523.589743,4530.769230,4286.153846,4482.564102,4197.948717,4444.615384,4216.410256,4227.179487,4520.512820,4228.717948,4636.923076,3975.897436,4081.025641
155,4913.333333,4526.666666,4529.230769,4278.974358,4473.846153,4200.512820,4444.615384,4218.461538,4222.564102,4524.615384,4228.717948,4634.871794,3972.820513,4077.435897
156,4915.897435,4524.102564,4523.076923,4277.948717,4471.794871,4198.974358,4445.128205,4215.897435,4226.153846,4522.564102,4225.128205,4630.256410,3969.743590,4072.820512
157,4921.538461,4523.076923,4521.025641,4281.025641,4476.410256,4198.974358,4444.102564,4217.435897,4225.128205,4522.564102,4221.025641,4629.743589,3967.179488,4075.384615
158,4920.000000,4524.615384,4523.076923,4282.051282,4476.410256,4200.000000,4442.564102,4215.384615,4214.871794,4518.461538,4216.410256,4630.769230,3962.564103,4075.384615
159,4915.384615,4518.974358,4520.000000,4279.487179,4471.794871,4195.384615,4440.512820,4205.641025,4212.307692,4509.230769,4213.846153,4622.051282,3956.410257,4068.205128
160,4916.410256,4524.102564,4518.974358,4284.615384,4474.358974,4193.333333,4442.564102,4205.128205,4221.538461,4513.333333,4215.897435,4617.948717,3958.461539,4066.666666
161,4922.564102,4533.333333,4523.076923,4290.256410,4481.025641,4200.000000,4444.615384,4215.384615,4225.128205,4522.564102,4221.538461,4628.205128,3967.179488,4071.282051
162,4929.230769,4531.794871,4523.589743,4284.615384,4482.051282,4203.589743,4444.615384,4217.435897,4226.153846,4523.076923,4228.205128,4634.358974,3972.307693,4076.923076
163,4932.307692,4532.307692,4523.589743,4280.512820,4479.487179,4200.512820,4445.128205,4215.897435,4230.769230,4527.692307,4230.256410,4633.846153,3969.743590,4079.487179
164,4935.897435,4531.794871,4530.769230,4285.641025,4478.974358,4201.538461,4447.179487,4220.000000,4229.230769,4531.794871,4229.743589,4639.487179,3971.282052,4077.948717
165,4939.487179,4526.153846,4534.871794,4290.256410,4479.487179,4203.076923,4445.128205,4220.512820,4224.615384,4529.743589,4233.846153,4643.076923,3978.974359,4080.000000
166,4943.076923,4529.230769,4533.333333,4289.230769,4477.435897,4201.538461,4443.589743,4215.897435,4228.717948,4529.743589,4235.384615,4643.589743,3982.564103,4086.153846
167,4941.025641,4532.820512,4533.333333,4285.641025,4480.000000,4201.538461,4444.615384,4220.000000,4228.205128,4530.256410,4228.205128,4642.051282,3978.461539,4083.076923
168,4936.410256,4525.128205,4529.743589,4278.974358,4484.615384,4200.000000,4442.564102,4218.974358,4220.512820,4528.717948,4219.487179,4635.897435,3977.948718,4073.846153
169,4935.897435,4519.487179,4521.025641,4275.384615,4480.000000,4197.948717,4434.358974,4204.615384,4218.461538,4529.230769,4215.384615,4630.256410,3986.153847,4072.820512
170,4939.487179,4527.692307,4521.025641,4281.538461,4478.974358,4198.461538,4431.794871,4202.564102,4218.974358,4526.666666,4222.564102,4632.307692,3993.846154,4077.948717
171,4942.051282,4533.846153,4531.282051,4288.717948,4488.205128,4198.974358,4437.948717,4211.794871,4216.410256,4520.000000,4229.743589,4638.974358,3996.410257,4079.487179
172,4941.025641,4529.743589,4529.743589,4284.615384,4492.820512,4197.948717,4438.461538,4207.692307,4215.384615,4519.487179,4223.589743,4636.923076,3994.871795,4073.846153
173,4941.538461,4527.179487,4524.102564,4275.384615,4488.205128,4197.948717,4435.897435,4203.589743,4218.974358,4526.153846,4217.948717,4629.230769,3995.384616,4071.282051
174,4944.102564,4528.205128,4528.717948,4275.897435,4489.743589,4201.025641,4441.025641,4215.897435,4227.179487,4528.717948,4224.102564,4629.230769,3994.871795,4071.282051
175,4943.589743,4527.692307,4530.769230,4276.923076,4492.307692,4203.076923,4446.153846,4222.051282,4231.794871,4528.205128,4223.589743,4633.333333,3991.282052,4068.717948
176,4941.025641,4526.666666,4527.179487,4276.410256,4488.717948,4202.051282,4445.128205,4216.923076,4229.743589,4529.743589,4214.358974,4632.307692,3992.307693,4067.179487
177,4940.000000,4527.692307,4531.282051,4279.487179,4490.256410,4201.025641,4444.615384,4217.948717,4230.769230,4530.256410,4215.897435,4631.794871,3997.435898,4068.205128
178,4939.487179,4528.717948,4538.461538,4278.974358,4493.846153,4202.564102,4444.615384,4223.589743,4234.358974,4529.230769,4221.025641,4632.820512,3996.923077,4065.128205
179,4941.025641,4531.282051,4536.410256,4276.410256,4491.794871,4204.102564,4451.282051,4226.666666,4234.358974,4530.769230,4218.461538,4631.282051,3992.820513,4060.000000
180,4950.256410,4535.897435,4535.897435,4285.128205,4493.333333,4204.615384,4460.512820,4231.794871,4236.923076,4531.282051,4223.589743,4634.358974,3995.384616,4063.589743
181,4952.307692,4535.897435,4539.487179,4292.307692,4501.025641,4203.589743,4455.384615,4231.282051,4240.512820,4530.769230,4230.769230,4640.000000,3997.435898,4065.641025
182,4945.128205,4534.358974,4537.948717,4287.179487,4498.974358,4203.589743,4443.076923,4222.564102,4230.769230,4529.230769,4224.102564,4639.487179,3994.358975,4059.487179
183,4946.666666,4535.897435,4539.487179,4284.102564,4491.282051,4201.538461,4441.025641,4216.410256,4223.589743,4523.589743,4218.461538,4638.461538,3989.743590,4053.333333
184,4950.256410,4536.923076,4541.025641,4287.179487,4492.307692,4200.512820,4443.589743,4217.948717,4227.179487,4517.435897,4225.128205,4641.538461,3981.538462,4056.923076
185,4947.179487,4532.307692,4540.512820,4283.589743,4491.282051,4201.025641,4444.615384,4218.974358,4227.692307,4522.051282,4224.102564,4644.615384,3979.487180,4063.589743
186,4945.128205,4523.589743,4541.538461,4276.410256,4478.461538,4197.948717,4443.589743,4214.871794,4222.564102,4523.076923,4213.846153,4642.564102,3984.615385,4060.000000
187,4942.564102,4520.512820,4540.512820,4276.410256,4472.307692,4195.897435,4442.051282,4215.384615,4221.538461,4512.307692,4212.307692,4636.410256,3983.589744,4054.358974
188,4941.025641,4523.589743,4537.948717,4277.948717,4481.538461,4199.487179,4447.692307,4224.615384,4225.128205,4509.230769,4215.897435,4638.974358,3979.487180,4061.025641
189,4949.230769,4529.743589,4544.102564,4277.948717,4491.794871,4203.589743,4457.948717,4232.307692,4230.769230,4523.589743,4221.538461,4650.256410,3984.615385,4069.230769
190,4953.846153,4529.743589,4553.333333,4281.025641,4491.794871,4203.589743,4459.487179,4234.358974,4236.923076,4531.794871,4232.307692,4654.358974,3992.820513,4066.666666
191,4944.102564,4523.076923,4547.692307,4280.512820,4488.205128,4203.589743,4452.307692,4232.820512,4234.871794,4523.589743,4232.307692,4648.205128,3989.743590,4063.076923
192,4935.897435,4520.512820,4539.487179,4277.948717,4489.230769,4202.051282,4449.743589,4224.102564,4227.179487,4518.974358,4220.000000,4646.153846,3986.666667,4065.128205
193,4934.871794,4524.615384,4541.025641,4279.487179,4490.769230,4200.512820,4454.358974,4220.000000,4226.666666,4521.025641,4217.435897,4647.692307,3990.769231,4065.641025
194,4932.307692,4527.179487,4542.051282,4283.076923,4489.743589,4202.051282,4458.461538,4225.641025,4229.230769,4522.564102,4224.102564,4642.564102,3987.179488,4063.589743
195,4925.128205,4526.153846,4537.948717,4280.000000,4491.794871,4202.051282,4454.871794,4226.666666,4231.794871,4523.076923,4222.051282,4635.384615,3980.512821,4058.461538
196,4922.564102,4522.051282,4535.897435,4273.333333,4491.794871,4202.051282,4446.666666,4223.589743,4232.307692,4518.974358,4213.846153,4631.282051,3983.589744,4054.358974
197,4932.307692,4520.512820,4537.435897,4273.846153,4489.230769,4202.051282,4443.589743,4224.615384,4230.256410,4519.487179,4216.410256,4630.769230,3990.256411,4059.487179
198,4942.564102,4527.692307,4538.461538,4285.128205,4489.230769,4198.461538,4444.615384,4223.076923,4231.282051,4526.153846,4223.076923,4632.820512,3988.717949,4062.564102
199,4940.000000,4532.307692,4537.948717,4293.846153,4489.743589,4196.410256,4444.102564,4215.384615,4228.717948,4524.615384,4217.948717,4631.282051,3983.076924,4056.410256
200,4931.282051,4530.256410,4536.923076,4286.153846,4489.743589,4200.512820,4442.564102,4216.410256,4222.564102,4515.384615,4214.871794,4626.666666,3978.461539,4052.307692
201,4914.358974,4526.153846,4530.769230,4280.000000,4492.820512,4204.102564,4444.615384,4225.128205,4225.128205,4516.923076,4216.923076,4626.153846,3977.948718,4052.820512
202,4890.256410,4521.538461,4524.102564,4277.435897,4489.743589,4201.538461,4444.615384,4223.589743,4227.692307,4518.461538,4208.205128,4623.076923,3977.435898,4049.230769
203,4880.000000,4523.076923,4528.717948,4267.692307,4484.102564,4198.974358,4442.051282,4215.897435,4221.538461,4508.205128,4200.000000,4616.923076,3973.333334,4044.615384
204,4890.256410,4533.846153,4538.974358,4271.282051,4489.230769,4202.564102,4444.615384,4219.487179,4223.589743,4510.256410,4210.256410,4623.076923,3972.307693,4049.230769
205,4906.153846,4538.461538,4541.025641,4289.230769,4494.871794,4205.641025,4448.205128,4226.666666,4233.846153,4525.641025,4222.051282,4635.384615,3982.051283,4061.025641
206,4914.358974,4528.205128,4539.487179,4288.205128,4492.307692,4203.076923,4446.153846,4221.538461,4232.820512,4528.717948,4218.974358,4636.410256,3989.743590,4067.179487
207,4917.435897,4520.000000,4538.974358,4275.384615,4486.153846,4200.000000,4441.538461,4215.897435,4225.128205,4519.487179,4215.384615,4636.410256,3984.615385,4064.102564
208,4921.538461,4525.128205,4537.435897,4277.948717,4482.051282,4200.000000,4442.564102,4217.435897,4225.128205,4518.461538,4216.923076,4642.564102,3982.051283,4062.051282
209,4925.128205,4528.205128,4540.000000,4282.051282,4486.153846,4199.487179,4445.641025,4220.000000,4228.205128,4523.076923,4219.487179,4641.025641,3987.179488,4064.615384
210,4926.153846,4525.128205,4536.410256,4278.461538,4487.179487,4197.948717,4440.000000,4221.025641,4227.692307,4522.051282,4217.435897,4631.794871,3984.102565,4060.000000
211,4924.102564,4522.051282,4523.076923,4277.948717,4482.051282,4197.435897,4432.820512,4219.487179,4224.102564,4511.282051,4207.179487,4628.205128,3973.333334,4050.256410
212,4921.025641,4518.974358,4522.051282,4275.384615,4480.000000,4197.435897,4436.923076,4216.410256,4223.589743,4500.512820,4201.025641,4627.692307,3970.256411,4045.128205
213,4928.205128,4518.461538,4533.846153,4273.333333,4485.128205,4198.974358,4444.615384,4215.897435,4226.153846,4505.128205,4210.256410,4633.846153,3978.461539,4053.846153
214,4944.102564,4529.230769,4542.564102,4281.025641,4489.230769,4201.538461,4446.666666,4223.589743,4230.769230,4517.948717,4225.641025,4649.230769,3989.743590,4069.230769
215,4954.871794,4534.871794,4547.692307,4288.717948,4492.307692,4202.564102,4447.692307,4231.794871,4233.846153,4524.615384,4235.384615,4657.435897,3993.846154,4076.410256
216,4953.846153,4527.179487,4547.179487,4283.589743,4492.820512,4202.051282,4447.692307,4230.769230,4234.358974,4521.538461,4235.897435,4650.769230,3989.230770,4069.743589
217,4949.230769,4523.076923,4540.000000,4276.410256,4490.256410,4201.538461,4444.615384,4229.230769,4235.384615,4518.974358,4231.794871,4645.641025,3990.256411,4063.589743
218,4948.205128,4528.205128,4535.897435,4282.051282,4490.769230,4202.051282,4444.102564,4234.871794,4241.538461,4525.128205,4230.769230,4644.615384,3998.974359,4065.641025
219,4949.230769,4531.794871,4534.871794,4287.692307,4492.307692,4200.512820,4445.128205,4235.897435,4245.128205,4525.641025,4230.256410,4636.410256,3994.358975,4063.589743
220,4949.743589,4530.256410,4531.282051,4281.538461,4491.794871,4198.461538,4443.076923,4233.333333,4238.974358,4519.487179,4218.461538,4627.692307,3983.076924,4056.410256
221,4957.435897,4532.307692,4534.871794,4284.102564,4494.358974,4206.153846,4444.615384,4233.333333,4234.871794,4521.025641,4217.435897,4634.358974,3983.589744,4057.948717
222,4969.743589,4539.487179,4541.538461,4298.461538,4503.589743,4216.410256,4447.179487,4232.820512,4238.461538,4524.102564,4231.794871,4645.128205,3991.794872,4070.256410
223,4971.794871,4538.974358,4542.051282,4300.512820,4508.205128,4211.794871,4445.128205,4233.333333,4240.512820,4516.923076,4230.256410,4642.564102,3987.692308,4073.333333
224,4968.205128,4532.820512,4541.025641,4292.307692,4498.461538,4201.025641,4442.564102,4229.230769,4231.794871,4508.205128,4220.512820,4637.435897,3981.025642,4066.153846
225,4970.769230,4528.205128,4539.487179,4286.153846,4489.743589,4199.487179,4441.538461,4218.461538,4222.051282,4506.153846,4220.512820,4641.538461,3982.564103,4066.666666
226,4975.897435,4529.230769,4537.948717,4282.564102,4490.769230,4200.000000,4441.025641,4217.435897,4223.076923,4507.179487,4224.615384,4643.076923,3984.102565,4071.282051
227,4977.948717,4528.205128,4540.000000,4283.076923,4492.307692,4198.461538,4443.589743,4228.205128,4227.692307,4508.717948,4225.128205,4641.538461,3985.641026,4071.282051
228,4984.102564,4527.179487,4541.025641,4284.615384,4488.717948,4199.487179,4446.666666,4232.820512,4230.769230,4507.692307,4225.128205,4645.128205,3990.256411,4073.333333
229,4990.769230,4531.794871,4540.512820,4287.692307,4493.333333,4202.051282,4445.641025,4231.282051,4236.923076,4514.871794,4226.153846,4650.256410,3991.794872,4080.000000
230,4992.820512,4534.871794,4542.051282,4291.282051,4498.974358,4203.589743,4445.641025,4230.769230,4241.538461,4521.025641,4230.256410,4653.333333,3985.641026,4081.025641
231,4993.846153,4532.307692,4542.564102,4290.769230,4496.410256,4203.589743,4447.179487,4232.307692,4237.948717,4516.923076,4236.410256,4651.794871,3979.487180,4076.923076
232,4995.384615,4532.307692,4540.000000,4288.205128,4494.871794,4202.051282,4444.615384,4232.307692,4230.256410,4514.358974,4231.794871,4648.717948,3979.487180,4074.871794
233,4994.358974,4534.871794,4539.487179,4288.205128,4495.384615,4198.974358,4441.538461,4226.153846,4232.820512,4513.333333,4222.051282,4645.641025,3980.512821,4071.794871
234,4990.256410,4530.769230,4537.948717,4286.666666,4490.256410,4198.461538,4441.025641,4217.948717,4233.333333,4506.153846,4214.871794,4638.461538,3975.384616,4066.666666
235,4991.794871,4529.230769,4536.410256,4288.205128,4488.205128,4201.025641,4441.538461,4221.025641,4226.153846,4503.589743,4213.333333,4633.846153,3968.717949,4066.666666
236,5003.589743,4537.435897,4541.025641,4296.410256,4493.846153,4202.564102,4443.076923,4229.230769,4229.230769,4509.743589,4221.025641,4642.051282,3974.358975,4074.358974
237,5013.333333,4537.948717,4550.256410,4293.333333,4493.333333,4203.076923,4443.589743,4230.256410,4237.948717,4511.794871,4228.717948,4655.384615,3983.589744,4081.025641
238,5017.435897,4532.820512,4554.358974,4285.128205,4488.717948,4202.051282,4443.076923,4231.794871,4236.923076,4517.435897,4233.333333,4659.487179,3987.179488,4085.128205
239,5022.564102,4538.461538,4555.384615,4292.820512,4494.358974,4202.051282,4444.615384,4235.897435,4240.000000,4525.641025,4233.846153,4658.974358,3991.794872,4090.769230
240,5025.128205,4548.205128,4554.358974,4303.589743,4502.051282,4206.666666,4446.666666,4235.897435,4247.179487,4524.102564,4233.846153,4656.410256,3995.897436,4090.769230
241,5021.025641,4548.717948,4546.153846,4302.564102,4500.512820,4212.307692,4446.153846,4233.333333,4241.025641,4520.512820,4234.871794,4652.820512,3994.358975,4082.564102
242,5018.461538,4540.000000,4539.487179,4303.076923,4502.051282,4213.846153,4444.102564,4235.897435,4237.948717,4522.564102,4233.846153,4647.692307,3993.333334,4077.435897
243,5021.025641,4536.410256,4540.512820,4300.512820,4503.589743,4210.769230,4443.589743,4234.871794,4243.076923,4524.102564,4228.205128,4637.435897,3990.256411,4075.384615
244,5026.666666,4539.487179,4535.897435,4288.205128,4497.948717,4204.615384,4442.051282,4225.641025,4238.461538,4513.333333,4220.000000,4630.769230,3979.487180,4070.769230
245,5033.846153,4534.358974,4530.256410,4283.589743,4493.846153,4201.025641,4441.025641,4220.512820,4227.179487,4501.538461,4211.794871,4631.282051,3967.692308,4064.615384
246,5038.461538,4524.102564,4529.743589,4287.179487,4494.871794,4203.076923,4442.564102,4220.000000,4222.051282,4503.076923,4204.102564,4630.256410,3960.512821,4060.000000
247,5041.025641,4520.000000,4526.153846,4284.615384,4492.307692,4203.589743,4442.564102,4222.564102,4222.564102,4507.179487,4205.641025,4627.179487,3963.076924,4060.000000
248,5047.692307,4521.538461,4527.692307,4286.666666,4490.256410,4200.512820,4441.538461,4230.256410,4229.230769,4504.102564,4214.871794,4634.871794,3972.820513,4068.717948
249,5056.923076,4528.717948,4539.487179,4296.410256,4496.410256,4203.589743,4443.589743,4235.897435,4234.871794,4508.205128,4223.589743,4646.666666,3982.051283,4081.025641
250,5063.076923,4537.435897,4544.102564,4295.384615,4498.974358,4209.743589,4444.615384,4234.358974,4236.410256,4523.076923,4231.282051,4651.282051,3984.102565,4085.128205
251,5068.205128,4534.358974,4539.487179,4288.205128,4494.358974,4208.205128,4443.589743,4232.307692,4238.974358,4523.076923,4234.871794,4649.230769,3982.051283,4081.538461
252,5071.794871,4529.743589,4537.948717,4290.769230,4490.256410,4202.564102,4443.076923,4233.846153,4236.923076,4514.871794,4233.846153,4648.205128,3984.615385,4080.512820
253,5071.794871,4529.230769,4538.974358,4292.820512,4491.794871,4202.564102,4443.589743,4230.256410,4230.769230,4513.846153,4227.179487,4647.179487,3984.615385,4079.487179
254,5074.358974,4525.128205,4538.974358,4289.743589,4491.794871,4203.589743,4441.025641,4230.256410,4231.794871,4512.307692,4218.974358,4641.538461,3975.384616,4073.846153
255,5084.102564,4527.692307,4538.461538,4290.256410,4490.256410,4201.538461,4438.974358,4230.256410,4232.820512,4507.692307,4219.487179,4641.025641,3969.230770,4074.871794
256,5091.794871,4535.384615,4537.948717,4298.974358,4494.358974,4201.538461,4435.384615,4223.076923,4223.589743,4504.102564,4223.589743,4645.641025,3972.820513,4081.538461
257,5095.384615,4530.769230,4539.487179,4297.948717,4493.846153,4201.025641,4428.205128,4220.000000,4217.948717,4501.538461,4221.025641,4644.615384,3973.846154,4081.538461
258,5106.666666,4529.230769,4541.025641,4289.230769,4486.666666,4197.435897,4429.743589,4227.692307,4226.153846,4502.051282,4226.153846,4644.615384,3975.384616,4082.564102
259,5119.487179,4541.025641,4540.512820,4292.820512,4490.769230,4200.000000,4440.512820,4234.871794,4234.358974,4509.743589,4236.923076,4651.794871,3981.538462,4092.307692
260,5124.102564,4542.051282,4540.000000,4307.179487,4503.589743,4204.102564,4444.102564,4234.358974,4234.358974,4518.461538,4235.897435,4651.794871,3984.102565,4094.871794
261,5126.153846,4534.871794,4539.487179,4307.179487,4504.102564,4205.128205,4441.025641,4233.846153,4232.307692,4520.512820,4229.743589,4646.666666,3984.615385,4087.692307
262,5134.871794,4542.564102,4538.974358,4298.974358,4498.974358,4204.615384,4441.025641,4232.820512,4234.358974,4520.000000,4234.871794,4649.743589,3988.205129,4087.692307
263,5144.102564,4549.743589,4540.000000,4300.512820,4497.435897,4205.128205,4438.974358,4229.230769,4231.794871,4518.461538,4240.000000,4650.769230,3988.205129,4092.820512
