,AF3,F7,F3,FC5,T7,P7,O1,O2,P8,T8,FC6,F4,F8,AF4
0,4400.000000,4523.076923,4545.128205,4266.153846,4522.051282,4271.282051,4447.179487,4215.897435,4230.256410,4508.205128,4212.820512,4600.000000,4085.128205,4055.897435
1,4397.435897,4527.692307,4536.410256,4265.641025,4523.076923,4274.358974,4448.717948,4214.871794,4223.076923,4495.897435,4212.820512,4599.487179,4074.871794,4049.230769
2,4401.025641,4523.589743,4538.461538,4270.256410,4524.102564,4268.717948,4447.692307,4212.820512,4219.487179,4492.307692,4218.974358,4600.512820,4074.871794,4050.769230
3,4396.410256,4517.435897,4542.051282,4269.230769,4516.410256,4260.000000,4443.076923,4213.333333,4226.153846,4503.589743,4213.846153,4601.025641,4074.358974,4049.743589
4,4396.410256,4519.487179,4542.564102,4267.692307,4509.230769,4258.461538,4441.025641,4215.897435,4232.307692,4504.615384,4208.717948,4602.051282,4075.384615,4051.282051
5,4409.230769,4525.641025,4546.666666,4271.282051,4517.948717,4261.538461,4445.641025,4217.948717,4231.282051,4502.051282,4222.564102,4606.153846,4081.538461,4062.564102
6,4405.641025,4524.615384,4544.102564,4271.282051,4523.076923,4256.410256,4443.076923,4213.846153,4225.128205,4508.205128,4228.205128,4607.179487,4084.615384,4058.974358
7,4391.794871,4521.025641,4537.948717,4264.102564,4512.820512,4247.179487,4435.897435,4205.641025,4218.974358,4508.205128,4216.923076,4602.564102,4086.153846,4046.666666
8,4393.846153,4517.435897,4538.974358,4262.051282,4506.153846,4246.666666,4437.948717,4205.128205,4217.435897,4497.948717,4211.794871,4600.000000,4089.230769,4050.256410
9,4400.512820,4514.358974,4538.461538,4266.153846,4514.358974,4251.794871,4443.076923,4204.102564,4218.461538,4497.435897,4213.846153,4601.538461,4087.692307,4056.410256
10,4397.435897,4517.948717,4533.333333,4264.102564,4519.487179,4247.692307,4441.538461,4203.076923,4217.435897,4502.564102,4210.256410,4601.538461,4085.128205,4048.205128
11,4395.897435,4522.564102,4535.384615,4261.025641,4520.512820,4244.102564,4440.000000,4211.282051,4222.051282,4508.717948,4207.692307,4603.076923,4092.820512,4046.153846
12,4398.461538,4521.538461,4535.897435,4263.076923,4524.615384,4247.692307,4443.589743,4220.512820,4226.666666,4509.743589,4208.717948,4602.564102,4098.461538,4049.230769
13,4395.897435,4515.384615,4531.282051,4262.564102,4517.948717,4245.641025,4442.051282,4212.307692,4218.974358,4494.358974,4201.538461,4598.461538,4084.102564,4041.025641
14,4393.333333,4512.820512,4529.743589,4261.538461,4508.205128,4244.615384,4439.487179,4206.153846,4215.897435,4485.128205,4203.589743,4596.410256,4073.333333,4038.461538
15,4394.871794,4517.435897,4532.307692,4262.051282,4515.384615,4248.205128,4444.102564,4214.358974,4226.153846,4499.487179,4213.333333,4600.000000,4085.641025,4049.230769
16,4393.846153,4522.564102,4534.358974,4263.076923,4524.615384,4249.230769,4446.666666,4220.000000,4234.358974,4512.307692,4211.794871,4608.717948,4099.487179,4051.282051
17,4394.358974,4522.564102,4533.846153,4263.076923,4524.102564,4253.333333,4445.641025,4220.000000,4235.384615,4507.179487,4209.230769,4613.846153,4094.871794,4044.615384
18,4398.974358,4521.538461,4532.820512,4263.589743,4518.974358,4260.512820,4444.615384,4218.461538,4233.333333,4504.102564,4215.897435,4611.282051,4085.128205,4048.205128
19,4400.512820,4524.102564,4533.846153,4264.615384,4510.769230,4262.564102,4443.589743,4217.435897,4231.282051,4508.205128,4222.051282,4608.717948,4089.230769,4051.794871
20,4399.487179,4525.128205,4539.487179,4266.153846,4511.282051,4266.153846,4443.589743,4218.974358,4231.794871,4510.769230,4226.153846,4610.769230,4101.538461,4051.794871
21,4398.974358,4518.974358,4538.461538,4262.051282,4520.000000,4269.743589,4444.102564,4215.897435,4229.743589,4506.153846,4222.051282,4608.205128,4094.871794,4052.307692
22,4391.282051,4514.358974,4526.666666,4260.512820,4513.333333,4266.153846,4441.538461,4209.743589,4225.128205,4495.384615,4208.717948,4600.512820,4071.794871,4045.641025
23,4390.256410,4517.435897,4525.641025,4261.538461,4505.128205,4271.282051,4441.025641,4212.820512,4227.692307,4494.358974,4208.205128,4602.564102,4065.641025,4041.025641
24,4395.897435,4512.820512,4532.307692,4253.846153,4509.743589,4279.487179,4442.564102,4217.435897,4228.717948,4496.923076,4212.307692,4606.666666,4073.333333,4043.076923
25,4391.282051,4510.256410,4530.769230,4250.769230,4508.717948,4277.435897,4442.051282,4215.897435,4223.076923,4489.743589,4206.153846,4604.615384,4068.717948,4043.076923
26,4390.256410,4515.897435,4529.743589,4260.512820,4504.615384,4280.000000,4441.538461,4209.743589,4218.974358,4487.692307,4211.282051,4607.179487,4056.923076,4044.102564
27,4396.410256,4518.461538,4534.358974,4267.692307,4508.205128,4287.179487,4443.076923,4208.205128,4224.615384,4498.461538,4221.538461,4613.846153,4061.538461,4050.769230
28,4393.846153,4515.384615,4534.358974,4262.564102,4511.282051,4283.076923,4440.512820,4210.769230,4229.230769,4496.923076,4212.820512,4611.282051,4072.307692,4048.205128
29,4388.205128,4509.230769,4531.794871,4254.358974,4509.230769,4276.923076,4437.435897,4205.128205,4221.538461,4483.589743,4201.538461,4605.128205,4070.256410,4036.923076
30,4393.333333,4507.179487,4534.871794,4254.358974,4505.128205,4280.512820,4438.461538,4202.564102,4218.461538,4488.717948,4206.153846,4613.333333,4065.641025,4043.589743
31,4405.128205,4518.461538,4541.025641,4264.102564,4505.641025,4288.205128,4445.128205,4214.358974,4232.307692,4504.102564,4218.974358,4628.205128,4067.692307,4062.564102
32,4407.179487,4526.153846,4546.153846,4269.743589,4509.743589,4287.692307,4444.102564,4218.974358,4237.948717,4501.025641,4224.102564,4629.743589,4063.076923,4063.076923
33,4397.435897,4518.461538,4543.589743,4263.076923,4508.205128,4281.025641,4434.871794,4207.179487,4228.205128,4488.205128,4216.410256,4622.564102,4050.256410,4048.205128
34,4396.923076,4519.487179,4537.948717,4262.051282,4507.179487,4280.512820,4434.358974,4204.102564,4226.666666,4491.282051,4216.410256,4622.564102,4047.692307,4049.743589
35,4406.153846,4527.179487,4538.974358,4264.102564,4507.692307,4283.076923,4436.410256,4206.666666,4226.666666,4501.538461,4222.051282,4624.615384,4048.717948,4061.025641
36,4402.051282,4518.461538,4536.923076,4257.948717,4505.641025,4278.461538,4428.205128,4198.461538,4214.871794,4495.384615,4211.282051,4615.897435,4046.153846,4058.974358
37,4391.794871,4506.666666,4531.282051,4255.897435,4505.128205,4275.897435,4423.076923,4193.333333,4205.641025,4479.487179,4199.487179,4606.666666,4045.128205,4047.692307
38,4394.358974,4510.256410,4532.307692,4263.076923,4505.641025,4278.461538,4430.769230,4198.974358,4210.256410,4478.974358,4208.205128,4610.256410,4049.743589,4045.641025
39,4402.564102,4522.564102,4535.897435,4265.641025,4506.153846,4278.974358,4432.820512,4203.076923,4217.948717,4490.769230,4217.948717,4614.358974,4057.435897,4055.897435
40,4406.153846,4525.128205,4535.384615,4261.538461,4507.692307,4276.410256,4427.179487,4201.025641,4219.487179,4490.769230,4221.538461,4614.358974,4062.051282,4061.538461
41,4410.769230,4522.564102,4541.025641,4267.692307,4507.692307,4277.948717,4433.333333,4208.717948,4225.128205,4491.282051,4227.179487,4618.461538,4068.717948,4065.128205
42,4413.333333,4524.615384,4547.692307,4273.846153,4509.230769,4283.589743,4444.102564,4222.051282,4235.897435,4504.615384,4229.743589,4623.589743,4074.871794,4067.692307
43,4407.179487,4525.128205,4542.051282,4267.179487,4511.794871,4283.589743,4445.128205,4219.487179,4234.871794,4508.717948,4230.769230,4622.564102,4069.230769,4058.974358
44,4403.076923,4522.051282,4535.897435,4260.512820,4509.230769,4277.435897,4443.076923,4213.846153,4227.179487,4503.076923,4231.282051,4616.923076,4062.564102,4051.282051
45,4410.256410,4522.564102,4536.923076,4262.051282,4512.820512,4276.923076,4444.102564,4219.487179,4237.948717,4506.666666,4224.615384,4617.948717,4074.358974,4060.512820
46,4410.256410,4520.512820,4533.333333,4264.102564,4518.974358,4277.948717,4442.564102,4221.538461,4249.230769,4511.282051,4216.410256,4621.025641,4085.641025,4066.153846
47,4396.410256,4516.923076,4526.153846,4262.051282,4509.743589,4270.256410,4438.974358,4218.974358,4243.589743,4503.076923,4215.897435,4612.307692,4076.410256,4047.692307
48,4392.307692,4518.974358,4523.589743,4262.564102,4501.025641,4262.564102,4437.435897,4218.461538,4236.923076,4498.974358,4216.410256,4602.564102,4068.205128,4034.358974
49,4400.000000,4520.000000,4528.717948,4264.102564,4505.128205,4264.102564,4439.487179,4217.948717,4236.923076,4506.153846,4217.435897,4605.641025,4071.794871,4044.102564
50,4399.487179,4516.410256,4532.307692,4264.102564,4506.153846,4265.128205,4438.974358,4217.435897,4233.846153,4504.102564,4217.435897,4609.230769,4065.641025,4054.358974
51,4391.794871,4515.384615,4527.179487,4262.564102,4502.564102,4261.025641,4435.384615,4213.846153,4224.615384,4486.666666,4212.820512,4601.538461,4049.230769,4049.743589
52,4395.897435,4518.974358,4526.153846,4261.025641,4503.589743,4260.000000,4435.384615,4204.102564,4220.512820,4482.564102,4214.358974,4598.974358,4044.615384,4044.102564
53,4409.230769,4527.179487,4535.384615,4268.205128,4510.256410,4263.076923,4437.435897,4204.615384,4225.641025,4503.076923,4224.102564,4607.179487,4046.153846,4052.307692
54,4413.846153,4533.846153,4543.589743,4279.487179,4513.846153,4264.615384,4437.948717,4212.820512,4233.846153,4510.769230,4228.205128,4615.897435,4043.589743,4063.076923
55,4411.282051,4527.179487,4543.589743,4275.897435,4512.307692,4263.076923,4441.025641,4215.897435,4235.897435,4495.897435,4226.153846,4614.358974,4042.051282,4065.128205
56,4410.256410,4518.461538,4541.025641,4266.153846,4515.897435,4262.051282,4444.615384,4220.000000,4233.333333,4492.307692,4225.641025,4606.153846,4037.948717,4060.512820
57,4413.846153,4524.615384,4541.538461,4272.820512,4520.000000,4265.641025,4443.589743,4225.641025,4237.435897,4507.179487,4231.282051,4610.256410,4040.512820,4060.512820
58,4416.923076,4529.230769,4544.615384,4282.564102,4515.897435,4266.153846,4444.102564,4224.102564,4243.076923,4514.358974,4235.897435,4619.487179,4054.358974,4065.641025
59,4411.794871,4524.615384,4541.025641,4271.282051,4506.153846,4263.076923,4445.128205,4214.871794,4236.410256,4501.025641,4228.205128,4611.794871,4050.256410,4064.102564
60,4403.076923,4522.564102,4534.358974,4262.051282,4504.615384,4263.076923,4442.564102,4216.410256,4230.256410,4494.871794,4220.000000,4602.564102,4030.769230,4060.000000
61,4402.051282,4523.076923,4537.948717,4269.743589,4510.769230,4264.615384,4446.153846,4226.666666,4238.974358,4500.512820,4220.000000,4606.153846,4025.128205,4058.461538
62,4405.128205,4520.512820,4540.512820,4272.307692,4513.846153,4265.641025,4456.923076,4229.230769,4240.512820,4496.923076,4217.948717,4606.153846,4028.717948,4056.923076
63,4403.076923,4521.025641,4532.307692,4265.641025,4510.769230,4265.128205,4458.461538,4224.615384,4235.897435,4491.282051,4212.307692,4598.974358,4023.076923,4054.871794
64,4397.435897,4518.974358,4528.205128,4261.538461,4504.102564,4260.512820,4445.128205,4222.051282,4242.051282,4491.282051,4212.820512,4598.461538,4015.897435,4051.282051
65,4396.923076,4514.871794,4533.333333,4262.564102,4501.538461,4257.948717,4443.076923,4220.512820,4242.564102,4492.307692,4213.333333,4603.589743,4016.410256,4048.717948
66,4406.666666,4523.076923,4537.435897,4269.230769,4505.641025,4262.564102,4455.384615,4221.538461,4237.435897,4496.923076,4218.461538,4608.205128,4022.051282,4055.897435
67,4415.384615,4535.897435,4542.051282,4277.435897,4516.410256,4266.666666,4460.000000,4230.256410,4246.153846,4509.230769,4231.794871,4614.358974,4024.615384,4067.692307
68,4415.384615,4539.487179,4546.666666,4283.076923,4524.615384,4265.641025,4455.897435,4235.897435,4254.871794,4515.384615,4235.384615,4616.410256,4023.589743,4072.307692
69,4416.410256,4535.384615,4543.589743,4281.025641,4519.487179,4262.564102,4457.435897,4230.769230,4245.641025,4505.641025,4230.769230,4612.307692,4022.051282,4069.230769
70,4408.205128,4516.923076,4536.410256,4270.256410,4510.769230,4260.000000,4460.512820,4224.102564,4237.948717,4497.435897,4224.102564,4605.641025,4013.333333,4057.435897
71,4396.410256,4508.717948,4533.846153,4266.666666,4506.153846,4262.564102,4453.333333,4224.615384,4242.564102,4498.461538,4217.948717,4603.076923,4001.538461,4047.692307
72,4404.102564,4531.282051,4536.410256,4278.461538,4507.692307,4261.538461,4443.589743,4229.743589,4247.692307,4500.000000,4220.000000,4607.692307,4007.692307,4055.897435
73,4409.743589,4541.538461,4534.358974,4284.615384,4508.717948,4251.794871,4441.025641,4227.692307,4242.564102,4494.871794,4222.051282,4609.743589,4010.256410,4062.564102
74,4399.487179,4524.102564,4528.205128,4278.974358,4506.666666,4250.256410,4443.076923,4218.461538,4230.256410,4486.666666,4217.435897,4604.615384,3990.256411,4053.333333
75,4398.461538,4520.000000,4526.153846,4276.410256,4506.153846,4251.794871,4442.564102,4213.846153,4225.641025,4480.512820,4214.871794,4599.487179,3982.051283,4046.153846
76,4402.564102,4526.666666,4525.641025,4277.948717,4506.153846,4250.256410,4442.564102,4217.948717,4236.410256,4489.743589,4217.948717,4600.512820,3992.307693,4051.794871
77,4401.538461,4524.615384,4529.230769,4276.410256,4507.692307,4254.358974,4444.615384,4222.564102,4245.641025,4509.230769,4222.051282,4604.615384,3991.282052,4059.487179
78,4402.564102,4521.538461,4532.307692,4272.820512,4511.282051,4257.948717,4444.615384,4221.025641,4240.512820,4506.666666,4224.615384,4604.102564,3985.128206,4061.025641
79,4400.512820,4521.025641,4530.256410,4270.256410,4509.743589,4250.769230,4440.512820,4215.897435,4231.794871,4490.769230,4218.974358,4601.025641,3988.205129,4058.974358
80,4398.974358,4522.564102,4529.743589,4268.717948,4505.641025,4248.205128,4440.000000,4216.410256,4232.820512,4492.307692,4212.820512,4602.564102,3989.230770,4056.410256
81,4408.717948,4526.153846,4533.333333,4272.820512,4510.769230,4253.333333,4444.102564,4221.025641,4238.461538,4496.410256,4217.435897,4608.717948,3986.666667,4060.512820
82,4410.769230,4524.615384,4533.333333,4278.974358,4518.461538,4250.769230,4439.487179,4220.512820,4241.025641,4493.846153,4218.974358,4608.205128,3989.743590,4067.692307
83,4398.461538,4521.538461,4527.179487,4273.846153,4510.769230,4245.641025,4426.153846,4210.256410,4235.897435,4490.769230,4213.846153,4600.000000,3988.717949,4062.051282
84,4393.333333,4521.025641,4522.051282,4261.538461,4501.538461,4244.102564,4423.076923,4203.589743,4227.179487,4492.307692,4214.871794,4597.948717,3989.743590,4050.256410
85,4398.974358,4517.948717,4522.564102,4260.000000,4511.282051,4244.615384,4431.794871,4210.769230,4228.205128,4504.102564,4210.256410,4602.051282,3997.948718,4053.846153
86,4407.179487,4522.564102,4529.230769,4270.769230,4525.128205,4250.256410,4441.025641,4218.461538,4234.871794,4515.897435,4200.000000,4602.564102,4006.153846,4069.230769
87,4412.307692,4535.897435,4534.358974,4276.923076,4525.641025,4260.000000,4444.102564,4217.435897,4234.358974,4508.717948,4204.615384,4603.589743,4009.230769,4076.410256
88,4412.820512,4540.512820,4535.384615,4273.333333,4522.564102,4264.102564,4441.538461,4216.923076,4233.333333,4502.051282,4221.025641,4604.102564,4011.794871,4074.871794
89,4412.820512,4538.461538,4535.897435,4267.179487,4524.102564,4262.051282,4439.487179,4222.564102,4237.948717,4515.897435,4221.538461,4603.076923,4018.974358,4070.769230
90,4408.205128,4534.871794,4533.846153,4268.205128,4526.153846,4263.589743,4444.102564,4223.076923,4240.512820,4520.512820,4203.589743,4603.076923,4016.923076,4061.538461
91,4397.948717,4526.666666,4527.692307,4266.666666,4525.641025,4263.589743,4440.512820,4216.923076,4235.384615,4511.282051,4196.410256,4596.410256,3997.435898,4055.384615
92,4394.871794,4526.153846,4526.666666,4257.948717,4522.051282,4260.512820,4427.692307,4212.307692,4230.256410,4515.384615,4206.666666,4589.743589,3987.179488,4058.974358
93,4407.692307,4537.948717,4533.846153,4266.153846,4521.538461,4262.564102,4432.307692,4214.871794,4232.820512,4525.641025,4217.435897,4601.025641,4009.230769,4066.153846
94,4417.948717,4544.615384,4543.589743,4283.076923,4531.282051,4268.205128,4445.128205,4220.512820,4236.410256,4525.641025,4220.512820,4611.794871,4026.153846,4068.717948
95,4407.692307,4533.333333,4542.051282,4275.897435,4534.871794,4266.153846,4439.487179,4216.410256,4228.717948,4520.000000,4212.820512,4605.641025,4010.256410,4067.179487
96,4393.846153,4524.615384,4533.333333,4260.000000,4523.076923,4261.538461,4429.743589,4209.230769,4219.487179,4518.461538,4205.641025,4598.461538,4007.179487,4062.051282
97,4395.897435,4529.743589,4533.846153,4263.589743,4520.000000,4266.666666,4434.358974,4210.769230,4224.615384,4519.487179,4210.769230,4601.538461,4029.743589,4058.974358
98,4399.487179,4530.256410,4537.948717,4267.692307,4526.666666,4272.307692,4438.461538,4211.794871,4227.692307,4516.923076,4212.307692,4603.589743,4047.692307,4061.025641
99,4395.384615,4524.615384,4536.410256,4264.615384,4524.615384,4265.128205,4430.256410,4208.717948,4220.000000,4510.769230,4197.435897,4603.076923,4061.538461,4057.948717
100,4398.974358,4528.717948,4541.025641,4272.307692,4520.000000,4250.769230,4427.692307,4210.769230,4223.076923,4512.820512,4197.435897,4609.743589,4075.897435,4057.435897
101,4409.230769,4538.974358,4551.794871,4275.897435,4523.589743,4247.179487,4437.435897,4217.948717,4233.846153,4524.615384,4220.000000,4617.435897,4083.589743,4071.794871
102,4407.179487,4537.435897,4549.230769,4269.230769,4523.589743,4249.743589,4437.948717,4217.948717,4230.769230,4522.564102,4225.641025,4615.897435,4094.358974,4075.384615
103,4400.000000,4527.692307,4536.923076,4266.666666,4522.051282,4242.051282,4427.692307,4208.717948,4220.512820,4506.666666,4206.666666,4607.179487,4105.641025,4058.461538
104,4397.948717,4525.641025,4533.846153,4266.666666,4523.076923,4231.794871,4424.102564,4201.025641,4218.974358,4507.692307,4193.333333,4596.410256,4109.743589,4050.256410
105,4396.923076,4531.282051,4538.461538,4267.692307,4521.538461,4230.769230,4427.692307,4202.051282,4220.000000,4517.435897,4202.564102,4584.615384,4113.846153,4056.410256
106,4402.051282,4538.974358,4544.615384,4276.410256,4522.564102,4233.846153,4433.846153,4213.333333,4225.641025,4517.948717,4220.000000,4580.000000,4117.948717,4064.615384
107,4408.205128,4537.948717,4545.641025,4278.974358,4527.692307,4234.358974,4439.487179,4218.974358,4233.846153,4518.974358,4222.564102,4586.666666,4120.000000,4068.717948
108,4401.538461,4532.820512,4538.461538,4267.692307,4526.666666,4231.282051,4438.974358,4210.256410,4228.717948,4521.538461,4206.153846,4588.717948,4125.641025,4062.051282
109,4394.871794,4533.333333,4536.923076,4264.615384,4521.025641,4229.743589,4436.923076,4202.564102,4218.974358,4511.282051,4201.538461,4579.487179,4124.615384,4052.307692
110,4395.897435,4531.794871,4540.000000,4268.205128,4517.435897,4236.923076,4437.948717,4209.230769,4220.000000,4501.538461,4215.384615,4572.820512,4109.743589,4054.358974
111,4395.384615,4530.769230,4537.948717,4266.666666,4518.974358,4245.641025,4438.974358,4214.358974,4225.641025,4508.717948,4218.461538,4575.384615,4094.871794,4061.025641
112,4395.384615,4537.435897,4536.923076,4267.692307,4522.051282,4247.692307,4437.948717,4211.282051,4227.179487,4515.897435,4208.717948,4579.487179,4090.256410,4057.435897
113,4399.487179,4538.461538,4539.487179,4271.282051,4523.589743,4247.179487,4434.358974,4206.666666,4224.102564,4513.333333,4203.589743,4578.974358,4089.743589,4053.333333
114,4398.461538,4530.256410,4535.897435,4268.205128,4521.025641,4246.666666,4429.230769,4203.076923,4218.461538,4509.743589,4208.717948,4580.512820,4085.641025,4055.897435
115,4395.897435,4531.282051,4538.461538,4265.641025,4518.461538,4246.153846,4430.769230,4205.641025,4220.000000,4509.743589,4214.871794,4586.153846,4080.000000,4059.487179
116,4397.948717,4540.512820,4547.179487,4267.179487,4520.512820,4247.692307,4435.897435,4208.717948,4224.615384,4513.846153,4216.923076,4587.179487,4078.461538,4060.512820
117,4396.923076,4536.923076,4544.102564,4267.692307,4521.025641,4247.179487,4432.820512,4206.666666,4223.589743,4508.205128,4213.333333,4585.641025,4074.358974,4056.923076
118,4400.512820,4534.871794,4541.538461,4268.205128,4518.461538,4244.102564,4432.820512,4209.230769,4224.615384,4502.564102,4215.384615,4590.769230,4074.871794,4057.435897
119,4405.641025,4540.512820,4548.717948,4269.743589,4523.589743,4249.230769,4440.512820,4216.923076,4230.769230,4515.384615,4221.538461,4596.923076,4077.948717,4064.102564
120,4402.051282,4536.923076,4546.153846,4267.179487,4521.538461,4249.230769,4440.512820,4214.358974,4231.282051,4519.487179,4218.461538,4593.333333,4068.717948,4062.564102
121,4394.871794,4532.307692,4535.384615,4264.102564,4509.743589,4237.435897,4429.743589,4210.769230,4228.717948,4506.666666,4215.897435,4589.743589,4057.948717,4052.820512
122,4395.384615,4535.384615,4535.897435,4269.230769,4512.307692,4240.000000,4432.307692,4216.923076,4228.717948,4511.282051,4218.974358,4595.897435,4073.333333,4055.384615
123,4403.589743,4540.000000,4544.615384,4272.820512,4524.102564,4251.794871,4445.128205,4216.923076,4230.769230,4525.128205,4217.948717,4598.974358,4090.769230,4067.692307
124,4406.666666,4538.461538,4544.102564,4268.717948,4521.538461,4249.743589,4443.589743,4210.256410,4230.256410,4514.358974,4214.871794,4595.897435,4075.384615,4065.128205
125,4404.102564,4537.435897,4541.025641,4271.794871,4520.000000,4246.153846,4437.435897,4211.794871,4229.743589,4501.538461,4222.051282,4597.948717,4067.179487,4057.435897
126,4405.128205,4540.000000,4542.051282,4278.974358,4519.487179,4245.128205,4436.923076,4220.000000,4234.871794,4512.307692,4228.717948,4603.076923,4087.692307,4061.538461
127,4406.153846,4540.000000,4542.051282,4275.897435,4513.846153,4240.000000,4434.358974,4216.923076,4234.871794,4511.794871,4220.000000,4601.538461,4092.820512,4061.025641
128,4402.564102,4538.461538,4538.461538,4270.256410,4515.384615,4242.564102,4430.256410,4209.743589,4225.641025,4501.538461,4211.794871,4598.461538,4076.923076,4056.410256
129,4401.025641,4538.974358,4537.435897,4270.256410,4517.435897,4249.230769,4431.794871,4213.846153,4222.564102,4511.282051,4218.461538,4602.051282,4078.974358,4061.538461
130,4396.923076,4532.820512,4536.923076,4265.128205,4509.230769,4238.461538,4431.282051,4213.846153,4221.538461,4510.256410,4221.025641,4602.051282,4083.076923,4057.948717
131,4388.205128,4521.025641,4531.282051,4259.487179,4503.589743,4227.692307,4426.153846,4202.564102,4214.871794,4489.743589,4209.230769,4590.769230,4066.666666,4046.153846
132,4389.743589,4525.641025,4529.230769,4265.128205,4505.641025,4235.897435,4427.692307,4201.538461,4215.384615,4491.794871,4204.102564,4587.179487,4061.025641,4050.769230
133,4395.384615,4537.948717,4534.358974,4272.307692,4511.282051,4245.641025,4437.948717,4211.794871,4226.666666,4507.692307,4213.333333,4597.948717,4072.820512,4061.025641
134,4396.923076,4538.461538,4536.410256,4271.282051,4518.461538,4246.153846,4443.589743,4216.923076,4232.820512,4511.282051,4220.512820,4602.564102,4074.358974,4060.512820
135,4397.948717,4537.948717,4538.461538,4267.692307,4523.076923,4248.717948,4444.102564,4216.923076,4233.333333,4513.846153,4218.461538,4601.538461,4061.538461,4056.410256
136,4397.435897,4535.897435,4538.974358,4268.205128,4520.512820,4245.641025,4442.564102,4214.871794,4230.256410,4514.358974,4211.794871,4603.076923,4056.410256,4052.307692
137,4395.384615,4531.282051,4532.820512,4272.307692,4512.307692,4238.974358,4442.051282,4210.769230,4225.128205,4508.205128,4209.743589,4602.051282,4063.589743,4053.333333
138,4396.410256,4531.282051,4529.743589,4273.846153,4506.153846,4238.461538,4444.102564,4211.794871,4221.538461,4504.615384,4216.410256,4600.000000,4064.102564,4058.974358
139,4397.948717,4527.692307,4534.358974,4270.256410,4508.717948,4236.923076,4443.589743,4216.923076,4220.000000,4497.948717,4215.897435,4604.615384,4052.820512,4056.410256
140,4396.923076,4524.102564,4536.923076,4266.153846,4508.717948,4237.435897,4442.564102,4219.487179,4225.128205,4497.435897,4207.692307,4608.717948,4043.076923,4049.743589
141,4396.923076,4529.743589,4540.000000,4266.153846,4507.692307,4244.102564,4444.615384,4219.487179,4229.230769,4505.641025,4214.358974,4609.743589,4041.538461,4051.282051
142,4394.871794,4527.179487,4537.435897,4266.153846,4509.230769,4240.000000,4442.051282,4217.435897,4222.564102,4497.435897,4217.435897,4607.692307,4035.897435,4052.307692
143,4390.256410,4516.410256,4530.769230,4262.051282,4506.153846,4227.692307,4435.897435,4213.846153,4214.871794,4487.179487,4201.538461,4603.076923,4021.538461,4050.769230
144,4391.282051,4520.000000,4531.282051,4262.051282,4504.102564,4230.256410,4438.461538,4216.923076,4216.923076,4492.307692,4194.358974,4603.076923,4009.743589,4049.743589
145,4397.435897,4527.179487,4536.923076,4263.076923,4506.153846,4240.000000,4445.641025,4221.025641,4225.641025,4494.358974,4209.743589,4607.692307,4015.384615,4049.230769
146,4399.487179,4523.076923,4540.000000,4263.589743,4507.179487,4238.461538,4447.179487,4218.974358,4229.230769,4498.461538,4217.948717,4615.384615,4027.179487,4055.384615
147,4396.923076,4523.589743,4543.076923,4265.641025,4507.692307,4235.384615,4443.076923,4216.923076,4227.692307,4510.769230,4208.717948,4617.435897,4025.128205,4064.102564
148,4397.435897,4530.769230,4542.051282,4266.666666,4510.256410,4233.333333,4438.461538,4216.410256,4222.051282,4505.641025,4204.615384,4610.769230,4020.000000,4058.461538
149,4397.948717,4529.743589,4535.897435,4265.128205,4508.205128,4234.871794,4437.435897,4215.897435,4220.000000,4489.230769,4212.820512,4607.692307,4020.512820,4048.717948
150,4396.923076,4528.717948,4534.358974,4267.179487,4508.717948,4239.487179,4440.512820,4216.923076,4228.717948,4494.358974,4219.487179,4614.358974,4022.051282,4053.846153
151,4399.487179,4536.410256,4540.000000,4274.871794,4515.384615,4240.000000,4444.102564,4220.512820,4233.846153,4508.205128,4218.461538,4622.051282,4019.487179,4059.487179
152,4399.487179,4532.820512,4537.948717,4274.358974,4514.358974,4235.897435,4440.000000,4217.435897,4226.153846,4509.230769,4209.743589,4617.435897,4013.333333,4055.384615
153,4392.820512,4524.615384,4526.666666,4264.615384,4505.641025,4231.282051,4428.205128,4203.076923,4220.000000,4501.025641,4202.564102,4604.102564,4006.153846,4049.743589
154,4391.794871,4532.820512,4525.641025,4262.051282,4503.589743,4233.333333,4425.641025,4200.000000,4222.564102,4495.897435,4209.743589,4602.051282,4003.076923,4047.179487
155,4397.948717,4534.358974,4533.333333,4265.641025,4506.666666,4236.410256,4433.333333,4211.282051,4229.230769,4494.358974,4221.538461,4609.230769,4001.538461,4051.794871
156,4394.871794,4522.564102,4529.230769,4263.589743,4506.666666,4235.384615,4433.846153,4212.307692,4228.717948,4495.897435,4215.384615,4606.153846,3999.487180,4054.358974
157,4389.743589,4521.025641,4518.974358,4261.538461,4505.641025,4232.307692,4425.641025,4199.487179,4220.000000,4490.256410,4197.435897,4598.461538,4001.538461,4041.538461
158,4393.846153,4526.153846,4518.974358,4266.666666,4504.615384,4232.820512,4426.153846,4197.435897,4215.897435,4481.025641,4200.512820,4603.076923,3998.974359,4034.358974
159,4398.974358,4530.769230,4527.692307,4268.205128,4506.153846,4236.410256,4437.435897,4205.128205,4227.179487,4488.205128,4216.410256,4612.307692,3992.820513,4049.743589
160,4396.410256,4531.794871,4528.717948,4265.128205,4509.230769,4235.897435,4440.512820,4204.615384,4234.871794,4498.461538,4210.769230,4610.256410,3988.205129,4061.025641
161,4395.384615,4522.564102,4525.128205,4262.051282,4507.179487,4238.974358,4433.846153,4203.076923,4226.666666,4491.282051,4194.358974,4604.102564,3985.641026,4057.948717
162,4399.487179,4519.487179,4529.743589,4266.153846,4505.641025,4247.179487,4436.410256,4211.794871,4226.153846,4489.743589,4205.641025,4612.307692,3988.205129,4057.435897
163,4405.128205,4533.333333,4539.487179,4277.435897,4507.179487,4251.282051,4445.128205,4220.000000,4232.307692,4507.692307,4229.230769,4623.076923,3992.307693,4060.512820
164,4403.589743,4536.923076,4541.025641,4278.461538,4507.692307,4248.717948,4444.615384,4216.923076,4233.846153,4509.743589,4226.666666,4622.051282,3987.179488,4060.000000
165,4396.923076,4523.589743,4534.358974,4267.179487,4506.153846,4244.615384,4437.435897,4208.205128,4231.794871,4494.358974,4207.179487,4620.512820,3980.512821,4060.000000
166,4398.461538,4518.974358,4529.743589,4264.102564,4504.102564,4246.153846,4434.871794,4206.666666,4229.743589,4497.435897,4201.025641,4622.564102,3982.051283,4058.974358
167,4400.512820,4524.102564,4530.769230,4269.230769,4502.564102,4245.128205,4436.923076,4203.076923,4228.717948,4502.564102,4214.358974,4622.564102,3977.435898,4050.769230
168,4396.923076,4529.230769,4532.820512,4270.769230,4504.102564,4244.102564,4441.025641,4200.512820,4229.230769,4493.333333,4227.179487,4628.205128,3973.333334,4052.307692
169,4402.564102,4535.897435,4534.358974,4274.358974,4509.230769,4248.717948,4444.615384,4208.205128,4231.282051,4489.743589,4221.025641,4634.358974,3982.051283,4067.692307
170,4414.358974,4541.025641,4537.435897,4282.051282,4511.794871,4256.410256,4446.666666,4217.948717,4234.358974,4500.000000,4214.871794,4635.384615,3986.153847,4073.333333
171,4417.948717,4537.948717,4542.564102,4285.128205,4510.256410,4258.461538,4446.666666,4215.897435,4238.974358,4508.717948,4223.076923,4639.487179,3978.974359,4062.564102
172,4411.794871,4535.897435,4540.512820,4275.384615,4505.641025,4251.794871,4443.076923,4205.641025,4237.435897,4502.051282,4228.205128,4637.435897,3968.205129,4056.923076
173,4404.615384,4539.487179,4531.794871,4267.179487,4506.666666,4247.179487,4441.025641,4206.666666,4232.820512,4494.358974,4220.512820,4630.769230,3961.025642,4061.538461
174,4402.051282,4535.384615,4529.743589,4269.743589,4504.102564,4246.666666,4444.615384,4211.794871,4236.410256,4496.410256,4214.358974,4631.794871,3967.179488,4061.538461
175,4402.051282,4525.641025,4529.743589,4270.769230,4494.871794,4242.051282,4443.589743,4211.282051,4241.025641,4501.025641,4214.871794,4631.794871,3976.410257,4054.871794
176,4399.487179,4522.051282,4524.615384,4261.538461,4496.410256,4233.333333,4434.358974,4207.179487,4236.410256,4495.897435,4214.358974,4623.076923,3972.820513,4049.230769
177,4395.384615,4523.076923,4520.512820,4259.487179,4499.487179,4226.153846,4430.769230,4202.564102,4223.589743,4482.564102,4210.769230,4620.512820,3964.615385,4052.307692
178,4394.871794,4524.615384,4525.128205,4266.666666,4493.846153,4226.153846,4439.487179,4206.153846,4221.538461,4482.051282,4210.769230,4627.692307,3965.641026,4057.948717
179,4401.025641,4530.256410,4530.769230,4272.307692,4496.410256,4225.641025,4444.102564,4213.846153,4230.256410,4494.871794,4213.846153,4633.846153,3972.820513,4058.461538
180,4411.282051,4541.025641,4535.897435,4279.487179,4507.179487,4222.564102,4436.410256,4210.256410,4232.820512,4501.025641,4216.410256,4638.974358,3980.512821,4062.564102
181,4412.307692,4540.512820,4540.512820,4282.564102,4506.666666,4214.871794,4427.692307,4197.948717,4226.153846,4496.923076,4218.461538,4641.538461,3981.025642,4067.692307
182,4402.564102,4527.179487,4538.974358,4275.384615,4496.923076,4204.102564,4426.153846,4197.948717,4221.538461,4496.410256,4220.512820,4637.435897,3971.282052,4064.615384
183,4396.410256,4523.076923,4533.846153,4265.641025,4496.923076,4199.487179,4426.666666,4201.538461,4220.000000,4493.846153,4218.461538,4632.307692,3963.589744,4060.000000
184,4395.897435,4524.102564,4529.743589,4266.153846,4501.025641,4204.102564,4425.128205,4190.769230,4211.794871,4478.461538,4211.794871,4629.743589,3956.923077,4055.384615
185,4398.461538,4524.102564,4531.282051,4274.871794,4497.435897,4213.333333,4426.666666,4188.717948,4209.743589,4471.282051,4210.769230,4631.282051,3952.820513,4049.230769
186,4408.205128,4533.846153,4541.025641,4280.512820,4494.871794,4221.025641,4430.256410,4198.461538,4218.461538,4475.384615,4219.487179,4641.538461,3955.897436,4058.974358
187,4416.410256,4540.512820,4545.128205,4278.461538,4506.153846,4228.205128,4432.307692,4204.102564,4220.000000,4483.076923,4221.538461,4646.153846,3965.128206,4075.897435
188,4410.769230,4532.820512,4538.461538,4272.307692,4508.717948,4230.769230,4430.256410,4199.487179,4215.384615,4492.820512,4206.666666,4636.923076,3972.307693,4069.743589
189,4401.538461,4530.256410,4534.871794,4272.307692,4491.794871,4228.717948,4427.179487,4195.384615,4220.000000,4499.487179,4203.076923,4633.333333,3977.948718,4053.333333
190,4403.076923,4540.512820,4538.461538,4278.974358,4487.179487,4233.333333,4428.205128,4196.410256,4227.692307,4501.025641,4217.435897,4638.974358,3989.230770,4055.897435
191,4406.153846,4540.512820,4536.923076,4281.025641,4502.564102,4236.923076,4430.769230,4196.410256,4220.000000,4492.820512,4224.102564,4637.948717,3996.410257,4065.641025
192,4404.102564,4534.358974,4534.358974,4277.435897,4503.076923,4234.358974,4430.256410,4197.435897,4212.820512,4486.153846,4213.846153,4633.846153,3986.666667,4062.564102
193,4407.692307,4538.461538,4534.358974,4280.000000,4495.384615,4233.333333,4431.794871,4201.025641,4224.615384,4491.282051,4206.153846,4634.358974,3984.102565,4055.897435
194,4411.282051,4540.512820,4530.256410,4280.512820,4503.589743,4234.871794,4433.333333,4201.538461,4233.846153,4496.923076,4211.794871,4635.384615,3996.923077,4057.948717
195,4406.153846,4527.692307,4528.205128,4269.230769,4506.666666,4232.820512,4429.743589,4198.461538,4224.102564,4489.743589,4218.461538,4635.384615,4000.512820,4062.564102
196,4404.102564,4526.153846,4532.820512,4268.717948,4493.333333,4232.820512,4428.717948,4199.487179,4222.051282,4489.230769,4222.564102,4637.435897,3997.435898,4068.205128
197,4404.102564,4534.871794,4534.358974,4275.897435,4490.769230,4233.333333,4431.794871,4202.564102,4230.769230,4498.974358,4218.461538,4637.948717,3998.974359,4065.128205
198,4395.384615,4528.205128,4529.743589,4268.717948,4496.410256,4226.153846,4427.692307,4194.871794,4227.179487,4495.897435,4206.666666,4632.820512,3997.435898,4054.358974
199,4387.179487,4517.948717,4524.102564,4258.974358,4490.769230,4222.564102,4421.025641,4186.666666,4213.333333,4479.487179,4205.128205,4623.076923,3988.717949,4049.230769
200,4386.666666,4516.923076,4521.538461,4258.974358,4488.205128,4225.128205,4423.589743,4183.589743,4204.615384,4471.794871,4208.717948,4616.923076,3973.333334,4050.256410
201,4389.230769,4516.410256,4520.512820,4262.051282,4490.769230,4227.692307,4420.512820,4181.025641,4200.512820,4474.358974,4198.974358,4622.051282,3966.666667,4048.717948
202,4395.384615,4521.025641,4526.153846,4266.666666,4488.205128,4228.205128,4413.846153,4180.512820,4206.153846,4473.333333,4195.897435,4630.769230,3974.871795,4049.743589
203,4398.974358,4525.641025,4530.769230,4271.282051,4488.717948,4224.615384,4420.000000,4183.589743,4216.923076,4473.333333,4215.384615,4631.794871,3980.512821,4052.820512
204,4397.435897,4525.128205,4528.717948,4271.282051,4496.410256,4223.589743,4429.230769,4190.769230,4216.410256,4486.666666,4219.487179,4630.256410,3972.820513,4054.358974
205,4402.564102,4530.769230,4530.769230,4274.358974,4504.102564,4230.256410,4427.692307,4198.461538,4214.871794,4502.564102,4203.076923,4638.461538,3969.743590,4062.564102
206,4410.769230,4534.871794,4536.923076,4278.974358,4507.179487,4235.384615,4426.666666,4202.051282,4218.974358,4505.128205,4203.589743,4647.692307,3975.384616,4070.256410
207,4413.333333,4532.820512,4534.871794,4280.000000,4507.692307,4232.307692,4428.717948,4201.025641,4218.461538,4501.025641,4215.897435,4644.615384,3980.000000,4068.205128
208,4412.307692,4536.923076,4531.794871,4276.923076,4508.717948,4232.307692,4427.179487,4202.564102,4217.948717,4505.128205,4216.410256,4636.923076,3977.948718,4064.615384
209,4406.153846,4537.435897,4533.333333,4267.692307,4509.230769,4232.820512,4424.102564,4201.538461,4218.974358,4510.256410,4203.589743,4636.923076,3973.846154,4065.641025
210,4402.051282,4529.230769,4533.846153,4263.076923,4507.692307,4231.282051,4422.051282,4197.948717,4217.948717,4507.179487,4197.948717,4641.538461,3983.076924,4069.743589
211,4404.102564,4525.641025,4533.333333,4265.641025,4508.717948,4233.333333,4417.948717,4198.461538,4217.948717,4510.256410,4200.512820,4643.076923,3988.205129,4067.179487
212,4399.487179,4523.589743,4534.358974,4263.589743,4508.205128,4230.769230,4416.410256,4197.435897,4216.923076,4516.410256,4201.538461,4640.000000,3974.358975,4058.461538
213,4399.487179,4523.076923,4535.897435,4262.564102,4503.589743,4230.256410,4423.076923,4197.435897,4213.846153,4514.358974,4201.538461,4642.051282,3970.256411,4065.641025
214,4405.641025,4524.615384,4542.051282,4266.666666,4510.769230,4241.538461,4433.846153,4206.153846,4220.512820,4513.333333,4203.076923,4647.692307,3980.000000,4076.923076
215,4402.051282,4524.615384,4543.589743,4265.641025,4521.025641,4250.769230,4436.923076,4212.307692,4230.769230,4520.000000,4201.538461,4644.102564,3981.025642,4067.179487
216,4395.384615,4526.666666,4537.948717,4261.538461,4516.410256,4247.692307,4432.820512,4207.692307,4227.692307,4525.641025,4201.538461,4637.435897,3973.333334,4054.871794
217,4394.358974,4526.153846,4538.974358,4260.512820,4509.230769,4244.615384,4429.743589,4199.487179,4216.923076,4518.974358,4204.102564,4637.435897,3969.743590,4057.435897
218,4392.307692,4523.589743,4540.512820,4263.076923,4509.743589,4246.153846,4427.179487,4190.769230,4211.794871,4509.230769,4197.435897,4635.384615,3972.307693,4060.000000
219,4393.333333,4523.076923,4537.435897,4265.128205,4513.846153,4246.153846,4425.641025,4186.666666,4212.820512,4515.897435,4193.333333,4633.846153,3972.307693,4058.461538
220,4397.948717,4521.538461,4537.435897,4263.589743,4516.410256,4245.641025,4423.076923,4190.769230,4213.333333,4528.205128,4198.974358,4638.461538,3967.692308,4056.923076
221,4397.435897,4526.666666,4542.051282,4262.564102,4517.435897,4249.230769,4430.256410,4198.974358,4218.461538,4527.692307,4204.615384,4643.076923,3970.769231,4055.897435
222,4396.923076,4537.435897,4545.128205,4265.128205,4519.487179,4254.871794,4444.102564,4210.769230,4231.794871,4524.102564,4210.256410,4649.230769,3980.000000,4064.615384
223,4396.923076,4530.769230,4541.538461,4266.153846,4517.948717,4253.333333,4442.051282,4214.358974,4232.820512,4529.743589,4207.692307,4652.307692,3976.410257,4068.717948
224,4395.897435,4522.564102,4538.974358,4264.615384,4509.743589,4246.153846,4428.717948,4207.179487,4224.102564,4526.666666,4202.051282,4644.615384,3969.230770,4064.102564
225,4396.923076,4536.923076,4538.974358,4264.615384,4505.128205,4244.615384,4425.641025,4203.589743,4225.641025,4516.923076,4205.128205,4643.589743,3976.923077,4065.128205
226,4397.948717,4539.487179,4536.410256,4264.102564,4508.717948,4247.692307,4428.205128,4205.128205,4233.846153,4527.179487,4208.205128,4647.692307,3978.461539,4064.102564
227,4395.897435,4527.179487,4535.384615,4263.589743,4510.769230,4250.769230,4427.692307,4207.179487,4234.358974,4543.076923,4209.743589,4647.179487,3969.743590,4061.538461
228,4396.410256,4531.282051,4541.538461,4262.564102,4511.794871,4255.384615,4430.256410,4213.846153,4234.871794,4538.974358,4215.384615,4647.692307,3975.384616,4066.153846
229,4396.410256,4534.871794,4541.025641,4264.615384,4512.307692,4255.384615,4432.307692,4212.820512,4234.871794,4525.641025,4211.282051,4649.230769,3982.051283,4063.589743
230,4391.794871,4521.538461,4532.307692,4263.589743,4508.717948,4247.692307,4428.717948,4199.487179,4229.230769,4522.051282,4197.435897,4639.487179,3975.384616,4052.820512
231,4390.256410,4519.487179,4531.794871,4254.358974,4508.717948,4247.179487,4428.205128,4196.410256,4223.076923,4520.000000,4199.487179,4629.743589,3966.153847,4051.794871
232,4392.820512,4529.230769,4532.820512,4254.871794,4509.743589,4251.282051,4428.205128,4202.051282,4218.461538,4515.897435,4205.128205,4631.794871,3961.025642,4057.948717
233,4392.820512,4526.153846,4528.205128,4262.564102,4506.666666,4242.564102,4423.076923,4198.461538,4215.384615,4512.307692,4196.410256,4631.282051,3956.410257,4056.410256
234,4397.948717,4521.538461,4531.794871,4262.564102,4508.717948,4233.333333,4421.538461,4197.435897,4221.538461,4511.282051,4195.897435,4632.307692,3961.025642,4056.923076
235,4404.102564,4532.307692,4541.025641,4260.512820,4514.871794,4238.461538,4426.153846,4201.025641,4232.307692,4523.076923,4212.820512,4642.051282,3966.666667,4067.179487
236,4399.487179,4537.435897,4540.000000,4261.538461,4513.333333,4239.487179,4428.717948,4202.051282,4228.717948,4533.846153,4218.974358,4645.641025,3962.051283,4069.743589
237,4395.384615,4532.307692,4533.333333,4265.641025,4513.846153,4234.358974,4427.179487,4200.000000,4224.615384,4530.256410,4207.692307,4643.076923,3969.230770,4064.102564
238,4398.974358,4529.230769,4533.333333,4267.179487,4521.025641,4231.282051,4427.692307,4199.487179,4228.717948,4520.512820,4201.025641,4644.102564,3978.461539,4062.564102
239,4396.410256,4531.282051,4534.358974,4265.641025,4513.846153,4224.102564,4426.153846,4198.461538,4225.641025,4515.384615,4202.051282,4638.974358,3970.256411,4061.025641
240,4394.871794,4537.435897,4536.410256,4265.641025,4499.487179,4221.538461,4426.153846,4201.025641,4222.564102,4517.435897,4207.179487,4632.820512,3971.794872,4060.000000
241,4400.000000,4537.435897,4538.974358,4268.717948,4509.743589,4233.333333,4434.871794,4214.358974,4233.333333,4524.615384,4211.282051,4641.025641,3987.692308,4063.076923
242,4398.461538,4529.743589,4536.923076,4268.717948,4528.205128,4238.461538,4436.923076,4221.025641,4242.564102,4524.615384,4207.179487,4646.666666,3993.846154,4063.589743
243,4401.025641,4533.846153,4540.512820,4269.230769,4523.076923,4225.128205,4428.205128,4207.692307,4234.358974,4521.025641,4206.153846,4646.666666,4001.538461,4065.128205
244,4411.282051,4540.000000,4548.205128,4271.794871,4508.205128,4211.282051,4423.589743,4197.435897,4225.128205,4521.538461,4217.435897,4653.333333,4013.333333,4075.897435
245,4413.846153,4532.820512,4547.692307,4267.692307,4502.564102,4205.128205,4426.153846,4201.538461,4221.025641,4513.333333,4221.538461,4655.897435,4006.666666,4076.923076
246,4410.256410,4529.743589,4545.641025,4263.076923,4507.692307,4205.128205,4427.179487,4200.512820,4216.410256,4503.076923,4214.871794,4652.307692,4001.538461,4066.666666
247,4407.179487,4531.282051,4547.179487,4263.589743,4509.743589,4205.128205,4427.692307,4195.384615,4218.461538,4510.769230,4216.923076,4650.256410,4011.794871,4066.153846
248,4402.051282,4524.102564,4542.051282,4264.102564,4503.589743,4201.538461,4428.205128,4201.025641,4227.692307,4521.538461,4218.461538,4649.230769,4008.205128,4069.230769
249,4395.897435,4521.025641,4535.897435,4262.564102,4502.051282,4202.051282,4428.205128,4208.205128,4228.205128,4516.923076,4209.743589,4642.564102,3993.846154,4063.589743
250,4394.358974,4521.025641,4533.846153,4259.487179,4504.615384,4202.051282,4426.666666,4202.564102,4218.974358,4503.589743,4197.948717,4635.897435,3987.692308,4056.923076
251,4395.897435,4518.461538,4535.384615,4260.000000,4504.102564,4200.000000,4428.205128,4198.974358,4213.846153,4497.435897,4196.923076,4637.948717,3987.179488,4057.435897
252,4399.487179,4524.102564,4536.923076,4264.102564,4505.641025,4202.051282,4436.410256,4204.615384,4220.512820,4506.666666,4212.307692,4646.153846,3986.666667,4061.025641
253,4397.948717,4526.666666,4532.820512,4264.615384,4507.179487,4201.538461,4437.948717,4204.615384,4226.153846,4515.384615,4222.051282,4647.692307,3989.230770,4060.000000
254,4394.358974,4523.076923,4528.205128,4261.025641,4504.615384,4197.435897,4430.256410,4196.410256,4223.076923,4512.820512,4208.205128,4640.000000,3987.692308,4062.051282
255,4402.051282,4529.230769,4535.384615,4263.589743,4503.589743,4196.923076,4427.179487,4201.025641,4222.564102,4515.384615,4204.615384,4640.000000,3980.512821,4067.692307
256,4413.333333,4538.974358,4542.051282,4272.820512,4506.666666,4200.000000,4434.358974,4214.358974,4235.897435,4524.102564,4225.128205,4649.230769,3983.076924,4068.205128
257,4415.384615,4541.025641,4538.974358,4273.333333,4509.230769,4200.000000,4437.435897,4220.512820,4245.641025,4520.000000,4233.846153,4655.384615,3993.333334,4070.256410
258,4410.769230,4536.923076,4539.487179,4265.128205,4506.666666,4199.487179,4432.307692,4215.384615,4235.897435,4508.205128,4217.435897,4655.897435,3993.846154,4074.358974
259,4406.666666,4529.743589,4538.974358,4260.000000,4503.076923,4198.974358,4430.769230,4205.641025,4223.589743,4503.076923,4205.128205,4646.666666,3980.000000,4068.717948
