,AF3,F7,F3,FC5,T7,P7,O1,O2,P8,T8,FC6,F4,F8,AF4
0,4343.589743,4163.589743,4564.102564,4208.717948,4523.076923,4070.256410,4493.333333,4100.512820,4178.461538,4421.538461,4124.102564,4467.692307,3892.820513,3909.230770
1,4334.871794,4155.384615,4555.384615,4200.512820,4520.000000,4073.333333,4487.692307,4089.743589,4171.282051,4411.282051,4110.256410,4458.974358,3887.692308,3898.974359
2,4321.538461,4144.102564,4550.769230,4187.692307,4516.410256,4071.282051,4482.051282,4084.102564,4161.025641,4398.461538,4094.358974,4448.717948,3879.487180,3893.333334
3,4318.974358,4146.153846,4545.128205,4185.128205,4519.487179,4070.769230,4477.948717,4077.435897,4153.333333,4392.820512,4089.743589,4443.589743,3876.410257,3885.128206
4,4327.692307,4156.410256,4548.205128,4197.948717,4523.076923,4074.871794,4482.564102,4083.589743,4163.589743,4407.179487,4103.589743,4452.820512,3888.205129,3888.717949
5,4332.820512,4162.051282,4557.435897,4206.153846,4524.102564,4078.974358,4490.256410,4093.846153,4177.435897,4418.461538,4115.384615,4458.974358,3898.974359,3899.487180
6,4335.384615,4165.128205,4558.974358,4202.564102,4530.256410,4083.076923,4489.743589,4095.384615,4176.923076,4415.384615,4114.871794,4454.358974,3900.512821,3902.564103
7,4340.512820,4173.333333,4557.948717,4203.076923,4539.487179,4090.256410,4491.794871,4100.000000,4180.000000,4423.076923,4117.948717,4454.871794,3904.615385,3903.076924
8,4339.487179,4179.487179,4560.000000,4206.153846,4541.025641,4092.307692,4494.871794,4102.564102,4187.179487,4430.769230,4123.589743,4458.461538,3906.666667,3901.538462
9,4331.282051,4177.948717,4551.794871,4201.025641,4535.897435,4085.128205,4489.743589,4088.205128,4178.974358,4420.512820,4116.410256,4450.769230,3894.871795,3891.282052
10,4324.102564,4172.307692,4541.538461,4196.923076,4537.948717,4082.051282,4482.051282,4076.923076,4165.641025,4412.820512,4101.538461,4439.487179,3885.641026,3884.615385
11,4318.461538,4165.128205,4540.000000,4197.948717,4536.410256,4082.051282,4477.948717,4072.307692,4161.025641,4410.769230,4094.358974,4436.923076,3885.128206,3886.153847
12,4318.974358,4168.205128,4541.025641,4196.410256,4527.179487,4079.487179,4476.923076,4071.794871,4167.692307,4407.179487,4101.025641,4440.512820,3893.333334,3885.641026
13,4326.153846,4177.435897,4545.128205,4194.871794,4533.333333,4083.589743,4483.076923,4083.076923,4174.871794,4412.307692,4112.307692,4446.666666,3905.128206,3887.179488
14,4330.769230,4172.307692,4550.769230,4196.923076,4537.948717,4085.641025,4488.205128,4092.307692,4173.333333,4421.538461,4114.871794,4452.307692,3914.871795,3893.333334
15,4329.743589,4160.000000,4553.846153,4201.538461,4527.692307,4077.948717,4483.589743,4092.307692,4169.230769,4421.538461,4113.846153,4453.333333,3919.487180,3897.948718
16,4326.153846,4161.025641,4553.333333,4205.641025,4527.179487,4076.923076,4481.025641,4089.230769,4167.179487,4415.897435,4115.897435,4453.333333,3916.923077,3898.461539
17,4329.230769,4168.205128,4551.282051,4205.128205,4529.743589,4081.538461,4486.153846,4085.641025,4166.666666,4416.923076,4118.461538,4454.358974,3912.820513,3896.923077
18,4330.769230,4163.589743,4548.205128,4201.538461,4524.615384,4077.948717,4488.717948,4080.512820,4163.076923,4416.410256,4112.307692,4451.282051,3910.256411,3893.846154
19,4325.641025,4156.923076,4547.179487,4198.974358,4526.153846,4075.897435,4485.128205,4076.923076,4154.871794,4405.128205,4096.923076,4444.102564,3904.615385,3889.743590
20,4326.153846,4159.487179,4552.820512,4201.025641,4530.769230,4082.564102,4484.102564,4082.564102,4158.974358,4403.589743,4095.897435,4445.128205,3900.512821,3890.256411
21,4330.256410,4165.128205,4555.897435,4206.666666,4529.743589,4085.128205,4486.153846,4089.230769,4169.743589,4413.846153,4104.102564,4454.358974,3903.589744,3890.256411
22,4330.769230,4167.692307,4555.384615,4210.769230,4530.256410,4084.102564,4491.794871,4093.846153,4168.717948,4414.358974,4101.025641,4455.897435,3908.205129,3890.769231
23,4330.769230,4170.256410,4554.871794,4206.153846,4534.358974,4085.641025,4493.846153,4092.820512,4166.666666,4411.794871,4100.000000,4453.846153,3909.230770,3894.358975
24,4331.794871,4167.179487,4553.333333,4200.512820,4531.794871,4086.666666,4489.230769,4086.153846,4169.230769,4414.871794,4110.256410,4454.358974,3905.641026,3892.307693
25,4331.282051,4162.564102,4549.743589,4202.051282,4527.179487,4086.666666,4490.256410,4082.051282,4162.051282,4413.333333,4113.846153,4455.384615,3904.615385,3888.717949
26,4331.794871,4166.666666,4548.717948,4200.512820,4530.256410,4085.128205,4495.897435,4093.333333,4163.076923,4412.820512,4113.333333,4455.384615,3908.205129,3890.769231
27,4328.717948,4170.256410,4549.743589,4198.974358,4534.358974,4083.589743,4494.358974,4102.564102,4175.384615,4415.897435,4112.307692,4452.307692,3901.538462,3888.717949
28,4325.128205,4168.717948,4546.153846,4203.589743,4534.358974,4085.641025,4492.820512,4097.948717,4177.435897,4414.871794,4105.128205,4447.692307,3893.333334,3883.589744
29,4325.641025,4169.230769,4540.000000,4203.589743,4530.769230,4087.692307,4496.923076,4093.846153,4169.743589,4411.794871,4099.487179,4445.128205,3901.025642,3884.102565
30,4320.000000,4166.666666,4536.923076,4196.923076,4531.794871,4083.589743,4495.384615,4092.820512,4167.179487,4408.717948,4098.974358,4441.538461,3900.512821,3879.487180
31,4317.948717,4166.153846,4542.564102,4203.076923,4534.358974,4084.102564,4494.358974,4095.897435,4172.307692,4409.230769,4101.538461,4440.000000,3890.256411,3875.384616
32,4328.717948,4177.435897,4551.282051,4211.794871,4536.410256,4093.333333,4502.051282,4105.128205,4178.461538,4420.512820,4108.205128,4448.205128,3898.461539,3885.128206
33,4330.769230,4183.076923,4548.717948,4205.641025,4537.435897,4092.820512,4501.538461,4107.179487,4173.333333,4425.128205,4116.923076,4452.307692,3910.769231,3889.230770
34,4321.025641,4172.820512,4539.487179,4196.923076,4536.410256,4086.153846,4494.871794,4100.000000,4170.769230,4417.948717,4114.871794,4443.589743,3904.102565,3882.564103
35,4321.025641,4162.564102,4537.948717,4198.974358,4532.820512,4084.615384,4494.871794,4095.897435,4178.461538,4417.948717,4106.153846,4443.589743,3894.871795,3883.076924
36,4327.692307,4164.102564,4543.589743,4202.564102,4524.102564,4081.538461,4493.846153,4092.820512,4170.769230,4420.000000,4106.666666,4447.692307,3893.846154,3886.153847
37,4329.230769,4172.820512,4549.230769,4197.948717,4524.102564,4077.435897,4491.794871,4091.282051,4158.974358,4411.794871,4117.948717,4448.205128,3896.923077,3885.641026
38,4328.205128,4176.923076,4550.256410,4196.923076,4531.794871,4081.538461,4494.358974,4094.358974,4168.205128,4409.743589,4118.461538,4448.205128,3898.974359,3888.205129
39,4326.666666,4170.256410,4544.102564,4205.128205,4536.923076,4086.153846,4492.307692,4093.333333,4172.820512,4415.897435,4106.666666,4446.666666,3892.307693,3890.256411
40,4321.538461,4163.589743,4540.000000,4208.717948,4533.333333,4081.025641,4487.692307,4091.282051,4165.641025,4411.282051,4102.051282,4440.512820,3882.564103,3883.589744
41,4315.384615,4159.487179,4538.974358,4201.025641,4527.692307,4077.948717,4486.153846,4090.769230,4163.589743,4403.076923,4098.461538,4435.384615,3877.948718,3876.410257
42,4314.358974,4156.410256,4536.410256,4195.897435,4526.666666,4081.538461,4487.692307,4089.743589,4163.076923,4409.743589,4098.461538,4436.923076,3878.974359,3877.435898
43,4316.410256,4157.435897,4535.384615,4198.974358,4527.692307,4086.153846,4491.794871,4090.769230,4167.179487,4415.897435,4103.076923,4440.512820,3884.615385,3883.589744
44,4318.974358,4162.564102,4537.435897,4201.538461,4532.307692,4086.153846,4494.871794,4098.461538,4175.897435,4415.384615,4097.435897,4441.025641,3885.128206,3886.153847
45,4316.410256,4163.589743,4535.384615,4198.461538,4532.820512,4084.102564,4491.794871,4104.102564,4178.974358,4420.000000,4096.923076,4438.974358,3880.512821,3882.564103
46,4319.487179,4163.589743,4538.974358,4201.538461,4529.743589,4087.692307,4491.794871,4104.615384,4182.051282,4422.564102,4113.333333,4444.615384,3886.153847,3887.692308
47,4330.769230,4166.153846,4551.282051,4209.743589,4528.205128,4091.282051,4497.948717,4107.179487,4184.615384,4418.974358,4123.589743,4453.333333,3893.846154,3898.974359
48,4335.897435,4170.769230,4553.846153,4208.717948,4528.205128,4090.769230,4498.974358,4108.717948,4179.487179,4420.000000,4113.846153,4452.307692,3888.717949,3903.076924
49,4328.717948,4174.358974,4543.589743,4206.153846,4530.769230,4088.205128,4492.820512,4100.512820,4172.307692,4417.948717,4106.153846,4443.076923,3881.538462,3895.897436
50,4319.487179,4174.871794,4533.846153,4210.769230,4531.282051,4082.051282,4484.615384,4089.743589,4163.076923,4406.666666,4100.000000,4431.794871,3880.512821,3885.128206
51,4316.923076,4176.410256,4529.743589,4210.256410,4527.692307,4078.974358,4481.538461,4090.769230,4158.461538,4401.538461,4089.743589,4428.205128,3872.820513,3883.076924
52,4315.384615,4172.307692,4527.179487,4197.435897,4526.666666,4080.512820,4484.615384,4090.256410,4160.000000,4400.000000,4080.000000,4425.641025,3858.974359,3880.000000
53,4308.205128,4164.102564,4523.589743,4191.282051,4530.256410,4077.948717,4483.076923,4079.487179,4151.282051,4393.846153,4076.410256,4417.435897,3853.333334,3871.794872
54,4304.615384,4161.538461,4521.025641,4196.410256,4526.153846,4073.846153,4478.974358,4073.333333,4137.435897,4389.743589,4081.025641,4413.333333,3854.871795,3869.230770
55,4304.615384,4161.538461,4519.487179,4198.974358,4520.000000,4076.410256,4480.000000,4074.358974,4135.897435,4385.128205,4083.076923,4414.871794,3852.307693,3869.230770
56,4304.615384,4160.000000,4520.512820,4197.435897,4524.615384,4081.025641,4487.179487,4081.025641,4147.692307,4388.717948,4085.641025,4415.384615,3849.743590,3870.256411
57,4311.282051,4167.179487,4527.692307,4199.487179,4529.230769,4084.615384,4495.897435,4094.871794,4161.538461,4403.589743,4093.333333,4420.512820,3860.000000,3881.025642
58,4320.000000,4174.358974,4534.871794,4203.076923,4530.256410,4087.179487,4498.461538,4101.025641,4168.205128,4411.794871,4099.487179,4431.282051,3873.846154,3891.794872
59,4316.410256,4167.692307,4530.256410,4201.538461,4526.666666,4084.102564,4492.820512,4093.846153,4166.153846,4407.692307,4105.128205,4432.820512,3870.769231,3890.256411
60,4305.128205,4165.641025,4523.076923,4196.923076,4523.076923,4082.051282,4487.692307,4090.769230,4160.000000,4404.102564,4104.615384,4425.128205,3858.461539,3886.153847
61,4301.538461,4174.358974,4518.974358,4191.282051,4523.589743,4080.512820,4483.589743,4090.256410,4155.384615,4399.487179,4087.692307,4414.871794,3853.846154,3879.487180
62,4300.000000,4174.358974,4513.333333,4184.615384,4522.051282,4071.794871,4478.974358,4081.538461,4148.717948,4388.717948,4069.230769,4406.153846,3847.179488,3869.743590
63,4299.487179,4171.282051,4511.282051,4183.589743,4519.487179,4067.692307,4477.435897,4073.333333,4141.538461,4381.538461,4069.743589,4405.641025,3837.435898,3867.692308
64,4303.076923,4177.948717,4513.846153,4190.256410,4522.564102,4074.358974,4478.461538,4078.974358,4143.589743,4386.666666,4075.897435,4411.282051,3841.538462,3874.871795
65,4306.666666,4185.128205,4517.435897,4197.435897,4526.153846,4077.948717,4482.564102,4086.153846,4150.769230,4397.435897,4083.076923,4412.307692,3853.333334,3881.025642
66,4311.282051,4187.692307,4522.051282,4197.948717,4526.666666,4076.410256,4481.538461,4085.641025,4155.897435,4405.128205,4093.333333,4413.333333,3863.076924,3885.128206
67,4317.948717,4188.717948,4525.641025,4202.051282,4530.769230,4080.512820,4477.948717,4085.641025,4165.128205,4411.282051,4094.358974,4419.487179,3870.769231,3887.179488
68,4322.564102,4191.794871,4524.615384,4208.205128,4532.307692,4085.128205,4481.025641,4090.769230,4173.846153,4416.923076,4094.871794,4422.051282,3873.846154,3893.333334
69,4322.564102,4200.000000,4527.179487,4210.769230,4533.333333,4085.128205,4483.076923,4095.384615,4171.282051,4416.410256,4107.692307,4420.512820,3870.769231,3901.538462
70,4318.974358,4200.512820,4526.153846,4212.307692,4535.384615,4081.538461,4475.897435,4087.692307,4162.051282,4407.179487,4109.230769,4418.974358,3866.153847,3894.871795
71,4312.820512,4192.820512,4515.384615,4209.230769,4529.743589,4076.923076,4471.282051,4072.820512,4149.230769,4397.948717,4085.641025,4411.794871,3861.538462,3883.076924
72,4308.717948,4194.358974,4514.358974,4208.717948,4527.692307,4075.897435,4473.846153,4069.230769,4143.589743,4395.384615,4069.230769,4405.128205,3856.410257,3882.051283
73,4311.794871,4198.461538,4517.948717,4212.820512,4532.307692,4078.461538,4476.410256,4078.461538,4151.794871,4396.923076,4081.025641,4407.692307,3853.846154,3884.615385
74,4312.820512,4195.897435,4513.333333,4208.717948,4532.307692,4081.538461,4478.461538,4083.589743,4157.435897,4397.948717,4095.384615,4409.230769,3851.794872,3882.564103
75,4311.282051,4195.897435,4513.846153,4204.615384,4528.717948,4083.076923,4480.512820,4084.615384,4156.410256,4400.000000,4098.974358,4406.666666,3852.307693,3883.589744
76,4316.410256,4199.487179,4521.025641,4212.820512,4528.205128,4084.615384,4483.076923,4092.307692,4162.051282,4410.769230,4102.564102,4411.794871,3857.948718,3889.230770
77,4316.923076,4197.435897,4520.000000,4210.769230,4528.717948,4085.641025,4481.025641,4095.384615,4169.743589,4417.948717,4104.615384,4415.897435,3860.512821,3891.282052
78,4307.692307,4195.384615,4517.435897,4196.410256,4530.256410,4083.076923,4478.461538,4092.820512,4167.692307,4411.282051,4098.461538,4411.794871,3857.948718,3890.769231
79,4304.102564,4194.358974,4516.410256,4197.435897,4530.769230,4077.948717,4474.871794,4089.230769,4160.512820,4403.076923,4097.948717,4406.153846,3857.435898,3887.692308
80,4305.641025,4188.717948,4514.358974,4207.179487,4523.589743,4071.282051,4467.692307,4082.051282,4151.794871,4402.051282,4101.538461,4405.128205,3856.923077,3886.153847
81,4307.179487,4186.153846,4515.384615,4209.230769,4518.461538,4067.692307,4463.589743,4075.384615,4147.692307,4401.538461,4094.358974,4405.641025,3854.358975,3888.205129
82,4306.666666,4189.230769,4514.358974,4201.025641,4526.153846,4069.743589,4466.153846,4077.948717,4152.307692,4397.948717,4084.615384,4399.487179,3854.871795,3887.692308
83,4305.641025,4190.256410,4510.769230,4194.871794,4533.846153,4073.846153,4471.794871,4086.666666,4160.000000,4400.512820,4089.743589,4395.384615,3855.384616,3885.641026
84,4309.743589,4192.307692,4516.923076,4199.487179,4532.820512,4076.923076,4472.820512,4092.820512,4162.564102,4408.205128,4105.641025,4403.076923,3857.948718,3894.358975
85,4316.923076,4197.948717,4524.615384,4203.589743,4529.743589,4074.871794,4469.230769,4092.307692,4156.923076,4409.743589,4108.205128,4413.333333,3868.205129,3907.179488
86,4313.846153,4196.923076,4518.974358,4200.000000,4529.230769,4068.205128,4464.102564,4085.641025,4151.282051,4402.564102,4096.923076,4407.692307,3872.307693,3903.589744
87,4310.256410,4195.384615,4516.410256,4200.512820,4523.076923,4063.076923,4464.615384,4084.102564,4155.384615,4402.564102,4099.487179,4402.564102,3867.179488,3898.461539
88,4319.487179,4202.051282,4524.615384,4207.692307,4520.000000,4068.205128,4471.282051,4092.307692,4165.641025,4414.871794,4115.897435,4412.307692,3872.307693,3909.743590
89,4321.538461,4201.538461,4528.205128,4208.205128,4527.179487,4074.358974,4472.307692,4093.333333,4165.641025,4415.897435,4118.974358,4414.358974,3876.410257,3914.871795
90,4313.846153,4192.820512,4522.051282,4204.615384,4528.205128,4072.820512,4470.256410,4087.179487,4158.461538,4403.076923,4108.717948,4406.666666,3868.717949,3906.666667
91,4313.846153,4195.384615,4520.512820,4207.692307,4527.692307,4070.769230,4469.230769,4090.769230,4157.948717,4402.051282,4100.512820,4407.692307,3865.641026,3905.641026
92,4316.410256,4198.974358,4525.128205,4208.717948,4527.692307,4069.743589,4465.641025,4090.769230,4156.410256,4405.128205,4092.820512,4410.256410,3862.564103,3907.692308
93,4312.820512,4191.282051,4522.564102,4201.538461,4522.564102,4066.666666,4463.589743,4084.615384,4152.307692,4398.461538,4093.846153,4405.128205,3853.846154,3901.538462
94,4311.282051,4186.153846,4519.487179,4198.974358,4523.076923,4067.179487,4465.641025,4085.641025,4156.923076,4398.461538,4102.564102,4402.564102,3852.307693,3900.000000
95,4313.333333,4190.769230,4523.076923,4201.538461,4526.153846,4068.205128,4467.179487,4090.256410,4160.000000,4409.230769,4101.538461,4404.102564,3862.564103,3907.692308
96,4320.512820,4193.333333,4530.769230,4200.512820,4522.564102,4070.256410,4470.256410,4096.410256,4162.564102,4417.948717,4102.051282,4408.717948,3870.769231,3917.435898
97,4328.717948,4194.871794,4540.000000,4202.564102,4525.641025,4076.410256,4476.410256,4107.692307,4173.846153,4424.615384,4118.461538,4417.948717,3874.358975,3923.589744
98,4324.102564,4191.794871,4538.461538,4206.666666,4535.384615,4077.435897,4476.410256,4109.230769,4172.307692,4418.974358,4122.051282,4416.410256,3870.256411,3918.974359
99,4313.846153,4187.692307,4528.205128,4203.076923,4527.179487,4071.282051,4476.923076,4100.512820,4158.461538,4406.153846,4112.307692,4409.230769,3859.487180,3912.820513
100,4313.846153,4191.794871,4525.128205,4205.128205,4521.025641,4071.794871,4481.538461,4103.076923,4161.538461,4407.692307,4109.230769,4409.743589,3857.435898,3913.846154
101,4314.871794,4193.846153,4526.153846,4213.846153,4530.769230,4075.897435,4480.000000,4104.615384,4166.666666,4409.743589,4098.974358,4411.282051,3856.923077,3910.256411
102,4312.307692,4189.743589,4522.051282,4208.205128,4532.307692,4073.333333,4475.897435,4097.948717,4161.538461,4405.128205,4094.358974,4408.717948,3851.794872,3904.615385
103,4312.307692,4189.743589,4526.666666,4203.076923,4529.230769,4076.923076,4480.000000,4101.025641,4162.051282,4410.256410,4110.256410,4409.230769,3853.333334,3910.256411
104,4312.820512,4193.333333,4534.871794,4211.794871,4533.333333,4084.615384,4483.076923,4104.615384,4164.102564,4414.871794,4112.820512,4410.769230,3860.000000,3915.897436
105,4313.333333,4195.384615,4528.205128,4215.897435,4536.923076,4084.615384,4476.923076,4098.461538,4161.538461,4409.743589,4100.512820,4408.717948,3858.974359,3911.794872
106,4312.307692,4196.923076,4520.512820,4212.307692,4533.846153,4078.461538,4471.282051,4093.846153,4166.153846,4409.743589,4097.435897,4404.102564,3851.794872,3905.128206
107,4310.256410,4194.871794,4523.076923,4209.230769,4530.256410,4074.358974,4473.846153,4098.461538,4169.743589,4409.743589,4092.820512,4400.512820,3847.179488,3904.102565
108,4315.897435,4193.333333,4526.153846,4210.256410,4530.256410,4076.410256,4475.384615,4103.076923,4162.564102,4406.153846,4094.358974,4405.128205,3852.307693,3911.282052
109,4321.538461,4196.410256,4527.179487,4209.230769,4530.256410,4079.487179,4471.282051,4099.487179,4159.487179,4411.794871,4111.282051,4411.794871,3866.666667,3916.923077
110,4317.435897,4196.410256,4525.641025,4207.179487,4531.794871,4077.435897,4469.743589,4096.923076,4166.153846,4423.076923,4111.794871,4412.307692,3875.384616,3917.948718
111,4312.820512,4192.307692,4520.000000,4204.615384,4531.282051,4073.333333,4472.820512,4097.948717,4167.179487,4421.025641,4097.435897,4408.717948,3872.820513,3914.358975
112,4314.871794,4192.307692,4518.974358,4205.128205,4530.769230,4071.794871,4466.666666,4091.282051,4160.000000,4411.282051,4100.000000,4405.128205,3870.769231,3907.692308
113,4318.461538,4197.435897,4522.564102,4212.820512,4532.820512,4072.307692,4463.076923,4084.102564,4159.487179,4412.307692,4113.333333,4405.128205,3869.743590,3910.256411
114,4315.897435,4199.487179,4522.051282,4214.871794,4536.410256,4071.794871,4470.256410,4089.743589,4164.102564,4418.974358,4115.897435,4407.179487,3872.307693,3918.461539
115,4315.384615,4198.974358,4522.051282,4209.230769,4536.410256,4077.435897,4469.743589,4097.948717,4168.205128,4421.538461,4113.846153,4410.769230,3882.051283,3922.051283
116,4324.615384,4200.000000,4528.205128,4208.205128,4535.384615,4082.564102,4467.179487,4102.051282,4176.923076,4425.128205,4115.384615,4415.384615,3886.153847,3925.641026
117,4325.128205,4196.410256,4531.794871,4211.282051,4539.487179,4076.410256,4472.307692,4104.615384,4175.897435,4423.589743,4112.820512,4416.410256,3883.589744,3929.230770
118,4313.846153,4185.641025,4526.666666,4203.589743,4539.487179,4075.384615,4474.871794,4096.923076,4164.102564,4418.461538,4104.102564,4411.794871,3884.615385,3924.615385
119,4309.743589,4179.487179,4521.025641,4192.307692,4534.358974,4077.948717,4473.846153,4089.230769,4160.512820,4416.410256,4096.923076,4406.666666,3887.179488,3919.487180
120,4308.717948,4182.564102,4518.461538,4190.769230,4526.153846,4070.256410,4469.230769,4087.179487,4156.410256,4412.307692,4095.897435,4401.025641,3877.435898,3916.923077
121,4306.153846,4183.076923,4517.948717,4195.897435,4519.487179,4061.538461,4463.076923,4083.589743,4148.717948,4407.179487,4098.974358,4400.512820,3865.641026,3914.871795
122,4313.846153,4181.025641,4522.564102,4201.538461,4521.538461,4066.153846,4464.102564,4088.205128,4159.487179,4411.282051,4102.051282,4406.153846,3875.384616,3919.487180
123,4316.410256,4173.333333,4525.128205,4197.948717,4524.102564,4070.769230,4469.230769,4094.358974,4171.794871,4413.333333,4100.000000,4409.743589,3886.153847,3919.487180
124,4306.153846,4162.564102,4520.512820,4191.282051,4522.051282,4065.641025,4469.230769,4090.769230,4163.589743,4405.128205,4097.435897,4406.666666,3875.384616,3913.846154
125,4306.666666,4156.923076,4519.487179,4189.230769,4521.538461,4065.128205,4469.230769,4089.230769,4157.435897,4404.102564,4100.512820,4406.666666,3867.692308,3917.948718
126,4313.333333,4157.948717,4522.564102,4184.615384,4521.538461,4070.256410,4470.769230,4092.307692,4161.025641,4411.794871,4102.564102,4407.692307,3878.461539,3923.076924
127,4313.333333,4162.564102,4523.076923,4190.256410,4522.564102,4071.282051,4469.743589,4088.205128,4163.589743,4414.871794,4108.205128,4409.743589,3887.179488,3921.025642
128,4315.384615,4165.128205,4524.615384,4205.128205,4529.743589,4070.769230,4466.666666,4086.666666,4171.282051,4415.384615,4114.871794,4415.897435,3884.615385,3924.615385
129,4316.410256,4160.512820,4528.717948,4204.102564,4534.358974,4073.846153,4464.615384,4087.179487,4172.307692,4413.333333,4108.205128,4415.384615,3881.538462,3929.743590
130,4316.410256,4155.897435,4533.333333,4198.461538,4531.282051,4075.897435,4469.230769,4084.615384,4160.512820,4410.256410,4103.076923,4412.820512,3885.128206,3930.256411
131,4323.589743,4161.025641,4538.461538,4207.692307,4533.333333,4076.923076,4475.384615,4086.153846,4160.512820,4414.358974,4113.333333,4421.538461,3891.794872,3935.897436
132,4327.179487,4159.487179,4537.948717,4209.743589,4535.897435,4081.538461,4476.410256,4092.307692,4174.358974,4422.051282,4120.512820,4426.666666,3891.282052,3938.461539
133,4316.923076,4142.564102,4526.153846,4195.897435,4533.846153,4083.076923,4474.871794,4094.358974,4178.461538,4418.461538,4108.205128,4415.897435,3882.051283,3929.743590
134,4309.230769,4132.307692,4520.000000,4191.282051,4531.282051,4079.487179,4473.333333,4091.794871,4170.769230,4412.820512,4098.461538,4405.641025,3880.000000,3925.641026
135,4315.897435,4139.487179,4525.641025,4202.564102,4527.692307,4077.948717,4473.846153,4092.307692,4171.282051,4418.974358,4109.230769,4411.282051,3888.205129,3934.358975
136,4325.641025,4140.000000,4533.846153,4212.820512,4529.230769,4081.538461,4477.435897,4097.948717,4174.358974,4424.102564,4119.487179,4422.564102,3895.384616,3940.512821
137,4327.692307,4129.743589,4531.794871,4209.743589,4532.307692,4085.128205,4480.512820,4102.051282,4176.410256,4423.589743,4119.487179,4423.589743,3897.435898,3941.538462
138,4327.179487,4132.820512,4530.256410,4203.589743,4530.256410,4085.128205,4482.051282,4104.102564,4187.692307,4431.794871,4124.102564,4421.025641,3905.128206,3947.692308
139,4326.666666,4140.000000,4535.897435,4205.641025,4533.333333,4085.128205,4482.564102,4106.153846,4188.205128,4435.897435,4129.743589,4423.076923,3911.794872,3947.179488
140,4320.512820,4126.666666,4534.871794,4206.153846,4540.000000,4085.128205,4480.512820,4102.051282,4172.820512,4425.641025,4122.051282,4421.025641,3900.000000,3937.948718
141,4314.871794,4115.897435,4530.769230,4203.589743,4535.384615,4083.589743,4480.000000,4094.871794,4171.282051,4425.641025,4124.102564,4418.974358,3890.256411,3934.871795
142,4318.461538,4124.102564,4537.435897,4205.641025,4529.230769,4081.025641,4482.051282,4098.461538,4179.487179,4434.358974,4133.846153,4424.102564,3898.461539,3937.435898
143,4321.025641,4125.641025,4541.025641,4206.153846,4533.846153,4078.974358,4480.512820,4104.615384,4181.538461,4433.333333,4122.564102,4426.666666,3901.538462,3936.410257
144,4314.358974,4113.333333,4527.179487,4198.974358,4534.358974,4073.846153,4473.846153,4096.923076,4178.461538,4420.512820,4104.615384,4415.384615,3887.179488,3930.769231
145,4306.666666,4102.564102,4519.487179,4198.974358,4527.179487,4069.743589,4469.743589,4084.615384,4168.205128,4409.743589,4107.692307,4407.179487,3875.897436,3922.051283
146,4307.179487,4099.487179,4526.666666,4203.076923,4527.692307,4075.897435,4477.435897,4087.692307,4161.025641,4411.282051,4117.435897,4409.743589,3876.410257,3922.051283
147,4308.717948,4093.846153,4522.564102,4197.435897,4531.794871,4079.487179,4482.051282,4091.794871,4163.589743,4415.897435,4109.743589,4409.743589,3873.846154,3923.076924
148,4309.230769,4087.692307,4516.923076,4195.384615,4528.205128,4080.512820,4477.948717,4092.820512,4166.153846,4413.333333,4101.538461,4408.717948,3874.871795,3916.923077
149,4316.410256,4092.307692,4527.692307,4207.179487,4526.666666,4085.641025,4480.512820,4100.000000,4170.256410,4412.820512,4109.230769,4413.846153,3884.102565,3923.589744
150,4323.589743,4102.564102,4540.512820,4213.846153,4536.923076,4087.179487,4487.179487,4105.641025,4177.948717,4424.615384,4117.948717,4425.128205,3890.256411,3939.487180
151,4323.076923,4101.538461,4540.000000,4211.282051,4540.512820,4083.076923,4483.589743,4102.564102,4176.410256,4430.769230,4118.974358,4428.717948,3888.717949,3940.512821
152,4323.589743,4095.897435,4536.923076,4213.333333,4537.435897,4084.615384,4478.974358,4098.974358,4173.333333,4425.128205,4118.461538,4426.153846,3888.205129,3936.923077
153,4327.179487,4096.923076,4537.948717,4211.282051,4540.000000,4088.205128,4479.487179,4097.435897,4175.384615,4421.538461,4120.512820,4428.205128,3893.333334,3944.615385
154,4325.128205,4091.794871,4536.923076,4207.179487,4539.487179,4084.102564,4477.948717,4096.410256,4172.307692,4422.564102,4124.102564,4428.717948,3892.307693,3947.179488
155,4320.512820,4086.666666,4535.384615,4209.743589,4538.974358,4082.051282,4476.410256,4097.948717,4172.820512,4426.153846,4124.615384,4426.153846,3889.743590,3946.153847
156,4321.025641,4086.666666,4531.794871,4210.769230,4540.000000,4084.102564,4473.333333,4100.512820,4175.897435,4425.128205,4123.076923,4425.641025,3892.820513,3948.717949
157,4321.025641,4085.641025,4529.230769,4210.256410,4535.897435,4082.051282,4467.692307,4102.051282,4176.923076,4423.076923,4124.615384,4426.666666,3898.461539,3945.128206
158,4319.487179,4086.666666,4530.256410,4212.820512,4535.897435,4080.512820,4464.102564,4100.512820,4173.846153,4421.538461,4126.153846,4425.128205,3895.384616,3943.076924
159,4323.076923,4087.179487,4527.179487,4207.179487,4538.974358,4081.538461,4462.051282,4093.333333,4165.641025,4418.461538,4121.025641,4424.615384,3889.230770,3946.153847
160,4325.128205,4080.000000,4522.564102,4195.897435,4534.871794,4082.051282,4457.948717,4091.794871,4164.615384,4418.461538,4118.974358,4425.128205,3889.743590,3944.615385
161,4317.948717,4071.794871,4521.538461,4197.948717,4529.743589,4082.051282,4451.794871,4088.205128,4166.153846,4415.384615,4116.923076,4418.974358,3887.179488,3935.384616
162,4315.384615,4070.769230,4522.051282,4205.128205,4533.333333,4083.589743,4447.179487,4082.051282,4156.923076,4407.692307,4111.282051,4414.871794,3881.538462,3930.256411
163,4319.487179,4073.333333,4521.538461,4206.666666,4539.487179,4083.076923,4445.641025,4083.589743,4150.769230,4406.153846,4113.846153,4417.435897,3881.538462,3933.846154
164,4320.000000,4071.282051,4523.076923,4204.102564,4540.512820,4083.589743,4449.743589,4092.307692,4158.461538,4414.358974,4121.538461,4422.564102,3887.179488,3938.974359
165,4322.051282,4067.692307,4528.205128,4201.025641,4537.948717,4086.666666,4456.410256,4102.051282,4169.743589,4422.564102,4122.564102,4427.179487,3895.897436,3941.025642
166,4330.769230,4068.717948,4534.871794,4202.051282,4536.923076,4088.205128,4454.358974,4105.641025,4174.358974,4426.153846,4124.615384,4432.307692,3903.076924,3945.128206
167,4334.871794,4071.794871,4538.974358,4208.717948,4538.461538,4086.666666,4448.205128,4105.641025,4174.871794,4430.769230,4134.871794,4437.948717,3907.179488,3951.794872
168,4330.769230,4072.307692,4536.923076,4214.871794,4542.051282,4084.615384,4443.589743,4104.102564,4174.358974,4432.820512,4138.461538,4439.487179,3906.153847,3950.769231
169,4323.076923,4067.692307,4529.743589,4211.282051,4541.538461,4081.025641,4437.435897,4096.923076,4169.743589,4423.076923,4125.128205,4432.820512,3898.461539,3941.538462
170,4316.410256,4056.923076,4521.025641,4199.487179,4537.435897,4076.410256,4431.282051,4087.692307,4156.923076,4405.641025,4110.769230,4423.589743,3884.615385,3931.794872
171,4317.948717,4051.794871,4521.538461,4197.948717,4536.923076,4078.974358,4432.820512,4087.692307,4155.384615,4405.641025,4110.769230,4423.589743,3879.487180,3929.230770
172,4323.076923,4057.435897,4528.717948,4210.256410,4538.461538,4085.128205,4436.923076,4093.846153,4166.666666,4418.461538,4112.820512,4427.179487,3886.153847,3935.384616
173,4324.102564,4060.000000,4525.641025,4213.333333,4539.487179,4085.641025,4436.923076,4093.846153,4162.564102,4416.410256,4110.769230,4425.128205,3888.717949,3937.948718
174,4325.128205,4055.897435,4522.564102,4210.256410,4537.435897,4083.589743,4432.820512,4091.794871,4153.333333,4411.794871,4121.025641,4426.153846,3889.743590,3938.974359
175,4328.717948,4053.846153,4531.282051,4211.794871,4535.384615,4079.487179,4428.717948,4092.820512,4164.102564,4420.000000,4129.743589,4432.820512,3898.461539,3944.615385
176,4331.794871,4057.435897,4535.897435,4210.769230,4535.384615,4073.846153,4431.794871,4100.000000,4175.384615,4426.666666,4128.205128,4436.923076,3906.153847,3951.794872
177,4330.256410,4056.923076,4532.820512,4209.230769,4537.948717,4076.923076,4432.307692,4100.000000,4167.692307,4422.051282,4128.717948,4434.358974,3902.051283,3951.282052
178,4325.641025,4047.179487,4529.743589,4207.179487,4537.435897,4081.538461,4424.615384,4091.282051,4153.846153,4413.333333,4127.692307,4428.205128,3892.820513,3946.666667
179,4326.666666,4048.717948,4531.794871,4207.179487,4533.846153,4079.487179,4420.512820,4090.769230,4154.871794,4411.794871,4126.153846,4428.717948,3894.358975,3945.641026
180,4333.333333,4060.512820,4536.410256,4211.282051,4535.897435,4078.461538,4422.564102,4096.410256,4171.794871,4423.076923,4129.230769,4435.384615,3900.000000,3949.230770
181,4334.358974,4055.897435,4535.384615,4207.179487,4541.025641,4082.051282,4418.974358,4092.307692,4176.410256,4430.256410,4128.205128,4435.897435,3898.974359,3951.794872
182,4332.307692,4047.692307,4531.794871,4202.564102,4540.512820,4082.051282,4416.923076,4089.743589,4165.641025,4425.128205,4126.153846,4434.871794,3901.025642,3951.794872
183,4333.846153,4055.384615,4534.358974,4211.794871,4535.384615,4081.538461,4423.589743,4097.435897,4167.179487,4426.153846,4129.743589,4437.435897,3902.564103,3952.307693
184,4332.820512,4056.410256,4532.307692,4214.871794,4536.923076,4080.000000,4422.564102,4095.384615,4173.333333,4429.743589,4132.820512,4432.820512,3894.358975,3949.743590
185,4325.128205,4052.307692,4525.641025,4206.666666,4538.974358,4074.871794,4413.333333,4083.589743,4163.589743,4421.025641,4128.205128,4422.564102,3890.256411,3944.102565
186,4327.179487,4063.589743,4531.282051,4212.820512,4538.461538,4074.871794,4410.256410,4088.717948,4158.974358,4419.487179,4124.102564,4428.205128,3903.076924,3951.794872
187,4343.076923,4073.333333,4545.128205,4222.051282,4545.641025,4085.128205,4417.948717,4104.102564,4171.282051,4437.948717,4131.794871,4443.589743,3915.897436,3968.717949
188,4348.205128,4068.717948,4548.717948,4221.025641,4548.717948,4091.794871,4426.153846,4107.692307,4180.512820,4444.102564,4145.128205,4447.179487,3913.333334,3974.358975
189,4340.000000,4067.179487,4546.153846,4222.564102,4542.564102,4086.666666,4423.589743,4100.000000,4180.000000,4429.230769,4141.538461,4441.538461,3903.076924,3966.666667
190,4334.871794,4064.102564,4538.974358,4218.461538,4543.076923,4083.076923,4414.358974,4092.307692,4171.282051,4418.974358,4125.128205,4437.435897,3897.948718,3955.897436
191,4331.794871,4054.871794,4534.358974,4213.333333,4543.589743,4083.076923,4411.794871,4088.717948,4162.051282,4421.025641,4122.051282,4437.435897,3896.923077,3953.846154
192,4334.871794,4061.025641,4539.487179,4218.974358,4538.461538,4081.025641,4415.897435,4095.384615,4165.641025,4426.666666,4132.820512,4441.025641,3900.000000,3964.615385
193,4342.564102,4068.717948,4541.025641,4218.461538,4538.461538,4078.974358,4417.435897,4102.564102,4175.897435,4431.282051,4135.384615,4443.589743,3898.974359,3967.179488
194,4340.512820,4061.538461,4538.461538,4208.205128,4541.538461,4080.512820,4416.923076,4105.641025,4179.487179,4435.897435,4129.743589,4442.564102,3894.358975,3961.538462
195,4335.897435,4058.974358,4538.974358,4201.025641,4542.564102,4083.076923,4418.461538,4106.666666,4175.384615,4437.948717,4129.230769,4441.025641,3895.384616,3963.589744
196,4337.435897,4063.076923,4540.000000,4192.307692,4542.051282,4086.153846,4419.487179,4102.051282,4167.692307,4432.307692,4131.794871,4441.025641,3893.846154,3962.564103
197,4334.871794,4057.948717,4540.512820,4187.179487,4544.102564,4087.179487,4417.948717,4097.435897,4162.564102,4425.641025,4135.384615,4440.512820,3889.230770,3956.923077
198,4331.282051,4053.846153,4538.974358,4194.871794,4545.641025,4082.564102,4419.487179,4100.000000,4167.692307,4426.666666,4137.435897,4441.025641,3894.871795,3958.461539
199,4334.358974,4055.897435,4538.974358,4196.923076,4544.615384,4081.538461,4422.564102,4104.102564,4177.948717,4434.358974,4132.307692,4442.564102,3898.974359,3962.051283
200,4330.256410,4048.205128,4539.487179,4190.256410,4544.615384,4086.153846,4422.564102,4104.615384,4176.410256,4432.820512,4126.153846,4437.948717,3886.666667,3956.410257
201,4314.871794,4034.871794,4531.282051,4188.717948,4545.641025,4087.179487,4418.461538,4098.461538,4162.564102,4418.461538,4123.076923,4427.179487,3876.410257,3940.000000
202,4311.794871,4034.358974,4520.000000,4191.794871,4543.589743,4085.641025,4417.435897,4093.846153,4159.487179,4413.333333,4122.564102,4424.615384,3878.461539,3932.307693
203,4322.564102,4042.564102,4527.179487,4196.923076,4543.589743,4088.717948,4424.102564,4101.538461,4169.743589,4427.179487,4127.692307,4433.846153,3882.051283,3942.051283
204,4329.230769,4049.743589,4536.410256,4204.102564,4547.179487,4093.846153,4427.179487,4112.307692,4178.461538,4437.948717,4129.743589,4438.974358,3885.128206,3948.717949
205,4324.615384,4050.256410,4531.794871,4201.538461,4541.538461,4090.256410,4418.461538,4108.205128,4177.948717,4431.794871,4122.564102,4430.769230,3885.128206,3940.512821
206,4318.974358,4042.564102,4528.205128,4195.384615,4534.871794,4080.000000,4414.358974,4103.076923,4175.897435,4425.128205,4123.589743,4426.153846,3887.179488,3934.358975
207,4319.487179,4037.948717,4528.717948,4200.512820,4539.487179,4078.461538,4419.487179,4106.666666,4174.871794,4425.128205,4135.897435,4431.282051,3889.230770,3935.897436
208,4322.564102,4041.025641,4528.205128,4208.717948,4541.025641,4082.564102,4417.435897,4106.666666,4171.794871,4422.051282,4131.794871,4435.897435,3882.564103,3935.384616
209,4321.538461,4042.564102,4527.692307,4214.871794,4538.974358,4082.051282,4411.794871,4099.487179,4169.230769,4418.461538,4118.974358,4436.923076,3875.384616,3934.358975
210,4321.025641,4047.179487,4530.256410,4224.102564,4544.102564,4080.000000,4412.820512,4094.358974,4166.666666,4417.435897,4126.666666,4438.974358,3877.948718,3936.410257
211,4327.179487,4057.435897,4536.923076,4230.256410,4550.769230,4082.564102,4414.871794,4094.871794,4165.641025,4414.358974,4135.897435,4443.589743,3886.153847,3943.589744
212,4333.846153,4057.948717,4541.538461,4225.128205,4548.717948,4085.641025,4413.333333,4096.923076,4165.128205,4412.820512,4123.076923,4444.102564,3882.051283,3944.102565
213,4333.846153,4049.743589,4536.410256,4220.512820,4545.641025,4085.641025,4413.846153,4099.487179,4162.564102,4414.358974,4117.948717,4440.512820,3871.282052,3938.461539
214,4335.897435,4053.846153,4535.384615,4221.025641,4548.717948,4086.153846,4416.410256,4102.051282,4163.589743,4415.897435,4131.794871,4443.076923,3875.384616,3943.076924
215,4341.538461,4062.564102,4541.538461,4226.666666,4551.794871,4087.692307,4414.358974,4100.000000,4167.179487,4416.923076,4132.820512,4449.230769,3886.153847,3951.282052
216,4344.102564,4061.538461,4542.051282,4232.820512,4551.794871,4088.205128,4414.358974,4100.000000,4170.769230,4420.000000,4128.205128,4449.230769,3886.153847,3951.282052
217,4338.974358,4055.384615,4534.871794,4226.666666,4545.641025,4083.589743,4415.384615,4102.564102,4168.717948,4419.487179,4131.282051,4443.589743,3877.948718,3943.589744
218,4328.717948,4052.307692,4525.641025,4214.358974,4537.435897,4078.974358,4412.307692,4097.435897,4162.564102,4411.282051,4119.487179,4440.000000,3870.256411,3933.846154
219,4328.205128,4048.717948,4522.051282,4215.384615,4536.410256,4082.051282,4410.769230,4091.282051,4158.974358,4407.179487,4110.256410,4437.435897,3867.692308,3933.333334
220,4331.794871,4045.128205,4522.564102,4222.051282,4542.051282,4083.589743,4413.846153,4092.820512,4160.512820,4412.307692,4120.512820,4433.846153,3869.743590,3934.358975
221,4324.615384,4046.666666,4521.025641,4215.384615,4544.102564,4082.564102,4416.923076,4093.846153,4157.948717,4411.794871,4120.512820,4431.282051,3870.256411,3925.641026
222,4321.025641,4049.230769,4515.897435,4212.307692,4545.641025,4088.717948,4416.410256,4096.410256,4158.974358,4409.743589,4114.871794,4431.794871,3870.256411,3920.512821
223,4325.641025,4046.153846,4515.384615,4218.974358,4550.769230,4092.820512,4417.435897,4103.076923,4171.794871,4415.897435,4121.538461,4429.743589,3872.307693,3923.589744
224,4322.051282,4037.948717,4516.923076,4215.384615,4550.256410,4086.153846,4419.487179,4100.512820,4172.307692,4418.974358,4124.615384,4426.153846,3874.358975,3918.974359
225,4313.333333,4028.717948,4512.820512,4202.051282,4543.589743,4083.076923,4420.512820,4094.871794,4162.564102,4417.948717,4121.025641,4428.205128,3874.358975,3914.871795
226,4313.846153,4026.153846,4510.769230,4196.923076,4542.051282,4081.538461,4417.948717,4095.384615,4161.025641,4417.948717,4120.000000,4428.205128,3870.256411,3916.410257
227,4316.923076,4036.923076,4514.871794,4201.025641,4549.743589,4077.948717,4414.871794,4097.948717,4162.564102,4412.820512,4116.410256,4426.153846,3875.384616,3917.435898
228,4321.538461,4049.743589,4521.025641,4208.717948,4556.410256,4081.538461,4415.384615,4102.051282,4166.153846,4413.333333,4112.820512,4431.794871,3891.282052,3924.102565
229,4322.564102,4047.692307,4521.538461,4212.820512,4550.769230,4084.615384,4416.410256,4101.538461,4167.692307,4418.461538,4117.435897,4437.435897,3894.871795,3927.692308
230,4318.461538,4043.589743,4516.410256,4207.692307,4545.128205,4080.000000,4415.384615,4093.846153,4157.435897,4415.384615,4117.948717,4431.282051,3884.615385,3922.051283
231,4317.948717,4050.256410,4514.358974,4202.051282,4549.743589,4081.538461,4417.948717,4089.743589,4151.282051,4411.282051,4115.384615,4430.256410,3883.589744,3917.948718
232,4316.410256,4054.358974,4520.000000,4203.076923,4549.230769,4085.128205,4420.512820,4092.307692,4158.974358,4412.820512,4115.897435,4440.000000,3888.717949,3918.461539
233,4316.410256,4048.717948,4525.128205,4202.564102,4544.615384,4080.512820,4420.000000,4091.794871,4160.512820,4410.256410,4115.897435,4446.666666,3887.692308,3923.076924
234,4320.512820,4043.076923,4522.564102,4198.461538,4547.692307,4077.435897,4420.512820,4087.692307,4152.307692,4402.564102,4114.358974,4444.102564,3884.615385,3926.153847
235,4318.974358,4044.102564,4518.974358,4197.435897,4547.692307,4077.948717,4418.461538,4084.615384,4151.282051,4402.564102,4113.846153,4441.538461,3883.076924,3919.487180
236,4320.000000,4048.205128,4522.564102,4206.153846,4544.102564,4080.000000,4421.025641,4086.153846,4158.461538,4410.769230,4117.948717,4448.717948,3885.641026,3919.487180
237,4330.256410,4052.307692,4532.820512,4213.333333,4547.692307,4083.589743,4431.282051,4091.794871,4164.102564,4418.461538,4123.076923,4460.000000,3891.282052,3933.333334
238,4333.846153,4054.871794,4533.846153,4211.794871,4549.230769,4081.025641,4435.384615,4091.794871,4164.615384,4416.923076,4128.205128,4462.564102,3892.820513,3936.410257
239,4329.230769,4055.384615,4523.589743,4210.769230,4546.666666,4074.358974,4431.282051,4086.666666,4161.538461,4409.743589,4126.153846,4456.410256,3891.794872,3928.717949
240,4332.820512,4058.461538,4522.564102,4217.948717,4551.282051,4073.333333,4431.282051,4085.128205,4159.487179,4409.743589,4121.025641,4453.846153,3894.871795,3932.820513
241,4333.846153,4065.128205,4527.179487,4218.461538,4553.333333,4075.384615,4433.333333,4083.076923,4158.974358,4413.333333,4124.615384,4456.410256,3894.358975,3931.282052
242,4326.666666,4064.615384,4522.051282,4211.282051,4554.358974,4074.871794,4434.871794,4079.487179,4164.102564,4413.846153,4128.717948,4453.846153,3886.153847,3922.564103
243,4329.743589,4063.076923,4524.615384,4214.871794,4555.897435,4079.487179,4442.051282,4085.641025,4168.717948,4415.897435,4131.794871,4457.948717,3889.230770,3930.769231
244,4336.410256,4065.128205,4533.333333,4221.025641,4553.333333,4083.589743,4447.179487,4091.794871,4162.051282,4417.948717,4132.307692,4468.717948,3899.487180,3939.487180
245,4332.820512,4061.538461,4526.666666,4213.333333,4551.794871,4078.974358,4444.615384,4088.205128,4156.410256,4411.794871,4123.589743,4467.179487,3896.923077,3932.820513
246,4325.128205,4056.410256,4522.051282,4203.589743,4553.333333,4078.461538,4446.153846,4086.666666,4163.076923,4411.282051,4124.615384,4463.589743,3890.256411,3925.128206
247,4326.666666,4065.641025,4528.717948,4209.230769,4552.820512,4082.051282,4451.794871,4092.307692,4167.692307,4418.461538,4140.512820,4468.205128,3889.743590,3926.666667
248,4333.333333,4073.846153,4528.717948,4220.512820,4555.897435,4081.538461,4452.820512,4095.384615,4163.589743,4417.435897,4141.538461,4470.769230,3891.794872,3931.282052
249,4333.846153,4069.230769,4526.666666,4220.512820,4562.051282,4081.025641,4449.743589,4089.743589,4161.025641,4409.743589,4126.153846,4470.769230,3890.256411,3930.769231
250,4331.282051,4068.205128,4530.769230,4214.871794,4558.461538,4080.512820,4447.692307,4083.589743,4157.435897,4407.692307,4124.615384,4472.820512,3888.717949,3928.717949
251,4336.410256,4078.461538,4534.358974,4222.051282,4555.384615,4076.410256,4451.282051,4086.666666,4163.076923,4413.846153,4134.358974,4474.871794,3893.846154,3935.897436
252,4346.153846,4085.128205,4537.435897,4231.794871,4563.589743,4078.974358,4455.897435,4094.871794,4175.384615,4422.051282,4137.948717,4481.025641,3904.102565,3949.230770
253,4349.743589,4086.666666,4541.538461,4226.666666,4564.102564,4087.179487,4456.410256,4099.487179,4174.358974,4425.128205,4140.512820,4491.794871,3906.153847,3951.794872
254,4348.717948,4086.153846,4546.153846,4222.564102,4552.820512,4086.153846,4456.410256,4100.000000,4162.564102,4419.487179,4140.512820,4493.846153,3897.435898,3942.564103
255,4342.564102,4076.410256,4541.025641,4221.538461,4551.282051,4080.000000,4451.794871,4096.410256,4157.435897,4408.717948,4125.641025,4484.615384,3885.128206,3934.871795
256,4330.769230,4062.564102,4530.769230,4215.384615,4556.923076,4078.461538,4447.179487,4090.256410,4156.923076,4401.538461,4113.846153,4478.461538,3874.871795,3931.282052
257,4330.769230,4064.102564,4532.307692,4215.897435,4554.358974,4079.487179,4451.794871,4091.282051,4158.974358,4405.641025,4123.076923,4480.512820,3874.358975,3930.256411
258,4339.487179,4075.384615,4537.435897,4223.589743,4553.333333,4083.076923,4452.307692,4094.871794,4163.076923,4410.769230,4129.743589,4480.512820,3877.948718,3929.230770
259,4339.487179,4081.025641,4531.282051,4226.666666,4561.538461,4084.102564,4444.102564,4092.307692,4160.512820,4409.230769,4123.589743,4481.538461,3877.435898,3930.256411
