,AF3,F7,F3,FC5,T7,P7,O1,O2,P8,T8,FC6,F4,F8,AF4
0,4408.205128,4483.076923,4565.128205,4101.025641,4486.153846,4160.000000,4444.102564,4230.769230,4238.974358,4532.307692,4242.051282,4667.179487,4038.974358,4107.692307
1,4399.487179,4477.948717,4552.307692,4090.769230,4484.102564,4151.282051,4435.897435,4219.487179,4232.820512,4530.769230,4241.538461,4661.538461,4034.358974,4105.641025
2,4396.923076,4473.846153,4549.743589,4084.102564,4483.589743,4147.179487,4435.897435,4224.615384,4235.897435,4534.358974,4236.410256,4660.512820,4034.358974,4101.025641
3,4398.461538,4481.025641,4554.871794,4091.794871,4485.641025,4153.846153,4445.641025,4237.948717,4246.153846,4533.333333,4233.846153,4663.589743,4039.487179,4100.000000
4,4394.871794,4482.564102,4552.307692,4093.846153,4484.615384,4152.307692,4444.615384,4234.871794,4244.615384,4525.641025,4238.974358,4661.538461,4038.461538,4102.051282
5,4391.282051,4469.743589,4550.769230,4086.153846,4480.000000,4149.743589,4439.487179,4230.256410,4234.358974,4526.153846,4244.102564,4654.871794,4033.333333,4098.461538
6,4395.897435,4468.717948,4556.410256,4089.230769,4480.512820,4151.794871,4441.025641,4237.948717,4240.000000,4534.871794,4244.102564,4658.974358,4030.256410,4097.435897
7,4400.000000,4475.384615,4555.897435,4099.487179,4483.589743,4150.769230,4444.615384,4240.000000,4250.256410,4535.384615,4238.461538,4665.128205,4029.230769,4101.538461
8,4395.384615,4470.256410,4549.230769,4095.384615,4481.538461,4148.205128,4445.128205,4235.897435,4244.102564,4529.230769,4231.794871,4660.512820,4026.666666,4098.974358
9,4393.333333,4467.692307,4550.256410,4089.743589,4479.487179,4149.230769,4444.102564,4239.487179,4237.948717,4531.282051,4234.358974,4657.435897,4031.282051,4093.846153
10,4395.384615,4472.307692,4553.333333,4092.307692,4478.974358,4148.717948,4442.564102,4241.025641,4242.051282,4533.846153,4244.615384,4662.051282,4040.512820,4094.871794
11,4394.358974,4471.794871,4550.769230,4090.769230,4478.974358,4145.641025,4443.589743,4236.410256,4241.538461,4530.256410,4245.128205,4660.512820,4038.974358,4093.333333
12,4390.256410,4467.692307,4546.666666,4084.102564,4481.538461,4148.717948,4445.641025,4238.974358,4238.974358,4530.256410,4235.897435,4653.333333,4030.769230,4084.615384
13,4386.153846,4468.205128,4544.102564,4086.153846,4484.102564,4152.820512,4447.179487,4247.179487,4243.589743,4535.897435,4232.307692,4653.846153,4027.692307,4082.051282
14,4388.205128,4469.230769,4546.153846,4091.794871,4484.102564,4154.871794,4453.846153,4249.230769,4246.666666,4536.410256,4237.948717,4656.923076,4033.846153,4090.769230
15,4391.794871,4467.179487,4546.666666,4089.230769,4486.153846,4158.461538,4454.871794,4248.205128,4246.666666,4533.846153,4243.076923,4656.923076,4038.461538,4095.897435
16,4388.205128,4465.641025,4545.128205,4090.769230,4485.641025,4156.923076,4449.230769,4245.641025,4248.205128,4534.871794,4236.923076,4655.384615,4031.794871,4089.230769
17,4383.589743,4468.717948,4545.128205,4097.948717,4482.564102,4150.256410,4446.666666,4243.076923,4246.153846,4532.307692,4227.179487,4653.846153,4023.589743,4085.128205
18,4386.153846,4473.846153,4545.128205,4099.487179,4484.102564,4151.282051,4449.230769,4248.205128,4242.564102,4530.769230,4228.717948,4656.923076,4028.205128,4088.205128
19,4390.256410,4472.307692,4547.179487,4100.512820,4488.205128,4155.897435,4452.307692,4249.743589,4242.051282,4530.769230,4235.897435,4659.487179,4031.794871,4087.692307
20,4392.820512,4473.333333,4549.230769,4106.666666,4488.717948,4155.897435,4455.897435,4245.128205,4241.025641,4527.179487,4237.948717,4657.435897,4029.230769,4088.717948
21,4395.384615,4475.897435,4549.230769,4106.153846,4486.666666,4157.948717,4457.435897,4245.128205,4242.564102,4531.282051,4233.333333,4656.923076,4030.769230,4092.307692
22,4393.333333,4473.333333,4548.205128,4104.102564,4486.666666,4162.051282,4455.897435,4246.666666,4245.641025,4541.025641,4233.333333,4661.538461,4030.769230,4089.230769
23,4391.282051,4469.230769,4547.179487,4107.179487,4490.769230,4160.000000,4458.974358,4244.615384,4245.128205,4540.000000,4238.461538,4662.564102,4025.641025,4083.589743
24,4386.153846,4460.000000,4541.538461,4103.589743,4489.230769,4154.871794,4461.538461,4242.564102,4241.538461,4529.230769,4233.846153,4654.358974,4021.025641,4078.461538
25,4377.948717,4454.358974,4533.846153,4094.871794,4484.102564,4154.871794,4453.846153,4238.974358,4237.435897,4521.025641,4223.076923,4648.205128,4017.948717,4072.820512
26,4376.410256,4458.461538,4532.820512,4094.358974,4484.615384,4156.923076,4447.692307,4239.487179,4232.820512,4520.000000,4224.102564,4648.717948,4014.358974,4073.333333
27,4375.897435,4458.974358,4530.769230,4100.000000,4485.641025,4152.820512,4447.692307,4239.487179,4226.666666,4517.435897,4224.102564,4644.102564,4007.179487,4071.282051
28,4375.384615,4456.923076,4528.205128,4103.589743,4483.076923,4150.769230,4447.692307,4235.384615,4225.128205,4514.871794,4219.487179,4641.538461,4008.717948,4065.128205
29,4384.615384,4464.615384,4536.410256,4105.128205,4485.128205,4160.000000,4453.333333,4235.897435,4232.307692,4522.051282,4227.179487,4652.820512,4020.512820,4073.846153
30,4390.256410,4470.769230,4542.051282,4107.179487,4489.230769,4164.615384,4458.461538,4237.948717,4241.025641,4533.333333,4234.871794,4659.487179,4027.179487,4085.128205
31,4384.615384,4467.692307,4536.923076,4107.179487,4488.717948,4158.974358,4453.846153,4238.461538,4242.051282,4532.820512,4229.743589,4651.794871,4021.538461,4077.948717
32,4381.538461,4467.179487,4533.333333,4104.102564,4487.179487,4156.923076,4452.307692,4241.025641,4240.512820,4527.179487,4227.179487,4647.179487,4019.487179,4069.230769
33,4384.615384,4466.153846,4533.333333,4103.589743,4488.717948,4158.461538,4451.794871,4241.538461,4242.564102,4529.743589,4227.692307,4649.743589,4022.051282,4071.794871
34,4382.564102,4465.641025,4530.256410,4104.102564,4488.205128,4157.435897,4447.692307,4238.974358,4242.051282,4528.717948,4225.641025,4650.769230,4023.076923,4072.820512
35,4380.000000,4464.102564,4528.717948,4104.102564,4487.692307,4158.974358,4449.230769,4240.512820,4238.461538,4526.666666,4227.179487,4649.230769,4021.025641,4068.717948
36,4380.512820,4463.076923,4529.230769,4109.230769,4493.333333,4162.564102,4452.307692,4238.461538,4235.897435,4525.128205,4224.102564,4648.205128,4018.461538,4065.641025
37,4377.948717,4466.666666,4527.692307,4111.794871,4496.923076,4162.564102,4452.820512,4233.846153,4235.384615,4521.025641,4216.923076,4646.153846,4013.846153,4066.666666
38,4381.538461,4470.256410,4531.282051,4109.230769,4494.358974,4161.538461,4455.384615,4239.487179,4238.974358,4524.615384,4225.641025,4649.230769,4012.820512,4071.282051
39,4387.179487,4468.205128,4535.384615,4112.820512,4489.743589,4158.461538,4451.794871,4244.615384,4242.051282,4532.820512,4237.948717,4654.358974,4020.000000,4075.384615
40,4381.538461,4462.564102,4530.769230,4112.820512,4485.641025,4151.794871,4443.076923,4238.974358,4240.000000,4531.282051,4231.794871,4648.205128,4020.512820,4070.256410
41,4374.358974,4461.538461,4525.128205,4102.051282,4483.076923,4151.794871,4443.589743,4233.333333,4237.948717,4524.615384,4221.538461,4640.000000,4012.820512,4062.051282
42,4372.820512,4459.487179,4521.025641,4098.974358,4484.102564,4152.820512,4448.205128,4231.794871,4232.820512,4518.974358,4221.538461,4640.512820,4008.205128,4058.461538
43,4370.256410,4454.358974,4515.897435,4102.564102,4482.564102,4150.769230,4447.692307,4231.282051,4232.307692,4516.410256,4220.000000,4638.974358,4008.205128,4057.948717
44,4370.256410,4453.333333,4514.871794,4104.102564,4482.564102,4151.794871,4447.692307,4230.769230,4235.897435,4516.410256,4221.025641,4638.974358,4009.743589,4060.000000
45,4377.435897,4457.435897,4518.461538,4106.666666,4483.076923,4153.333333,4448.205128,4231.794871,4233.333333,4520.512820,4223.589743,4644.615384,4010.769230,4061.538461
46,4375.384615,4457.948717,4520.000000,4106.666666,4480.000000,4149.743589,4447.692307,4234.871794,4229.743589,4524.615384,4213.333333,4642.051282,4010.769230,4058.461538
47,4367.692307,4452.307692,4517.948717,4107.692307,4481.538461,4145.641025,4444.615384,4236.923076,4235.384615,4523.589743,4205.641025,4636.923076,4014.871794,4057.948717
48,4373.333333,4454.871794,4518.461538,4112.307692,4486.666666,4152.820512,4444.102564,4237.948717,4239.487179,4523.589743,4218.461538,4645.128205,4020.512820,4065.128205
49,4382.051282,4465.128205,4520.512820,4113.846153,4485.641025,4158.974358,4445.641025,4240.000000,4237.948717,4529.743589,4228.205128,4650.769230,4017.435897,4068.205128
50,4376.410256,4465.641025,4519.487179,4108.717948,4481.025641,4150.769230,4443.589743,4238.461538,4238.461538,4533.333333,4214.871794,4643.589743,4013.846153,4063.076923
51,4371.282051,4458.461538,4514.358974,4107.692307,4482.051282,4143.589743,4440.000000,4235.384615,4236.410256,4526.666666,4206.153846,4638.974358,4017.435897,4058.974358
52,4371.794871,4455.384615,4512.307692,4107.692307,4481.025641,4147.692307,4438.461538,4232.820512,4228.205128,4516.923076,4209.230769,4641.025641,4014.358974,4055.897435
53,4370.256410,4454.358974,4514.358974,4106.153846,4478.974358,4146.153846,4436.410256,4224.102564,4221.025641,4511.282051,4205.641025,4637.948717,4004.615384,4052.307692
54,4373.333333,4455.897435,4515.897435,4114.871794,4484.102564,4148.717948,4442.564102,4223.076923,4226.153846,4514.871794,4207.179487,4638.461538,4002.564102,4057.948717
55,4377.435897,4457.948717,4516.410256,4118.461538,4488.205128,4160.000000,4453.333333,4236.410256,4235.897435,4520.512820,4212.820512,4643.076923,4005.128205,4059.487179
56,4372.820512,4453.846153,4520.512820,4110.769230,4490.256410,4161.025641,4454.358974,4241.025641,4232.820512,4518.461538,4207.179487,4640.000000,4007.692307,4052.307692
57,4371.794871,4450.256410,4520.512820,4112.820512,4491.282051,4157.948717,4452.820512,4236.410256,4230.256410,4518.974358,4204.102564,4638.974358,4011.282051,4053.846153
58,4379.487179,4456.923076,4520.000000,4122.051282,4489.230769,4161.538461,4454.358974,4238.461538,4238.974358,4527.179487,4220.000000,4646.666666,4012.307692,4065.641025
59,4383.076923,4463.589743,4524.615384,4118.974358,4486.153846,4162.564102,4453.333333,4242.051282,4243.076923,4531.794871,4228.717948,4651.282051,4012.820512,4069.230769
60,4376.923076,4458.461538,4523.076923,4112.307692,4485.641025,4159.487179,4453.333333,4241.025641,4234.358974,4525.641025,4216.410256,4644.102564,4014.871794,4060.512820
61,4375.897435,4455.384615,4518.461538,4118.461538,4492.307692,4160.000000,4457.435897,4244.615384,4236.410256,4523.589743,4212.820512,4645.641025,4019.487179,4058.461538
62,4381.538461,4458.974358,4525.641025,4123.589743,4494.871794,4162.564102,4463.076923,4255.384615,4253.333333,4535.384615,4226.153846,4657.948717,4024.615384,4068.717948
63,4381.538461,4454.358974,4533.333333,4115.897435,4488.205128,4160.512820,4467.179487,4258.974358,4258.461538,4541.025641,4232.307692,4657.948717,4021.025641,4070.769230
64,4372.820512,4449.230769,4527.179487,4112.307692,4484.615384,4161.025641,4466.666666,4253.846153,4251.282051,4535.384615,4225.641025,4649.230769,4014.358974,4060.512820
65,4371.282051,4452.820512,4518.974358,4120.000000,4488.205128,4162.051282,4460.512820,4250.769230,4249.230769,4532.307692,4218.974358,4647.692307,4013.846153,4055.897435
66,4372.307692,4448.205128,4516.410256,4120.000000,4488.205128,4160.000000,4458.461538,4248.205128,4246.153846,4528.205128,4214.358974,4645.641025,4012.307692,4054.358974
67,4365.641025,4436.923076,4514.871794,4112.307692,4484.615384,4158.461538,4458.974358,4244.615384,4237.948717,4518.461538,4211.282051,4638.974358,3998.974359,4045.641025
68,4364.102564,4438.461538,4511.282051,4113.333333,4481.538461,4158.974358,4456.923076,4241.538461,4234.871794,4514.871794,4206.153846,4637.435897,3993.846154,4043.076923
69,4372.307692,4448.205128,4510.256410,4119.487179,4480.000000,4157.948717,4455.897435,4242.051282,4238.461538,4521.538461,4203.076923,4640.512820,4004.102564,4051.794871
70,4376.410256,4454.358974,4516.923076,4122.051282,4486.153846,4158.974358,4458.461538,4245.641025,4241.538461,4527.179487,4213.846153,4644.615384,4008.717948,4056.923076
71,4374.871794,4454.871794,4517.435897,4123.076923,4488.205128,4160.000000,4456.923076,4247.179487,4244.102564,4526.666666,4223.076923,4649.743589,4002.051282,4055.897435
72,4376.410256,4451.794871,4513.333333,4121.538461,4484.615384,4157.435897,4449.230769,4242.564102,4242.564102,4524.615384,4215.897435,4645.641025,4000.512820,4053.846153
73,4376.923076,4450.769230,4513.846153,4119.487179,4485.641025,4158.461538,4448.717948,4238.461538,4240.000000,4527.179487,4206.153846,4640.000000,4008.205128,4052.307692
74,4373.333333,4453.333333,4514.358974,4118.974358,4486.153846,4159.487179,4451.794871,4239.487179,4239.487179,4529.743589,4207.692307,4643.076923,4013.846153,4054.871794
75,4373.846153,4456.410256,4513.333333,4118.461538,4484.615384,4153.333333,4446.666666,4235.384615,4234.871794,4524.102564,4213.846153,4648.717948,4009.743589,4057.948717
76,4376.410256,4455.384615,4515.384615,4117.435897,4483.589743,4150.256410,4441.025641,4228.717948,4230.256410,4517.948717,4210.256410,4649.230769,3999.487180,4054.871794
77,4375.384615,4450.769230,4516.923076,4118.974358,4482.051282,4150.769230,4444.615384,4228.717948,4231.794871,4517.948717,4205.128205,4647.692307,3992.820513,4054.358974
78,4374.871794,4453.333333,4518.461538,4117.948717,4480.512820,4149.230769,4449.743589,4233.333333,4235.384615,4520.000000,4207.179487,4648.205128,3994.871795,4062.051282
79,4377.948717,4456.410256,4525.128205,4114.358974,4482.564102,4152.307692,4449.230769,4235.384615,4239.487179,4524.102564,4210.769230,4649.743589,3997.948718,4068.205128
80,4376.923076,4448.205128,4528.205128,4113.333333,4482.564102,4153.846153,4445.641025,4230.256410,4237.435897,4525.128205,4206.666666,4645.128205,3992.307693,4067.179487
81,4368.205128,4441.025641,4527.179487,4112.307692,4480.000000,4148.717948,4443.076923,4225.128205,4225.641025,4515.897435,4203.589743,4635.897435,3979.487180,4060.512820
82,4362.051282,4446.666666,4530.256410,4110.256410,4477.948717,4146.153846,4444.615384,4226.153846,4222.051282,4509.743589,4205.641025,4635.384615,3975.384616,4059.487179
83,4367.179487,4451.794871,4534.358974,4113.846153,4481.025641,4149.230769,4448.205128,4232.820512,4234.358974,4518.461538,4206.153846,4641.025641,3985.641026,4065.641025
84,4374.358974,4451.794871,4536.923076,4118.461538,4485.641025,4155.897435,4450.769230,4238.974358,4244.102564,4525.128205,4207.179487,4640.000000,3990.769231,4070.256410
85,4374.871794,4448.205128,4543.076923,4117.948717,4483.589743,4157.435897,4451.282051,4236.410256,4241.025641,4518.974358,4208.717948,4638.461538,3983.589744,4069.743589
86,4370.256410,4442.564102,4546.153846,4114.358974,4478.974358,4152.820512,4448.205128,4230.256410,4232.820512,4511.794871,4206.666666,4640.512820,3978.974359,4067.692307
87,4366.666666,4442.051282,4542.564102,4113.333333,4479.487179,4152.307692,4445.641025,4231.282051,4231.282051,4511.282051,4209.743589,4640.512820,3980.512821,4067.692307
88,4370.256410,4449.743589,4544.615384,4116.410256,4483.076923,4156.410256,4450.256410,4238.461538,4240.000000,4514.871794,4213.333333,4643.076923,3987.179488,4069.743589
89,4378.974358,4453.333333,4552.307692,4123.589743,4485.641025,4158.461538,4459.487179,4242.564102,4241.538461,4518.461538,4210.256410,4648.717948,3992.820513,4074.358974
90,4379.487179,4449.230769,4549.230769,4123.589743,4483.589743,4156.923076,4458.974358,4236.923076,4231.794871,4516.923076,4209.743589,4646.666666,3990.769231,4074.871794
91,4375.384615,4448.205128,4546.666666,4121.025641,4479.487179,4155.384615,4453.333333,4230.769230,4229.230769,4513.846153,4214.871794,4643.076923,3988.717949,4075.384615
92,4378.974358,4451.794871,4555.384615,4125.128205,4479.487179,4156.410256,4454.358974,4234.871794,4238.974358,4517.435897,4220.512820,4649.230769,3994.358975,4078.974358
93,4380.512820,4449.743589,4556.923076,4126.153846,4481.538461,4157.435897,4457.948717,4240.512820,4242.051282,4518.461538,4223.589743,4653.846153,3999.487180,4078.974358
94,4375.897435,4446.666666,4549.743589,4123.589743,4482.564102,4156.410256,4454.358974,4239.487179,4234.871794,4513.333333,4223.589743,4648.205128,3993.333334,4075.897435
95,4375.897435,4449.230769,4549.743589,4121.025641,4479.487179,4153.333333,4453.333333,4234.871794,4229.230769,4515.384615,4214.871794,4645.128205,3986.666667,4073.333333
96,4375.897435,4446.666666,4549.743589,4119.487179,4473.846153,4150.769230,4454.871794,4229.743589,4227.692307,4515.897435,4209.743589,4644.102564,3989.230770,4070.769230
97,4374.358974,4444.102564,4545.641025,4122.564102,4476.410256,4151.282051,4450.769230,4232.307692,4228.717948,4512.307692,4217.948717,4642.564102,3994.871795,4071.794871
98,4376.923076,4449.743589,4548.205128,4125.641025,4482.051282,4153.846153,4449.230769,4236.410256,4229.743589,4514.358974,4219.487179,4645.128205,3992.820513,4071.282051
99,4378.974358,4450.256410,4550.769230,4120.000000,4477.948717,4148.205128,4448.717948,4232.820512,4229.743589,4518.461538,4213.846153,4647.179487,3987.692308,4066.153846
100,4378.974358,4446.666666,4550.256410,4121.025641,4477.435897,4147.692307,4447.692307,4237.435897,4236.410256,4522.564102,4218.461538,4647.692307,3993.333334,4071.794871
101,4383.589743,4452.820512,4556.923076,4132.307692,4483.076923,4157.948717,4451.282051,4248.205128,4244.102564,4528.717948,4226.666666,4655.897435,3997.948718,4085.128205
102,4387.179487,4458.461538,4557.435897,4131.282051,4480.000000,4156.410256,4450.256410,4238.974358,4237.435897,4522.051282,4218.461538,4655.897435,3987.692308,4082.051282
103,4378.461538,4446.153846,4543.589743,4119.487179,4473.333333,4144.615384,4441.538461,4220.512820,4220.000000,4504.615384,4202.564102,4640.000000,3976.923077,4068.717948
104,4373.846153,4444.615384,4543.076923,4117.948717,4476.410256,4146.153846,4437.948717,4224.102564,4221.025641,4507.179487,4205.128205,4640.512820,3987.179488,4067.692307
105,4387.179487,4461.025641,4558.974358,4127.179487,4484.615384,4158.974358,4447.179487,4236.923076,4242.051282,4527.692307,4225.641025,4658.974358,4005.128205,4080.000000
106,4395.384615,4466.666666,4561.025641,4133.333333,4486.153846,4160.512820,4454.871794,4238.974358,4247.179487,4531.794871,4231.794871,4662.564102,4007.692307,4088.205128
107,4389.743589,4461.538461,4550.769230,4130.256410,4485.128205,4156.410256,4452.820512,4236.923076,4235.897435,4518.974358,4221.538461,4653.846153,4002.051282,4086.153846
108,4387.179487,4462.564102,4549.230769,4126.666666,4485.641025,4159.487179,4450.769230,4234.871794,4235.384615,4517.948717,4223.589743,4649.743589,4003.076923,4076.923076
109,4386.666666,4463.076923,4548.205128,4127.179487,4483.589743,4158.461538,4449.230769,4231.282051,4242.564102,4529.230769,4228.717948,4647.692307,4002.564102,4069.743589
110,4384.102564,4461.538461,4545.128205,4125.641025,4479.487179,4155.384615,4449.230769,4232.820512,4241.538461,4532.820512,4225.641025,4648.717948,3999.487180,4075.897435
111,4387.179487,4464.615384,4549.743589,4126.153846,4482.051282,4156.410256,4452.307692,4237.435897,4239.487179,4528.717948,4225.641025,4651.282051,4002.051282,4084.102564
112,4389.230769,4459.487179,4552.820512,4129.230769,4486.153846,4156.410256,4453.333333,4235.384615,4239.487179,4525.641025,4225.641025,4650.769230,4005.641025,4079.487179
113,4381.538461,4451.282051,4543.076923,4123.589743,4481.538461,4151.794871,4447.179487,4227.179487,4232.307692,4520.512820,4218.974358,4647.692307,4006.666666,4071.794871
114,4374.871794,4451.282051,4534.871794,4116.923076,4475.897435,4148.205128,4442.564102,4223.589743,4225.128205,4514.871794,4216.923076,4643.076923,4002.564102,4067.692307
115,4377.948717,4454.871794,4540.512820,4120.512820,4476.923076,4149.230769,4445.128205,4229.743589,4230.769230,4517.435897,4221.025641,4643.076923,3997.435898,4067.179487
116,4382.051282,4453.846153,4541.538461,4120.512820,4481.025641,4150.256410,4450.769230,4235.384615,4238.974358,4523.589743,4222.564102,4649.230769,3997.435898,4069.743589
117,4381.538461,4458.461538,4537.435897,4117.435897,4482.564102,4153.333333,4452.820512,4236.410256,4240.000000,4526.666666,4223.589743,4652.307692,4005.641025,4073.333333
118,4379.487179,4464.102564,4540.000000,4124.102564,4481.025641,4155.384615,4449.230769,4233.333333,4236.410256,4526.666666,4223.589743,4649.743589,4013.333333,4071.794871
119,4378.974358,4460.512820,4542.051282,4129.743589,4478.974358,4152.820512,4446.153846,4229.743589,4237.435897,4525.641025,4221.025641,4651.282051,4009.230769,4071.794871
120,4380.512820,4457.435897,4542.051282,4125.128205,4480.000000,4151.282051,4448.717948,4232.307692,4242.564102,4527.692307,4221.538461,4653.333333,3999.487180,4074.871794
121,4378.461538,4457.948717,4540.000000,4120.000000,4476.923076,4151.282051,4448.717948,4235.384615,4239.487179,4522.564102,4223.076923,4648.205128,3995.384616,4073.333333
122,4376.410256,4454.358974,4536.923076,4118.974358,4473.333333,4151.794871,4448.717948,4231.794871,4235.897435,4517.948717,4221.538461,4645.128205,3998.974359,4070.769230
123,4384.615384,4457.435897,4542.564102,4125.128205,4478.461538,4153.333333,4452.820512,4232.820512,4242.564102,4527.692307,4227.179487,4653.333333,4007.692307,4076.923076
124,4394.358974,4468.205128,4553.846153,4132.307692,4480.512820,4156.410256,4456.410256,4243.076923,4247.692307,4537.435897,4237.435897,4661.025641,4014.358974,4085.128205
125,4390.256410,4464.615384,4551.794871,4128.205128,4476.410256,4152.307692,4453.333333,4240.000000,4242.051282,4531.282051,4236.410256,4656.410256,4012.307692,4081.025641
126,4378.974358,4453.333333,4539.487179,4120.512820,4474.871794,4147.179487,4443.589743,4226.153846,4232.307692,4517.435897,4225.128205,4649.230769,4004.615384,4071.794871
127,4374.358974,4453.333333,4534.358974,4116.923076,4470.769230,4146.153846,4438.461538,4224.615384,4228.717948,4517.435897,4217.435897,4645.128205,4000.512820,4066.153846
128,4376.410256,4455.384615,4538.974358,4115.384615,4470.256410,4146.153846,4442.564102,4231.282051,4233.846153,4525.641025,4219.487179,4642.051282,3998.461539,4065.641025
129,4379.487179,4454.871794,4541.025641,4115.897435,4477.948717,4148.717948,4444.102564,4232.820512,4240.000000,4527.692307,4223.076923,4643.076923,3997.435898,4066.153846
130,4381.025641,4452.307692,4537.435897,4114.358974,4478.974358,4150.769230,4442.564102,4230.256410,4240.512820,4523.076923,4222.564102,4647.692307,3997.948718,4066.153846
131,4384.615384,4450.769230,4541.538461,4111.794871,4476.410256,4149.230769,4448.205128,4234.358974,4240.512820,4523.076923,4225.641025,4649.230769,3998.461539,4070.769230
132,4390.256410,4455.384615,4549.743589,4121.538461,4480.512820,4150.769230,4452.820512,4241.538461,4244.615384,4528.205128,4229.743589,4651.282051,4005.128205,4080.000000
133,4392.307692,4463.589743,4549.743589,4132.307692,4483.589743,4155.384615,4450.256410,4241.538461,4244.102564,4530.769230,4225.641025,4655.384615,4011.794871,4084.102564
134,4388.717948,4461.025641,4544.615384,4125.641025,4483.076923,4153.333333,4448.717948,4234.358974,4238.461538,4525.641025,4219.487179,4652.307692,4004.102564,4076.923076
135,4383.076923,4451.282051,4542.051282,4118.974358,4481.538461,4150.256410,4449.230769,4228.717948,4232.820512,4515.897435,4222.564102,4644.615384,3991.794872,4069.743589
136,4379.487179,4452.307692,4541.025641,4124.615384,4480.000000,4152.820512,4447.179487,4228.205128,4235.384615,4515.897435,4224.102564,4646.153846,3994.871795,4070.256410
137,4380.512820,4454.871794,4541.025641,4127.692307,4481.025641,4152.820512,4447.692307,4229.230769,4243.076923,4523.076923,4214.358974,4649.743589,4003.076923,4070.769230
138,4378.974358,4445.641025,4533.333333,4117.435897,4476.410256,4145.641025,4444.102564,4225.641025,4236.410256,4518.974358,4205.128205,4641.025641,3993.846154,4062.564102
139,4375.384615,4441.538461,4526.666666,4109.230769,4464.615384,4139.487179,4436.923076,4218.974358,4225.641025,4511.282051,4208.717948,4634.358974,3984.615385,4058.461538
140,4378.461538,4448.717948,4532.820512,4115.897435,4466.666666,4140.000000,4437.948717,4217.948717,4229.230769,4514.358974,4218.461538,4642.051282,3992.820513,4065.128205
141,4385.128205,4452.307692,4540.512820,4124.615384,4475.384615,4145.128205,4445.128205,4227.179487,4239.487179,4525.641025,4222.564102,4649.743589,3998.974359,4068.717948
142,4385.128205,4446.153846,4539.487179,4123.589743,4472.820512,4147.179487,4449.230769,4235.897435,4240.512820,4528.717948,4222.051282,4650.769230,3999.487180,4071.794871
143,4384.102564,4440.512820,4540.512820,4122.564102,4474.871794,4148.205128,4450.769230,4240.000000,4238.461538,4521.025641,4223.076923,4653.846153,4006.666666,4077.948717
144,4387.179487,4444.102564,4541.025641,4122.564102,4478.974358,4150.256410,4446.666666,4233.846153,4238.461538,4517.435897,4223.076923,4653.333333,4003.589743,4074.871794
145,4387.179487,4449.230769,4535.897435,4120.000000,4473.846153,4151.282051,4448.717948,4227.692307,4241.025641,4525.641025,4227.692307,4650.769230,3995.897436,4069.743589
146,4389.230769,4452.820512,4538.461538,4125.641025,4476.410256,4155.384615,4460.000000,4240.000000,4250.769230,4535.384615,4232.820512,4659.487179,4006.666666,4076.410256
147,4393.333333,4457.435897,4546.153846,4133.846153,4484.615384,4161.025641,4462.564102,4249.743589,4254.871794,4534.871794,4227.179487,4663.076923,4016.410256,4080.000000
148,4388.717948,4457.435897,4539.487179,4130.256410,4481.538461,4154.358974,4452.820512,4242.051282,4246.153846,4529.743589,4218.461538,4651.282051,4006.153846,4072.820512
149,4380.000000,4449.230769,4530.769230,4121.025641,4472.307692,4146.153846,4449.743589,4231.794871,4240.000000,4523.589743,4220.000000,4645.128205,3996.923077,4068.205128
150,4376.923076,4445.128205,4530.256410,4120.512820,4472.307692,4145.641025,4450.256410,4230.769230,4240.000000,4519.487179,4227.179487,4648.717948,3996.923077,4065.128205
151,4376.923076,4448.717948,4530.769230,4124.102564,4476.410256,4147.179487,4446.666666,4231.794871,4238.461538,4520.512820,4226.153846,4647.692307,3996.410257,4062.564102
152,4375.897435,4449.743589,4529.743589,4124.615384,4477.435897,4148.205128,4448.717948,4234.871794,4240.512820,4521.538461,4215.897435,4647.692307,3997.948718,4066.666666
153,4376.923076,4449.230769,4526.666666,4121.538461,4476.410256,4151.282051,4452.820512,4236.410256,4247.692307,4522.051282,4208.205128,4647.692307,4000.512820,4069.743589
154,4378.461538,4450.256410,4525.128205,4124.102564,4478.461538,4150.256410,4451.282051,4229.230769,4247.179487,4526.153846,4213.846153,4643.076923,3998.461539,4065.641025
155,4380.000000,4453.333333,4528.717948,4130.256410,4482.051282,4150.256410,4448.717948,4227.179487,4242.051282,4525.641025,4226.666666,4645.128205,3998.461539,4066.153846
156,4385.128205,4458.461538,4531.794871,4131.794871,4480.512820,4156.410256,4447.692307,4232.307692,4243.589743,4521.025641,4229.743589,4652.820512,4003.076923,4071.794871
157,4388.717948,4463.589743,4532.307692,4134.871794,4483.076923,4156.410256,4448.717948,4233.846153,4244.615384,4524.102564,4225.641025,4653.333333,4008.717948,4070.256410
158,4388.717948,4466.153846,4533.333333,4135.384615,4487.179487,4153.846153,4451.282051,4235.897435,4244.102564,4529.743589,4223.589743,4652.307692,4013.333333,4069.743589
159,4388.717948,4464.102564,4533.846153,4129.230769,4487.179487,4158.974358,4450.769230,4237.435897,4246.666666,4528.717948,4226.666666,4654.871794,4014.871794,4074.358974
160,4385.128205,4461.025641,4529.743589,4128.205128,4485.641025,4160.512820,4446.153846,4232.307692,4244.615384,4530.256410,4229.743589,4654.871794,4012.820512,4068.205128
161,4378.974358,4461.025641,4526.153846,4129.743589,4483.589743,4154.871794,4447.179487,4231.794871,4240.000000,4530.769230,4227.179487,4652.820512,4010.769230,4062.564102
162,4378.974358,4457.435897,4526.666666,4129.230769,4477.948717,4149.230769,4445.128205,4232.820512,4242.051282,4524.102564,4221.025641,4649.230769,4005.641025,4068.717948
163,4384.102564,4456.923076,4529.743589,4128.717948,4476.410256,4146.153846,4440.000000,4229.743589,4248.717948,4523.589743,4220.000000,4650.256410,4003.589743,4071.794871
164,4382.051282,4463.589743,4531.282051,4131.282051,4477.948717,4148.205128,4444.615384,4231.794871,4247.692307,4530.769230,4223.589743,4655.384615,4010.769230,4070.769230
165,4375.897435,4462.564102,4527.692307,4129.743589,4476.923076,4149.230769,4449.230769,4231.794871,4236.923076,4521.538461,4223.589743,4651.794871,4009.743589,4067.692307
166,4376.410256,4453.846153,4524.615384,4126.153846,4476.410256,4143.589743,4443.589743,4221.538461,4230.256410,4510.769230,4222.051282,4647.692307,4001.538461,4061.025641
167,4380.000000,4453.846153,4526.666666,4124.102564,4473.846153,4143.076923,4444.615384,4221.538461,4235.384615,4516.923076,4217.435897,4652.307692,4004.615384,4061.025641
168,4380.000000,4455.384615,4530.769230,4124.615384,4473.333333,4150.256410,4453.333333,4229.230769,4238.974358,4520.000000,4214.358974,4654.871794,4009.743589,4068.717948
169,4378.461538,4449.743589,4528.205128,4125.641025,4477.435897,4148.205128,4450.256410,4229.230769,4236.410256,4515.897435,4219.487179,4649.743589,4008.717948,4064.615384
170,4377.948717,4450.256410,4521.025641,4121.538461,4476.923076,4144.102564,4440.000000,4226.153846,4236.410256,4523.076923,4222.051282,4648.717948,4006.153846,4055.384615
171,4378.461538,4455.384615,4523.589743,4123.076923,4474.871794,4150.769230,4443.076923,4222.051282,4238.974358,4531.282051,4219.487179,4652.820512,4009.743589,4060.512820
172,4378.461538,4455.897435,4526.153846,4126.666666,4478.974358,4154.871794,4453.333333,4222.051282,4237.948717,4526.666666,4217.948717,4652.307692,4011.794871,4066.666666
173,4374.871794,4453.846153,4520.512820,4120.512820,4483.076923,4149.230769,4453.333333,4224.102564,4231.282051,4516.410256,4212.820512,4646.666666,4004.102564,4059.487179
174,4377.435897,4451.282051,4522.051282,4122.564102,4480.000000,4148.717948,4446.153846,4224.615384,4229.230769,4514.358974,4212.307692,4648.205128,4001.025641,4058.974358
175,4386.666666,4452.820512,4527.179487,4135.384615,4477.435897,4150.769230,4444.102564,4225.641025,4235.897435,4520.512820,4223.589743,4654.358974,4011.794871,4069.230769
176,4388.205128,4457.435897,4525.128205,4135.384615,4477.435897,4147.692307,4444.102564,4229.230769,4240.000000,4526.153846,4223.076923,4653.846153,4011.794871,4068.205128
177,4382.051282,4460.000000,4523.589743,4128.205128,4475.897435,4148.717948,4448.717948,4232.820512,4241.025641,4525.641025,4212.820512,4651.794871,4003.589743,4061.025641
178,4376.923076,4452.820512,4521.538461,4128.205128,4474.871794,4149.743589,4451.794871,4231.282051,4235.384615,4517.948717,4208.205128,4647.179487,4001.025641,4061.025641
179,4376.410256,4445.128205,4513.846153,4125.641025,4473.333333,4146.153846,4446.153846,4226.666666,4226.153846,4510.256410,4204.615384,4640.512820,3998.461539,4057.435897
180,4378.461538,4446.666666,4514.871794,4119.487179,4471.794871,4146.666666,4446.666666,4228.205128,4229.743589,4513.846153,4205.641025,4644.615384,4002.051282,4054.358974
181,4382.051282,4451.794871,4527.179487,4122.051282,4475.897435,4151.794871,4453.333333,4236.923076,4242.564102,4528.205128,4217.435897,4655.384615,4012.307692,4067.179487
182,4386.153846,4454.358974,4528.205128,4128.205128,4481.025641,4151.282051,4451.282051,4238.461538,4248.717948,4538.974358,4226.153846,4658.974358,4017.435897,4078.461538
183,4386.153846,4450.256410,4520.000000,4128.717948,4476.410256,4146.153846,4443.589743,4231.794871,4246.153846,4538.974358,4228.205128,4655.897435,4019.487179,4073.333333
184,4385.641025,4447.179487,4522.051282,4129.743589,4471.794871,4145.641025,4445.128205,4231.282051,4243.589743,4533.333333,4233.846153,4655.897435,4023.589743,4069.230769
185,4388.205128,4452.307692,4525.128205,4135.897435,4475.897435,4150.769230,4453.846153,4237.948717,4245.128205,4532.307692,4235.384615,4660.000000,4028.717948,4072.820512
186,4387.179487,4456.410256,4522.564102,4133.333333,4480.000000,4153.846153,4455.897435,4239.487179,4249.743589,4537.435897,4230.769230,4661.538461,4032.820512,4071.794871
187,4378.974358,4451.794871,4521.538461,4125.128205,4478.974358,4149.743589,4450.256410,4234.871794,4247.179487,4537.435897,4228.205128,4659.487179,4031.282051,4068.205128
188,4375.897435,4446.153846,4521.025641,4127.692307,4474.358974,4146.153846,4451.282051,4236.923076,4241.025641,4534.871794,4227.692307,4657.435897,4025.641025,4068.205128
189,4382.564102,4446.666666,4520.000000,4134.358974,4473.333333,4151.282051,4459.487179,4242.051282,4244.615384,4539.487179,4232.307692,4657.435897,4026.153846,4068.205128
190,4386.666666,4452.307692,4525.128205,4133.333333,4481.538461,4154.871794,4457.435897,4237.435897,4247.692307,4542.564102,4236.410256,4660.000000,4028.205128,4066.666666
191,4385.128205,4454.358974,4530.256410,4130.769230,4484.615384,4152.820512,4454.358974,4231.794871,4243.076923,4533.846153,4230.256410,4662.051282,4027.179487,4068.205128
192,4385.641025,4454.358974,4528.205128,4133.846153,4481.538461,4155.384615,4460.512820,4233.846153,4242.051282,4528.205128,4220.000000,4662.564102,4026.153846,4074.358974
193,4384.102564,4454.871794,4523.076923,4136.923076,4483.076923,4158.461538,4458.461538,4230.769230,4243.076923,4531.794871,4220.512820,4661.538461,4025.128205,4074.358974
194,4378.974358,4451.794871,4520.512820,4132.820512,4482.564102,4154.358974,4452.820512,4226.666666,4238.461538,4529.230769,4224.102564,4657.435897,4023.589743,4065.128205
195,4379.487179,4447.692307,4526.666666,4129.230769,4478.461538,4154.358974,4457.948717,4234.871794,4242.051282,4524.615384,4224.102564,4658.461538,4021.025641,4062.564102
196,4388.717948,4451.282051,4533.333333,4132.307692,4481.538461,4161.025641,4463.589743,4250.769230,4256.410256,4535.384615,4225.641025,4668.717948,4021.538461,4071.282051
197,4390.769230,4455.897435,4531.282051,4137.435897,4484.615384,4161.538461,4462.051282,4255.384615,4260.000000,4545.641025,4228.717948,4671.794871,4026.153846,4074.358974
198,4383.076923,4451.794871,4525.128205,4134.358974,4483.589743,4159.487179,4462.564102,4246.153846,4252.820512,4539.487179,4229.230769,4665.641025,4027.692307,4068.717948
199,4380.000000,4449.230769,4521.025641,4130.256410,4487.179487,4163.076923,4465.128205,4244.615384,4251.282051,4532.307692,4231.282051,4665.641025,4024.102564,4066.153846
200,4386.666666,4453.333333,4525.641025,4130.769230,4494.358974,4167.179487,4466.153846,4251.282051,4256.410256,4536.923076,4232.820512,4668.717948,4021.538461,4067.179487
201,4391.282051,4457.948717,4530.769230,4131.794871,4495.897435,4164.615384,4466.666666,4252.307692,4261.025641,4544.615384,4228.205128,4666.666666,4019.487179,4069.743589
202,4385.641025,4460.000000,4528.205128,4131.794871,4493.846153,4160.512820,4463.589743,4250.256410,4258.974358,4545.128205,4227.179487,4663.589743,4018.461538,4072.820512
203,4381.538461,4455.897435,4528.717948,4133.333333,4490.769230,4160.512820,4458.461538,4248.205128,4253.846153,4539.487179,4230.256410,4663.076923,4017.948717,4073.333333
204,4384.102564,4457.435897,4533.333333,4131.282051,4490.769230,4164.102564,4459.487179,4239.487179,4251.794871,4534.871794,4228.717948,4665.641025,4011.282051,4073.846153
205,4383.589743,4463.076923,4532.307692,4127.179487,4495.897435,4163.589743,4461.538461,4232.307692,4245.641025,4528.717948,4220.512820,4659.487179,4000.000000,4074.358974
206,4377.435897,4459.487179,4531.282051,4126.666666,4497.948717,4163.076923,4458.461538,4235.897435,4238.974358,4521.538461,4214.871794,4646.153846,3992.307693,4070.769230
207,4375.897435,4455.384615,4538.461538,4128.205128,4494.358974,4168.717948,4457.948717,4237.435897,4247.179487,4527.692307,4217.435897,4646.153846,3992.820513,4066.153846
208,4382.051282,4458.461538,4544.615384,4129.230769,4495.384615,4170.256410,4459.487179,4238.461538,4256.410256,4536.410256,4222.051282,4655.384615,4001.025641,4072.307692
209,4385.128205,4461.025641,4550.256410,4133.333333,4497.948717,4166.666666,4458.461538,4243.589743,4254.871794,4535.384615,4222.564102,4656.410256,4005.641025,4081.538461
210,4387.179487,4463.589743,4560.000000,4134.871794,4496.923076,4164.102564,4457.948717,4243.589743,4253.333333,4533.846153,4218.974358,4656.923076,4006.153846,4081.025641
211,4392.820512,4468.205128,4564.615384,4134.358974,4496.410256,4165.641025,4459.487179,4241.538461,4251.282051,4536.410256,4221.025641,4659.487179,4008.717948,4080.512820
212,4397.435897,4465.641025,4563.076923,4138.974358,4497.435897,4172.307692,4459.487179,4246.666666,4251.282051,4538.461538,4232.307692,4658.461538,4009.743589,4089.230769
213,4396.410256,4463.076923,4564.102564,4141.025641,4497.948717,4173.846153,4462.051282,4254.871794,4259.487179,4545.128205,4233.846153,4660.512820,4008.717948,4092.820512
214,4395.897435,4460.000000,4567.692307,4133.846153,4498.461538,4165.641025,4467.179487,4256.923076,4266.666666,4549.743589,4229.230769,4665.641025,4011.282051,4087.179487
215,4396.923076,4453.846153,4566.153846,4128.205128,4495.384615,4163.589743,4466.666666,4252.307692,4264.102564,4547.692307,4232.307692,4666.666666,4017.948717,4091.282051
216,4390.256410,4449.743589,4560.000000,4126.666666,4488.717948,4167.692307,4463.076923,4247.692307,4258.461538,4543.589743,4233.333333,4661.025641,4015.384615,4090.769230
217,4381.025641,4443.589743,4555.384615,4124.615384,4487.179487,4164.102564,4458.461538,4244.615384,4256.410256,4541.025641,4228.205128,4651.794871,4003.076923,4075.897435
218,4386.153846,4445.128205,4557.435897,4129.743589,4488.717948,4160.512820,4455.897435,4245.641025,4258.461538,4542.051282,4232.307692,4652.820512,4001.025641,4074.358974
219,4394.871794,4454.871794,4563.076923,4134.871794,4487.692307,4164.102564,4457.435897,4250.769230,4259.487179,4543.589743,4241.025641,4661.538461,4010.769230,4085.128205
220,4390.256410,4456.923076,4560.000000,4128.205128,4491.794871,4164.615384,4458.461538,4252.307692,4255.897435,4541.025641,4236.923076,4657.435897,4015.384615,4081.538461
221,4381.538461,4453.846153,4551.282051,4127.692307,4495.384615,4164.102564,4455.897435,4248.205128,4253.846153,4540.000000,4230.256410,4648.205128,4011.794871,4071.794871
222,4382.051282,4455.384615,4551.282051,4137.435897,4493.846153,4165.641025,4455.897435,4245.641025,4254.871794,4536.923076,4231.282051,4650.769230,4007.692307,4074.358974
223,4389.230769,4455.897435,4558.974358,4136.923076,4495.384615,4167.692307,4460.000000,4249.230769,4255.384615,4533.333333,4233.333333,4656.923076,4006.153846,4082.564102
224,4393.846153,4460.000000,4563.589743,4132.820512,4500.512820,4166.666666,4460.512820,4251.282051,4258.461538,4538.974358,4235.897435,4658.974358,4011.282051,4086.153846
225,4390.769230,4465.641025,4560.512820,4138.461538,4497.948717,4163.076923,4454.358974,4245.641025,4258.974358,4547.179487,4235.384615,4659.487179,4015.897435,4084.615384
226,4388.717948,4459.487179,4557.948717,4139.487179,4489.743589,4159.487179,4448.205128,4240.000000,4248.717948,4540.000000,4230.769230,4655.897435,4010.256410,4082.564102
227,4393.333333,4457.435897,4561.025641,4138.461538,4488.717948,4156.923076,4446.153846,4236.410256,4236.410256,4523.589743,4230.769230,4653.846153,4004.102564,4082.564102
228,4392.307692,4464.615384,4561.025641,4136.923076,4492.307692,4158.974358,4447.692307,4232.307692,4235.384615,4517.435897,4235.897435,4654.358974,4001.025641,4080.512820
229,4387.179487,4463.589743,4556.410256,4131.794871,4492.820512,4162.564102,4449.230769,4231.282051,4237.948717,4522.564102,4228.205128,4653.333333,3995.897436,4077.435897
230,4390.256410,4462.051282,4556.923076,4135.384615,4493.846153,4161.025641,4448.717948,4235.384615,4237.435897,4528.717948,4216.923076,4653.846153,4000.512820,4076.923076
231,4392.307692,4469.743589,4562.564102,4144.102564,4491.794871,4157.948717,4448.205128,4239.487179,4236.410256,4526.153846,4224.615384,4657.435897,4014.871794,4078.974358
232,4393.846153,4473.333333,4564.615384,4144.102564,4488.717948,4160.512820,4447.692307,4238.461538,4244.615384,4522.051282,4235.384615,4658.974358,4016.410256,4083.589743
233,4397.948717,4470.256410,4563.076923,4140.000000,4491.794871,4163.076923,4446.666666,4239.487179,4249.743589,4527.692307,4235.897435,4658.461538,4011.794871,4088.205128
234,4394.358974,4468.205128,4560.000000,4140.512820,4491.794871,4159.487179,4445.641025,4241.025641,4245.128205,4531.794871,4229.743589,4655.384615,4014.871794,4082.564102
235,4389.230769,4467.179487,4557.435897,4137.435897,4486.666666,4158.461538,4446.153846,4240.000000,4245.128205,4526.666666,4222.564102,4654.358974,4016.923076,4075.897435
236,4391.794871,4465.128205,4556.410256,4134.871794,4486.153846,4158.461538,4447.692307,4240.512820,4250.769230,4529.230769,4226.666666,4657.948717,4016.410256,4079.487179
237,4385.641025,4457.435897,4551.282051,4128.205128,4488.205128,4155.897435,4445.641025,4238.461538,4247.692307,4531.794871,4233.846153,4653.846153,4015.897435,4077.435897
238,4376.410256,4454.871794,4545.641025,4120.000000,4485.641025,4156.410256,4444.615384,4235.897435,4242.051282,4524.102564,4228.717948,4644.615384,4018.974358,4072.307692
239,4384.615384,4466.153846,4547.179487,4126.153846,4486.153846,4161.025641,4451.282051,4239.487179,4247.179487,4528.205128,4227.179487,4651.282051,4028.717948,4077.435897
240,4394.871794,4473.846153,4555.897435,4136.410256,4492.820512,4165.641025,4454.871794,4245.128205,4256.410256,4542.051282,4234.871794,4665.641025,4037.948717,4081.538461
241,4389.230769,4469.743589,4557.948717,4133.846153,4494.871794,4160.000000,4449.743589,4243.589743,4252.820512,4538.461538,4237.435897,4665.641025,4030.769230,4077.948717
242,4382.564102,4464.102564,4549.230769,4127.692307,4486.153846,4149.743589,4446.153846,4237.435897,4240.000000,4525.641025,4238.974358,4657.435897,4017.948717,4075.384615
243,4385.641025,4461.538461,4544.615384,4130.769230,4479.487179,4147.692307,4447.179487,4235.897435,4237.948717,4525.641025,4241.538461,4656.923076,4021.538461,4076.923076
244,4388.717948,4463.076923,4551.282051,4129.230769,4483.589743,4150.256410,4446.666666,4238.974358,4249.230769,4532.820512,4231.794871,4659.487179,4029.743589,4079.487179
245,4387.692307,4465.128205,4553.846153,4123.589743,4486.666666,4152.307692,4445.128205,4243.589743,4252.307692,4534.358974,4222.564102,4663.076923,4029.743589,4082.051282
246,4389.743589,4460.512820,4551.282051,4129.230769,4485.128205,4154.871794,4447.179487,4243.589743,4252.307692,4534.871794,4234.871794,4666.153846,4030.256410,4083.076923
247,4392.307692,4455.897435,4552.820512,4133.333333,4484.102564,4157.435897,4452.820512,4243.076923,4260.000000,4539.487179,4248.205128,4665.128205,4030.769230,4082.564102
248,4390.256410,4458.974358,4550.256410,4128.205128,4484.615384,4157.948717,4455.897435,4250.256410,4263.076923,4545.128205,4244.615384,4664.615384,4031.794871,4078.461538
249,4387.179487,4458.461538,4545.128205,4128.717948,4484.615384,4156.923076,4454.358974,4255.897435,4255.897435,4540.000000,4237.435897,4663.076923,4030.256410,4071.794871
250,4385.641025,4453.846153,4547.179487,4132.820512,4483.076923,4154.358974,4455.897435,4255.384615,4253.846153,4532.307692,4236.923076,4657.948717,4022.564102,4071.282051
251,4381.025641,4453.846153,4547.692307,4130.769230,4483.589743,4153.333333,4460.000000,4255.897435,4260.512820,4534.871794,4240.000000,4654.871794,4017.948717,4070.256410
252,4376.923076,4454.871794,4540.512820,4129.230769,4484.615384,4155.897435,4457.948717,4256.410256,4259.487179,4538.974358,4241.538461,4654.358974,4020.000000,4062.051282
253,4376.923076,4452.307692,4541.025641,4129.230769,4485.641025,4157.435897,4455.897435,4254.358974,4256.410256,4534.871794,4235.384615,4653.333333,4015.384615,4061.538461
254,4375.384615,4446.666666,4540.000000,4125.128205,4485.641025,4157.435897,4456.410256,4252.820512,4256.410256,4527.179487,4225.128205,4648.717948,4005.641025,4064.615384
255,4374.358974,4450.256410,4534.358974,4127.179487,4486.666666,4157.948717,4457.435897,4253.333333,4256.410256,4525.641025,4225.641025,4646.666666,4009.743589,4063.589743
256,4381.025641,4463.076923,4541.538461,4135.384615,4494.358974,4164.615384,4468.205128,4260.512820,4262.051282,4536.410256,4241.025641,4656.410256,4020.000000,4069.230769
257,4383.589743,4465.128205,4549.230769,4135.897435,4496.923076,4166.153846,4474.871794,4263.076923,4265.641025,4544.102564,4245.641025,4661.538461,4023.589743,4073.333333
258,4380.000000,4452.307692,4542.564102,4128.205128,4487.692307,4158.461538,4462.051282,4256.923076,4258.974358,4536.410256,4231.282051,4655.897435,4022.564102,4067.692307
259,4377.948717,4450.256410,4536.410256,4127.692307,4482.564102,4152.307692,4453.846153,4254.358974,4258.974358,4529.230769,4222.564102,4653.846153,4020.000000,4064.102564
