,AF3,F7,F3,FC5,T7,P7,O1,O2,P8,T8,FC6,F4,F8,AF4
0,4405.128205,4571.282051,4536.410256,4269.230769,4522.051282,4209.230769,4444.102564,4202.564102,4238.461538,4512.307692,4225.641025,4638.974358,4000.000000,4057.948717
1,4413.846153,4580.000000,4542.564102,4284.102564,4525.128205,4210.769230,4443.589743,4209.230769,4244.102564,4521.538461,4228.205128,4643.076923,4008.205128,4060.512820
2,4411.794871,4580.512820,4543.589743,4292.307692,4523.076923,4209.743589,4446.666666,4207.692307,4245.128205,4524.615384,4226.153846,4646.153846,4018.461538,4065.641025
3,4411.282051,4583.589743,4544.102564,4287.179487,4522.051282,4210.769230,4452.307692,4212.820512,4247.692307,4522.051282,4229.230769,4651.282051,4024.615384,4071.282051
4,4412.820512,4581.538461,4543.076923,4271.282051,4524.615384,4211.794871,4448.205128,4213.846153,4247.179487,4516.410256,4224.615384,4648.717948,4013.846153,4063.589743
5,4414.358974,4574.358974,4541.538461,4268.205128,4523.076923,4209.743589,4450.256410,4208.717948,4241.538461,4515.384615,4218.461538,4643.076923,4004.615384,4062.564102
6,4412.307692,4573.846153,4541.025641,4280.512820,4522.564102,4210.256410,4454.871794,4206.666666,4240.512820,4521.538461,4223.589743,4643.076923,4013.846153,4071.282051
7,4407.692307,4571.794871,4537.948717,4281.538461,4525.641025,4209.743589,4448.205128,4202.051282,4235.384615,4520.000000,4225.641025,4639.487179,4020.512820,4066.666666
8,4407.692307,4564.102564,4537.948717,4274.871794,4524.615384,4209.230769,4445.641025,4194.871794,4228.717948,4513.846153,4224.102564,4639.487179,4013.846153,4058.461538
9,4413.333333,4570.769230,4548.205128,4279.487179,4524.102564,4216.410256,4456.923076,4201.025641,4235.384615,4518.461538,4233.846153,4650.256410,4012.307692,4066.153846
10,4413.333333,4580.000000,4551.794871,4281.538461,4526.153846,4217.948717,4459.487179,4209.230769,4242.564102,4522.051282,4236.410256,4654.358974,4012.307692,4074.358974
11,4409.230769,4574.871794,4544.102564,4270.769230,4521.538461,4211.794871,4453.333333,4204.615384,4237.435897,4511.794871,4222.051282,4644.615384,4010.769230,4068.717948
12,4410.769230,4571.282051,4542.051282,4269.230769,4525.641025,4211.794871,4455.897435,4200.512820,4233.846153,4504.102564,4216.410256,4640.512820,4019.487179,4063.589743
13,4415.384615,4576.923076,4546.666666,4284.102564,4534.871794,4216.410256,4459.487179,4205.128205,4238.461538,4509.743589,4227.179487,4647.179487,4023.589743,4065.128205
14,4414.358974,4577.435897,4547.179487,4287.692307,4531.794871,4215.384615,4454.358974,4208.205128,4238.974358,4513.333333,4228.717948,4647.179487,4010.256410,4066.153846
15,4408.717948,4569.743589,4543.076923,4270.769230,4528.205128,4209.230769,4446.666666,4199.487179,4229.743589,4505.128205,4217.948717,4638.974358,4000.512820,4058.974358
16,4407.179487,4567.179487,4541.538461,4266.666666,4527.692307,4211.282051,4445.641025,4195.384615,4232.307692,4500.512820,4214.358974,4637.948717,4009.230769,4055.897435
17,4408.717948,4570.256410,4543.589743,4280.000000,4523.076923,4215.384615,4451.794871,4207.692307,4250.256410,4509.230769,4218.974358,4643.589743,4022.564102,4061.025641
18,4410.256410,4570.256410,4543.076923,4281.538461,4526.666666,4215.384615,4455.384615,4215.897435,4253.333333,4520.000000,4226.666666,4644.615384,4018.461538,4061.025641
19,4411.794871,4570.769230,4542.564102,4282.564102,4536.923076,4215.384615,4453.846153,4206.666666,4242.564102,4524.102564,4235.384615,4644.615384,4013.333333,4056.923076
20,4414.358974,4582.564102,4550.256410,4297.948717,4540.000000,4217.435897,4453.846153,4204.102564,4242.564102,4521.538461,4235.384615,4652.307692,4024.102564,4062.564102
21,4416.923076,4590.256410,4556.923076,4304.102564,4535.897435,4217.435897,4455.897435,4213.333333,4251.794871,4516.923076,4227.692307,4654.358974,4028.205128,4068.717948
22,4415.897435,4580.512820,4550.256410,4290.769230,4531.794871,4216.923076,4451.794871,4211.794871,4252.307692,4516.923076,4227.179487,4649.230769,4022.051282,4063.589743
23,4414.871794,4575.384615,4544.102564,4281.025641,4527.179487,4217.435897,4446.666666,4208.205128,4250.256410,4523.589743,4234.871794,4653.333333,4023.589743,4062.564102
24,4411.794871,4579.487179,4545.641025,4280.512820,4527.179487,4212.307692,4444.615384,4211.794871,4248.205128,4523.589743,4238.974358,4655.897435,4020.000000,4064.102564
25,4407.692307,4572.820512,4544.102564,4286.666666,4525.128205,4209.230769,4440.512820,4205.128205,4245.128205,4512.307692,4234.358974,4647.692307,4008.205128,4055.897435
26,4409.230769,4564.102564,4543.589743,4294.871794,4523.076923,4210.769230,4437.435897,4197.948717,4242.051282,4501.025641,4222.564102,4647.179487,4011.282051,4054.358974
27,4412.820512,4569.230769,4545.128205,4290.256410,4524.102564,4210.256410,4443.589743,4202.564102,4239.487179,4498.974358,4211.282051,4650.769230,4017.948717,4064.615384
28,4410.256410,4571.794871,4542.051282,4278.461538,4523.076923,4207.179487,4445.128205,4202.564102,4239.487179,4501.538461,4211.282051,4642.051282,4011.794871,4062.564102
29,4404.102564,4562.564102,4535.384615,4275.897435,4522.564102,4205.128205,4442.051282,4196.410256,4238.974358,4502.564102,4220.512820,4638.461538,4007.692307,4051.282051
30,4407.692307,4561.538461,4535.897435,4276.923076,4523.076923,4207.692307,4444.102564,4201.538461,4240.512820,4504.615384,4229.230769,4646.153846,4012.307692,4052.307692
31,4412.820512,4568.205128,4542.051282,4275.897435,4523.589743,4213.846153,4447.179487,4209.230769,4244.102564,4507.179487,4226.153846,4649.743589,4015.384615,4060.512820
32,4404.102564,4564.615384,4541.025641,4278.974358,4524.102564,4212.307692,4447.179487,4206.666666,4243.589743,4502.051282,4219.487179,4646.153846,4008.717948,4059.487179
33,4388.717948,4549.743589,4534.871794,4277.435897,4520.512820,4202.051282,4443.589743,4203.076923,4240.000000,4495.897435,4215.384615,4637.948717,3994.871795,4045.128205
34,4392.307692,4547.692307,4536.923076,4274.871794,4518.461538,4196.923076,4440.512820,4206.666666,4245.128205,4504.615384,4209.743589,4636.410256,3998.974359,4040.512820
35,4409.743589,4564.615384,4546.153846,4284.102564,4521.025641,4208.205128,4443.589743,4212.307692,4254.358974,4515.897435,4207.692307,4645.128205,4014.871794,4054.358974
36,4410.256410,4571.794871,4545.641025,4288.205128,4523.589743,4213.846153,4451.794871,4214.871794,4251.282051,4509.230769,4216.923076,4645.128205,4007.692307,4058.974358
37,4398.974358,4560.512820,4538.461538,4279.487179,4524.102564,4207.692307,4452.307692,4213.333333,4247.179487,4502.051282,4226.153846,4637.435897,3992.307693,4047.179487
38,4396.923076,4558.974358,4534.871794,4277.948717,4523.076923,4207.692307,4446.666666,4211.282051,4246.153846,4507.692307,4221.538461,4637.435897,3998.974359,4043.589743
39,4398.461538,4567.179487,4531.794871,4282.051282,4522.051282,4210.769230,4443.589743,4207.692307,4241.025641,4505.641025,4207.179487,4636.923076,4006.153846,4044.615384
40,4395.897435,4563.076923,4528.205128,4282.564102,4521.538461,4207.692307,4444.102564,4206.153846,4239.487179,4493.333333,4203.076923,4632.820512,4001.025641,4040.512820
41,4398.974358,4561.538461,4532.820512,4285.641025,4521.538461,4209.743589,4447.179487,4211.282051,4245.128205,4497.948717,4219.487179,4638.974358,4010.256410,4045.641025
42,4403.076923,4569.743589,4537.435897,4287.179487,4524.615384,4214.358974,4449.743589,4214.871794,4246.666666,4508.205128,4226.153846,4642.564102,4017.948717,4049.230769
43,4395.897435,4562.051282,4527.692307,4281.025641,4526.153846,4209.743589,4444.615384,4206.153846,4237.435897,4501.025641,4207.692307,4630.256410,3993.333334,4035.384615
44,4391.282051,4551.794871,4522.564102,4275.384615,4521.538461,4204.102564,4438.974358,4197.435897,4229.743589,4494.871794,4200.512820,4622.051282,3977.435898,4028.717948
45,4396.410256,4556.410256,4528.717948,4278.461538,4521.025641,4205.641025,4441.538461,4202.051282,4233.846153,4498.461538,4213.846153,4629.743589,4001.025641,4039.487179
46,4398.461538,4561.538461,4530.769230,4284.615384,4525.128205,4205.641025,4444.615384,4208.717948,4243.589743,4497.948717,4222.051282,4638.461538,4021.025641,4047.179487
47,4396.923076,4556.410256,4531.794871,4280.512820,4523.076923,4204.615384,4445.128205,4210.769230,4250.769230,4504.615384,4221.025641,4637.435897,4013.846153,4044.615384
48,4396.923076,4550.769230,4533.846153,4267.692307,4519.487179,4201.025641,4445.128205,4206.153846,4251.282051,4512.820512,4221.025641,4631.794871,3994.358975,4045.641025
49,4395.897435,4545.641025,4530.256410,4262.051282,4520.000000,4196.410256,4438.461538,4198.974358,4243.076923,4498.461538,4209.230769,4631.282051,3983.076924,4049.230769
50,4394.871794,4540.512820,4526.666666,4265.641025,4518.974358,4197.948717,4429.230769,4197.948717,4234.871794,4489.230769,4196.923076,4632.307692,3988.205129,4048.717948
51,4397.948717,4543.076923,4531.282051,4265.128205,4520.000000,4201.538461,4430.256410,4201.538461,4240.000000,4507.692307,4208.205128,4631.282051,3995.897436,4053.846153
52,4400.000000,4546.153846,4530.769230,4263.589743,4523.076923,4201.025641,4432.820512,4199.487179,4245.128205,4514.358974,4222.564102,4631.794871,3988.717949,4060.512820
53,4395.384615,4541.538461,4522.051282,4263.589743,4521.025641,4194.358974,4423.076923,4188.205128,4239.487179,4497.435897,4209.743589,4627.179487,3972.307693,4053.846153
54,4393.333333,4537.948717,4521.538461,4260.000000,4518.974358,4193.846153,4417.948717,4187.179487,4236.410256,4488.717948,4196.410256,4622.564102,3969.743590,4049.230769
55,4401.025641,4543.589743,4531.282051,4263.589743,4524.615384,4203.076923,4431.282051,4199.487179,4239.487179,4496.410256,4211.794871,4631.282051,3985.641026,4060.000000
56,4401.538461,4543.076923,4532.820512,4266.666666,4526.666666,4205.128205,4442.564102,4203.589743,4238.974358,4505.128205,4225.641025,4636.923076,3988.205129,4063.076923
57,4392.820512,4531.794871,4521.538461,4253.846153,4520.000000,4197.948717,4435.897435,4197.948717,4235.897435,4502.564102,4213.846153,4627.179487,3968.717949,4051.282051
58,4393.333333,4528.205128,4518.974358,4249.230769,4519.487179,4198.974358,4431.794871,4200.000000,4235.897435,4497.435897,4206.153846,4622.051282,3964.615385,4050.769230
59,4400.000000,4533.333333,4526.153846,4262.564102,4528.205128,4209.230769,4441.025641,4208.717948,4240.000000,4497.435897,4211.794871,4627.692307,3982.051283,4058.974358
60,4400.000000,4533.846153,4523.589743,4266.153846,4526.666666,4209.230769,4443.589743,4207.692307,4242.564102,4497.948717,4208.717948,4627.179487,3990.256411,4056.923076
61,4395.384615,4526.666666,4517.435897,4256.923076,4519.487179,4204.102564,4437.435897,4201.538461,4237.435897,4497.435897,4208.205128,4624.102564,3985.128206,4050.769230
62,4388.717948,4518.974358,4515.384615,4258.974358,4519.487179,4204.102564,4438.461538,4198.461538,4229.743589,4500.000000,4211.282051,4621.538461,3975.897436,4046.666666
63,4389.743589,4523.589743,4515.897435,4265.128205,4522.564102,4205.641025,4442.564102,4199.487179,4229.230769,4502.564102,4206.666666,4620.512820,3975.897436,4044.615384
64,4404.102564,4540.000000,4524.102564,4266.666666,4528.205128,4211.282051,4444.615384,4207.179487,4241.538461,4504.615384,4212.307692,4632.307692,3989.743590,4051.794871
65,4411.794871,4548.717948,4530.769230,4265.641025,4536.923076,4218.974358,4446.153846,4210.769230,4250.769230,4506.666666,4226.666666,4645.641025,3992.820513,4058.461538
66,4404.615384,4543.076923,4526.153846,4263.589743,4538.461538,4219.487179,4443.589743,4209.743589,4245.128205,4501.538461,4221.538461,4645.641025,3985.641026,4055.384615
67,4400.000000,4534.358974,4527.179487,4273.333333,4528.717948,4213.333333,4442.051282,4209.743589,4239.487179,4501.025641,4207.179487,4644.102564,3990.256411,4052.820512
68,4401.025641,4528.717948,4534.871794,4282.051282,4523.076923,4210.769230,4446.153846,4209.743589,4240.512820,4511.282051,4216.923076,4650.256410,3997.435898,4056.410256
69,4399.487179,4526.666666,4528.205128,4271.282051,4523.589743,4208.717948,4445.128205,4206.153846,4233.846153,4506.153846,4220.000000,4654.358974,3988.205129,4053.333333
70,4396.410256,4531.282051,4523.589743,4260.512820,4518.974358,4203.589743,4441.025641,4202.564102,4225.128205,4491.282051,4203.076923,4650.769230,3981.025642,4048.717948
71,4399.487179,4533.846153,4530.769230,4266.153846,4518.461538,4202.564102,4443.076923,4207.692307,4232.820512,4496.923076,4206.666666,4653.846153,3985.128206,4054.358974
72,4402.564102,4532.820512,4531.282051,4263.589743,4520.000000,4204.102564,4442.051282,4208.717948,4237.948717,4508.717948,4225.641025,4662.564102,3986.153847,4057.435897
73,4404.615384,4538.461538,4531.282051,4255.384615,4512.820512,4205.128205,4436.923076,4204.615384,4234.358974,4507.179487,4226.666666,4667.692307,3986.666667,4056.410256
74,4407.179487,4541.538461,4539.487179,4264.615384,4510.256410,4206.666666,4440.512820,4211.794871,4244.615384,4512.820512,4219.487179,4670.256410,3996.923077,4058.461538
75,4404.102564,4533.333333,4536.923076,4268.717948,4517.948717,4205.641025,4442.051282,4218.461538,4251.282051,4522.051282,4220.000000,4672.820512,4002.564102,4057.948717
76,4400.512820,4528.205128,4531.282051,4260.512820,4519.487179,4203.076923,4435.384615,4212.307692,4240.512820,4512.820512,4220.512820,4674.871794,4000.000000,4054.358974
77,4406.153846,4537.948717,4538.974358,4267.179487,4513.846153,4205.128205,4437.948717,4213.333333,4241.538461,4509.230769,4235.384615,4681.538461,4006.666666,4057.948717
78,4414.871794,4546.666666,4545.128205,4278.461538,4518.461538,4208.205128,4448.205128,4226.666666,4258.974358,4520.512820,4254.358974,4690.769230,4016.923076,4065.128205
79,4415.384615,4540.512820,4539.487179,4272.307692,4520.512820,4204.615384,4447.179487,4226.153846,4262.564102,4521.025641,4236.923076,4687.179487,4008.717948,4062.051282
80,4405.641025,4537.435897,4534.358974,4261.538461,4509.230769,4199.487179,4441.538461,4212.307692,4248.717948,4511.794871,4212.307692,4677.435897,3990.769231,4054.871794
81,4396.410256,4537.435897,4531.794871,4260.000000,4502.051282,4199.487179,4441.025641,4206.153846,4241.025641,4507.692307,4217.948717,4675.897435,3992.307693,4050.256410
82,4402.564102,4535.897435,4532.307692,4266.153846,4514.871794,4204.615384,4446.153846,4211.794871,4246.153846,4508.717948,4227.692307,4681.025641,4001.538461,4050.769230
83,4408.205128,4538.974358,4533.333333,4269.743589,4522.051282,4207.179487,4444.102564,4213.333333,4245.128205,4503.589743,4224.615384,4678.461538,3993.846154,4052.820512
84,4397.435897,4542.051282,4526.666666,4264.102564,4511.794871,4201.538461,4431.282051,4199.487179,4230.769230,4496.923076,4214.871794,4665.641025,3985.641026,4046.153846
85,4396.923076,4539.487179,4526.153846,4260.512820,4510.769230,4200.000000,4431.794871,4195.897435,4234.358974,4501.025641,4213.333333,4664.102564,4002.564102,4043.589743
86,4409.743589,4540.000000,4535.384615,4267.179487,4514.871794,4206.666666,4443.076923,4204.615384,4245.641025,4503.076923,4219.487179,4674.871794,4009.230769,4051.794871
87,4407.179487,4545.641025,4534.871794,4267.692307,4508.717948,4208.717948,4444.102564,4202.564102,4233.846153,4498.974358,4217.948717,4676.410256,3990.769231,4053.333333
88,4397.948717,4544.615384,4526.666666,4260.000000,4508.717948,4206.666666,4440.000000,4200.512820,4228.717948,4500.000000,4208.205128,4668.717948,3983.589744,4043.589743
89,4397.435897,4544.102564,4526.153846,4264.615384,4513.333333,4203.589743,4437.435897,4203.076923,4234.358974,4498.461538,4209.230769,4663.589743,3990.256411,4040.000000
90,4395.897435,4547.179487,4527.179487,4272.307692,4508.717948,4198.974358,4432.307692,4198.461538,4231.282051,4493.846153,4212.820512,4660.512820,3989.743590,4042.564102
91,4396.923076,4545.641025,4523.589743,4268.205128,4506.153846,4199.487179,4428.205128,4198.461538,4232.820512,4499.487179,4206.153846,4660.000000,3988.205129,4042.564102
92,4399.487179,4540.000000,4523.589743,4260.000000,4510.769230,4203.076923,4429.230769,4202.051282,4236.410256,4503.589743,4204.102564,4660.000000,3990.769231,4041.025641
93,4389.230769,4531.794871,4520.512820,4261.025641,4508.205128,4198.974358,4425.641025,4191.794871,4224.102564,4493.846153,4204.615384,4652.820512,3983.589744,4033.846153
94,4385.128205,4533.846153,4516.410256,4265.128205,4504.102564,4193.846153,4424.102564,4186.153846,4220.000000,4492.307692,4205.128205,4649.743589,3976.410257,4028.717948
95,4398.461538,4549.230769,4524.615384,4267.179487,4506.666666,4198.461538,4433.333333,4196.923076,4230.256410,4500.512820,4213.333333,4661.025641,3988.205129,4037.948717
96,4405.641025,4555.897435,4535.384615,4273.333333,4511.282051,4204.615384,4442.564102,4204.102564,4235.897435,4507.692307,4220.512820,4669.743589,4006.153846,4049.230769
97,4400.000000,4549.230769,4531.794871,4281.025641,4509.743589,4202.051282,4443.589743,4205.641025,4242.051282,4513.333333,4216.923076,4666.153846,4009.230769,4046.666666
98,4398.974358,4545.128205,4526.666666,4278.461538,4507.179487,4199.487179,4437.435897,4207.692307,4246.666666,4508.205128,4215.384615,4662.564102,3998.461539,4040.512820
99,4398.974358,4544.102564,4529.743589,4266.666666,4509.230769,4200.000000,4431.794871,4203.076923,4238.974358,4496.923076,4216.923076,4662.051282,3994.871795,4038.974358
100,4394.871794,4547.179487,4527.179487,4268.717948,4510.256410,4200.000000,4435.384615,4199.487179,4230.769230,4497.948717,4214.871794,4657.435897,3996.923077,4036.923076
101,4394.358974,4552.307692,4524.102564,4277.948717,4506.153846,4200.512820,4439.487179,4202.051282,4230.769230,4510.256410,4216.923076,4653.333333,3991.794872,4034.871794
102,4394.871794,4550.256410,4528.205128,4275.384615,4503.589743,4203.076923,4435.897435,4203.589743,4231.794871,4509.230769,4219.487179,4656.923076,3992.307693,4036.410256
103,4402.051282,4547.692307,4532.307692,4275.897435,4507.692307,4203.076923,4436.410256,4204.102564,4233.846153,4504.615384,4216.410256,4660.512820,4005.128205,4041.025641
104,4410.256410,4554.871794,4534.358974,4283.076923,4512.307692,4204.102564,4444.102564,4209.230769,4243.589743,4510.256410,4215.897435,4661.538461,4013.846153,4048.205128
105,4407.179487,4560.512820,4539.487179,4289.230769,4511.794871,4206.666666,4444.102564,4213.333333,4249.743589,4516.923076,4221.025641,4660.000000,4011.282051,4048.717948
106,4403.589743,4562.051282,4541.025641,4293.846153,4514.358974,4205.641025,4441.538461,4211.282051,4245.641025,4521.538461,4219.487179,4660.000000,4009.230769,4045.128205
107,4405.641025,4559.487179,4534.871794,4289.743589,4518.461538,4207.179487,4445.128205,4211.282051,4241.025641,4526.666666,4221.538461,4661.025641,4006.153846,4045.641025
108,4401.538461,4545.128205,4529.743589,4274.358974,4520.000000,4209.230769,4442.564102,4209.743589,4241.025641,4520.000000,4226.666666,4657.948717,3995.897436,4040.000000
109,4401.025641,4544.102564,4533.333333,4273.846153,4520.512820,4210.256410,4441.538461,4210.769230,4244.615384,4508.205128,4222.564102,4657.435897,4004.102564,4037.948717
110,4413.333333,4560.512820,4541.538461,4291.282051,4522.564102,4213.333333,4451.282051,4220.512820,4250.256410,4514.358974,4219.487179,4665.128205,4027.692307,4052.307692
111,4417.435897,4567.692307,4546.153846,4297.435897,4523.589743,4215.384615,4453.846153,4225.641025,4251.282051,4521.025641,4229.743589,4669.743589,4033.333333,4061.538461
112,4412.307692,4556.923076,4544.102564,4285.641025,4525.128205,4215.384615,4447.179487,4220.000000,4248.717948,4514.358974,4245.641025,4664.615384,4018.461538,4055.897435
113,4411.794871,4550.769230,4541.538461,4279.487179,4521.025641,4214.871794,4444.102564,4214.358974,4247.179487,4517.435897,4241.025641,4659.487179,4013.846153,4053.333333
114,4412.307692,4555.384615,4537.948717,4282.051282,4509.743589,4209.230769,4441.538461,4209.230769,4242.051282,4525.128205,4213.846153,4654.871794,4024.102564,4052.307692
115,4408.717948,4553.333333,4531.282051,4278.974358,4503.589743,4201.025641,4438.974358,4204.102564,4237.435897,4516.410256,4198.974358,4646.666666,4023.589743,4044.102564
116,4405.128205,4551.282051,4528.717948,4276.410256,4505.128205,4199.487179,4437.435897,4203.076923,4237.948717,4507.692307,4213.846153,4643.589743,4006.666666,4040.512820
117,4399.487179,4552.307692,4529.230769,4281.538461,4511.282051,4203.589743,4434.871794,4200.512820,4234.358974,4509.743589,4227.179487,4645.641025,3995.897436,4039.487179
118,4399.487179,4554.871794,4530.256410,4281.538461,4516.410256,4208.717948,4436.923076,4198.974358,4232.307692,4507.179487,4222.564102,4644.615384,4005.641025,4040.000000
119,4407.692307,4557.435897,4532.307692,4283.589743,4516.410256,4209.230769,4444.615384,4205.641025,4242.051282,4508.205128,4217.948717,4644.102564,4016.410256,4044.615384
120,4410.769230,4556.410256,4532.820512,4289.230769,4514.358974,4206.153846,4445.128205,4209.743589,4247.179487,4518.461538,4219.487179,4648.717948,4020.000000,4046.153846
121,4406.666666,4555.384615,4532.307692,4284.615384,4511.794871,4207.692307,4440.000000,4204.615384,4239.487179,4518.974358,4216.410256,4648.717948,4018.974358,4043.589743
122,4407.692307,4563.076923,4531.794871,4283.589743,4514.871794,4212.307692,4441.538461,4202.051282,4236.410256,4515.384615,4209.743589,4643.076923,4012.820512,4041.538461
123,4411.794871,4571.282051,4532.820512,4290.256410,4522.051282,4213.333333,4446.666666,4206.153846,4241.538461,4515.897435,4213.846153,4641.025641,4008.717948,4040.000000
124,4409.743589,4564.102564,4535.384615,4293.846153,4524.102564,4213.846153,4449.230769,4209.230769,4243.076923,4515.384615,4226.666666,4642.051282,4011.794871,4041.025641
125,4406.153846,4555.897435,4534.871794,4294.871794,4521.538461,4214.358974,4447.692307,4204.102564,4236.410256,4510.769230,4223.589743,4642.564102,4013.846153,4043.076923
126,4402.051282,4557.435897,4530.769230,4287.179487,4517.435897,4207.692307,4442.564102,4195.897435,4225.128205,4502.564102,4211.794871,4637.435897,4011.282051,4036.923076
127,4407.179487,4564.102564,4531.794871,4280.512820,4513.333333,4204.102564,4442.051282,4198.974358,4232.307692,4507.692307,4221.538461,4637.435897,4018.461538,4037.948717
128,4415.384615,4570.256410,4534.871794,4285.128205,4510.769230,4208.205128,4445.128205,4204.615384,4245.128205,4522.051282,4235.897435,4643.589743,4030.256410,4049.743589
129,4409.743589,4566.153846,4531.282051,4284.615384,4511.282051,4208.205128,4443.076923,4197.435897,4233.333333,4517.435897,4226.666666,4640.000000,4025.128205,4046.666666
130,4403.076923,4557.435897,4528.205128,4278.461538,4511.794871,4203.076923,4439.487179,4195.384615,4223.589743,4506.666666,4217.948717,4633.846153,4015.384615,4041.025641
131,4408.717948,4558.974358,4530.769230,4287.179487,4513.846153,4202.051282,4443.076923,4206.666666,4241.538461,4516.923076,4225.641025,4637.948717,4024.102564,4047.179487
132,4415.384615,4570.256410,4535.384615,4290.769230,4518.461538,4207.692307,4448.205128,4216.410256,4253.333333,4528.717948,4229.230769,4643.076923,4041.025641,4053.846153
133,4411.282051,4569.743589,4533.846153,4279.487179,4520.000000,4210.769230,4448.205128,4214.358974,4248.205128,4524.615384,4227.692307,4640.512820,4036.410256,4049.230769
134,4405.128205,4555.897435,4527.692307,4274.871794,4512.820512,4205.641025,4444.102564,4206.153846,4246.666666,4521.025641,4222.564102,4635.384615,4022.051282,4040.000000
135,4405.128205,4552.307692,4526.666666,4278.974358,4508.205128,4201.025641,4444.102564,4205.128205,4246.153846,4513.333333,4218.461538,4632.307692,4020.512820,4036.923076
136,4409.230769,4561.538461,4533.333333,4279.487179,4516.410256,4204.615384,4447.179487,4208.717948,4242.051282,4502.051282,4225.128205,4633.846153,4015.384615,4041.025641
137,4411.794871,4563.076923,4535.897435,4282.564102,4524.102564,4208.717948,4448.717948,4208.717948,4240.512820,4504.615384,4229.743589,4636.410256,4008.205128,4042.051282
138,4405.641025,4554.358974,4529.743589,4282.051282,4520.512820,4204.615384,4445.128205,4206.153846,4235.384615,4515.897435,4215.897435,4630.256410,4015.384615,4037.435897
139,4403.076923,4553.846153,4525.128205,4274.871794,4516.923076,4204.102564,4442.051282,4203.589743,4234.358974,4520.512820,4207.692307,4625.128205,4024.615384,4039.487179
140,4412.820512,4564.102564,4533.846153,4283.076923,4524.102564,4210.256410,4449.230769,4206.153846,4246.666666,4522.051282,4222.564102,4631.282051,4031.282051,4047.179487
141,4417.435897,4567.179487,4541.538461,4296.410256,4531.794871,4213.333333,4457.435897,4209.230769,4246.666666,4514.871794,4230.769230,4638.461538,4029.743589,4048.205128
142,4408.717948,4564.615384,4538.461538,4289.743589,4531.282051,4215.384615,4454.871794,4209.230769,4235.384615,4508.717948,4224.615384,4634.358974,4018.974358,4046.153846
143,4407.179487,4564.102564,4535.384615,4276.923076,4526.153846,4214.358974,4448.717948,4203.589743,4235.897435,4514.871794,4226.666666,4630.256410,4014.358974,4047.179487
144,4411.794871,4556.923076,4531.794871,4275.384615,4517.948717,4206.666666,4445.641025,4196.923076,4235.384615,4511.794871,4232.820512,4630.769230,4015.897435,4048.205128
145,4409.230769,4546.153846,4524.615384,4276.410256,4511.794871,4202.564102,4444.102564,4192.820512,4226.666666,4501.538461,4227.179487,4630.256410,4012.307692,4044.615384
146,4408.205128,4547.692307,4525.641025,4279.487179,4513.846153,4204.615384,4443.076923,4194.871794,4228.717948,4502.564102,4217.948717,4627.692307,4008.205128,4045.641025
147,4408.205128,4552.820512,4530.769230,4280.512820,4522.051282,4205.128205,4443.076923,4202.564102,4238.974358,4508.717948,4218.974358,4627.692307,3998.974359,4046.666666
148,4405.128205,4550.769230,4530.769230,4271.282051,4522.564102,4204.615384,4445.128205,4203.076923,4240.000000,4512.307692,4221.025641,4628.717948,3987.692308,4045.128205
149,4403.076923,4546.666666,4525.641025,4264.102564,4520.512820,4206.666666,4443.076923,4200.000000,4236.410256,4513.333333,4214.358974,4626.666666,3995.897436,4047.692307
150,4401.538461,4540.512820,4522.051282,4263.076923,4522.051282,4203.589743,4433.333333,4201.025641,4234.358974,4510.769230,4209.743589,4623.589743,3998.461539,4048.717948
151,4399.487179,4534.358974,4524.102564,4262.564102,4520.512820,4198.974358,4429.743589,4200.512820,4234.358974,4510.256410,4216.410256,4623.076923,3987.179488,4048.717948
152,4398.974358,4535.897435,4524.615384,4264.615384,4520.512820,4202.051282,4439.487179,4198.974358,4235.384615,4510.769230,4225.641025,4627.179487,3985.128206,4054.871794
153,4402.051282,4540.000000,4523.076923,4265.641025,4521.025641,4205.128205,4444.615384,4204.102564,4235.384615,4512.307692,4222.564102,4632.307692,3988.205129,4054.871794
154,4404.102564,4542.564102,4523.589743,4264.102564,4520.000000,4203.076923,4440.512820,4210.256410,4236.410256,4518.461538,4212.307692,4633.333333,3991.282052,4046.666666
155,4400.000000,4544.615384,4521.025641,4263.589743,4523.589743,4203.589743,4439.487179,4208.717948,4235.897435,4513.846153,4208.205128,4631.794871,3992.820513,4046.153846
156,4400.000000,4547.692307,4522.564102,4261.025641,4532.307692,4210.769230,4445.641025,4210.256410,4235.897435,4509.743589,4216.923076,4637.435897,3993.333334,4053.846153
157,4411.282051,4554.871794,4534.871794,4262.051282,4538.974358,4218.461538,4453.333333,4217.435897,4244.615384,4517.435897,4234.358974,4648.717948,4006.153846,4062.051282
158,4416.410256,4556.410256,4539.487179,4270.256410,4539.487179,4219.487179,4451.794871,4224.615384,4252.820512,4523.589743,4237.948717,4651.282051,4014.871794,4064.615384
159,4410.256410,4547.692307,4532.307692,4269.743589,4533.333333,4215.384615,4445.641025,4227.692307,4252.820512,4523.589743,4229.230769,4649.230769,4001.538461,4061.538461
160,4409.230769,4546.153846,4532.307692,4265.128205,4526.153846,4211.282051,4447.179487,4224.615384,4252.820512,4522.051282,4229.230769,4649.230769,3998.974359,4062.564102
161,4410.769230,4550.769230,4537.948717,4269.743589,4524.615384,4210.769230,4447.179487,4220.000000,4251.282051,4516.410256,4234.358974,4648.717948,4009.743589,4061.025641
162,4412.307692,4552.820512,4538.461538,4273.333333,4527.179487,4209.230769,4443.589743,4222.051282,4246.666666,4516.410256,4231.794871,4652.820512,4009.743589,4057.948717
163,4414.871794,4553.846153,4537.948717,4265.128205,4526.666666,4206.153846,4444.102564,4221.025641,4242.051282,4519.487179,4226.153846,4661.538461,4006.153846,4058.461538
164,4412.307692,4551.794871,4537.948717,4260.000000,4520.000000,4207.692307,4445.641025,4214.358974,4239.487179,4515.897435,4229.743589,4660.512820,4005.128205,4057.435897
165,4413.846153,4550.769230,4538.974358,4268.205128,4520.512820,4216.923076,4447.179487,4216.923076,4245.641025,4521.538461,4241.538461,4661.025641,4005.128205,4057.435897
166,4421.538461,4558.974358,4543.589743,4272.820512,4533.846153,4220.512820,4449.230769,4222.564102,4252.307692,4526.666666,4249.743589,4668.717948,4012.820512,4063.589743
167,4417.435897,4562.564102,4540.512820,4265.128205,4537.435897,4215.897435,4445.641025,4213.333333,4243.076923,4512.820512,4237.948717,4664.615384,4015.384615,4060.512820
168,4411.282051,4557.435897,4536.923076,4260.000000,4529.230769,4215.384615,4443.589743,4206.666666,4235.384615,4505.128205,4227.179487,4658.461538,4009.230769,4057.435897
169,4420.000000,4558.974358,4543.076923,4266.153846,4530.256410,4215.384615,4445.128205,4218.461538,4245.641025,4522.564102,4247.692307,4670.256410,4016.410256,4066.666666
170,4423.589743,4562.051282,4543.589743,4266.666666,4533.846153,4210.256410,4444.615384,4222.564102,4250.769230,4534.871794,4256.410256,4675.897435,4022.051282,4069.230769
171,4412.820512,4554.871794,4537.435897,4261.538461,4525.128205,4207.179487,4441.538461,4209.743589,4241.538461,4516.923076,4238.974358,4664.102564,4013.333333,4058.974358
172,4410.256410,4551.282051,4538.461538,4266.666666,4518.461538,4207.692307,4441.025641,4209.230769,4240.000000,4501.538461,4237.435897,4661.025641,4011.282051,4056.923076
173,4413.846153,4556.923076,4541.538461,4268.205128,4528.205128,4211.282051,4442.564102,4219.487179,4245.128205,4510.256410,4246.666666,4667.179487,4014.871794,4061.538461
174,4412.307692,4555.384615,4537.948717,4262.051282,4537.948717,4215.384615,4445.641025,4217.435897,4245.128205,4523.076923,4243.076923,4669.743589,4008.717948,4060.000000
175,4412.820512,4547.692307,4537.948717,4259.487179,4532.820512,4210.769230,4446.153846,4209.230769,4247.692307,4522.564102,4245.641025,4669.743589,4009.743589,4053.846153
176,4412.820512,4549.230769,4533.846153,4262.051282,4523.076923,4206.153846,4442.051282,4210.256410,4249.230769,4514.358974,4248.717948,4667.692307,4020.000000,4050.769230
177,4409.743589,4558.461538,4528.205128,4262.051282,4525.128205,4209.230769,4442.051282,4212.820512,4242.564102,4511.794871,4235.897435,4666.153846,4028.205128,4054.358974
178,4411.794871,4562.564102,4533.846153,4262.564102,4528.717948,4210.769230,4445.641025,4210.256410,4236.923076,4512.820512,4233.846153,4668.717948,4028.205128,4057.948717
179,4409.743589,4556.923076,4534.358974,4260.000000,4524.102564,4208.717948,4444.102564,4205.641025,4234.358974,4509.230769,4243.076923,4669.230769,4012.820512,4051.794871
180,4398.974358,4547.692307,4529.230769,4256.923076,4522.564102,4208.717948,4441.538461,4201.538461,4229.743589,4502.564102,4235.384615,4664.615384,3999.487180,4043.589743
181,4396.923076,4546.153846,4530.256410,4264.615384,4529.743589,4209.230769,4441.025641,4202.564102,4231.794871,4505.128205,4221.025641,4662.564102,4004.615384,4044.102564
182,4409.743589,4560.512820,4536.923076,4276.923076,4533.846153,4211.794871,4443.589743,4211.794871,4242.051282,4516.410256,4231.794871,4668.205128,4017.435897,4056.923076
183,4418.974358,4573.846153,4540.000000,4281.538461,4532.820512,4215.384615,4448.205128,4216.410256,4242.564102,4515.897435,4248.205128,4674.358974,4026.666666,4067.179487
184,4415.384615,4571.282051,4536.410256,4276.410256,4530.256410,4213.333333,4447.692307,4211.794871,4238.461538,4505.641025,4240.000000,4670.769230,4020.000000,4061.025641
185,4411.794871,4560.512820,4534.871794,4268.717948,4526.153846,4208.205128,4442.051282,4207.179487,4238.461538,4505.641025,4226.666666,4663.076923,4007.692307,4051.794871
186,4412.307692,4561.025641,4532.820512,4263.076923,4525.128205,4207.179487,4438.461538,4205.641025,4237.435897,4511.282051,4225.641025,4660.000000,4009.743589,4054.871794
187,4411.794871,4565.641025,4529.743589,4265.641025,4526.153846,4206.153846,4440.512820,4205.641025,4238.461538,4515.897435,4225.641025,4663.589743,4020.512820,4056.923076
188,4412.307692,4562.051282,4530.769230,4271.282051,4526.153846,4206.666666,4444.102564,4207.179487,4238.974358,4520.000000,4232.820512,4668.717948,4018.974358,4056.923076
189,4414.871794,4556.923076,4537.435897,4268.717948,4528.717948,4208.717948,4444.102564,4207.179487,4237.435897,4511.794871,4241.025641,4671.282051,4016.410256,4058.461538
190,4413.846153,4564.102564,4541.025641,4263.076923,4526.666666,4208.717948,4441.025641,4211.282051,4240.512820,4501.538461,4235.384615,4673.846153,4020.512820,4058.974358
191,4415.897435,4576.410256,4545.128205,4262.051282,4525.128205,4210.256410,4445.641025,4222.051282,4253.846153,4515.384615,4235.897435,4681.025641,4029.230769,4066.153846
192,4416.923076,4573.333333,4548.717948,4264.102564,4528.205128,4213.333333,4450.769230,4223.076923,4258.461538,4528.717948,4237.435897,4685.128205,4035.384615,4074.358974
193,4411.282051,4557.948717,4540.512820,4262.051282,4528.205128,4210.769230,4445.128205,4218.461538,4252.820512,4525.641025,4232.820512,4681.025641,4030.769230,4067.692307
194,4407.179487,4552.820512,4534.358974,4263.076923,4519.487179,4202.051282,4440.512820,4217.948717,4250.769230,4525.128205,4237.948717,4676.410256,4024.102564,4057.435897
195,4405.128205,4556.410256,4538.974358,4267.179487,4519.487179,4197.948717,4443.589743,4215.897435,4246.153846,4521.025641,4244.615384,4675.384615,4021.538461,4058.461538
196,4400.000000,4551.282051,4538.461538,4257.948717,4524.102564,4204.615384,4445.641025,4216.410256,4240.512820,4512.820512,4238.974358,4673.333333,4014.871794,4057.435897
197,4395.897435,4544.615384,4529.230769,4249.230769,4520.512820,4208.205128,4442.051282,4213.846153,4242.051282,4512.307692,4228.205128,4667.179487,4010.256410,4050.256410
198,4395.897435,4552.307692,4529.230769,4259.487179,4521.538461,4205.641025,4438.461538,4204.615384,4242.564102,4512.307692,4222.051282,4658.974358,4016.923076,4045.128205
199,4395.384615,4559.487179,4531.794871,4268.717948,4526.153846,4206.153846,4443.589743,4204.615384,4236.923076,4512.307692,4223.589743,4658.461538,4027.179487,4044.615384
200,4394.871794,4554.358974,4531.282051,4259.487179,4523.076923,4211.282051,4447.179487,4214.358974,4240.000000,4523.076923,4227.179487,4661.538461,4019.487179,4048.717948
201,4400.000000,4551.282051,4532.307692,4260.512820,4523.589743,4213.846153,4444.615384,4216.923076,4251.794871,4530.256410,4222.051282,4661.025641,4014.358974,4053.333333
202,4404.615384,4555.897435,4531.794871,4266.153846,4535.897435,4214.871794,4447.692307,4215.384615,4249.743589,4520.000000,4220.000000,4657.435897,4023.076923,4051.282051
203,4395.897435,4551.282051,4529.230769,4254.358974,4540.512820,4215.897435,4454.871794,4213.333333,4235.897435,4510.769230,4226.666666,4651.282051,4012.307692,4040.512820
204,4385.641025,4543.589743,4528.205128,4251.794871,4525.641025,4211.794871,4449.743589,4204.615384,4228.205128,4509.743589,4222.564102,4642.564102,3994.871795,4033.846153
205,4388.205128,4544.102564,4525.641025,4262.051282,4517.948717,4205.128205,4440.000000,4197.948717,4228.205128,4505.128205,4213.846153,4642.051282,4005.128205,4037.948717
206,4396.410256,4551.282051,4528.205128,4264.615384,4525.641025,4205.128205,4441.538461,4202.564102,4232.820512,4506.666666,4211.794871,4650.769230,4024.102564,4046.666666
207,4401.538461,4560.512820,4538.461538,4264.102564,4527.179487,4207.692307,4446.153846,4210.256410,4238.974358,4517.948717,4220.000000,4654.871794,4020.512820,4054.358974
208,4402.051282,4564.102564,4538.974358,4266.153846,4522.051282,4206.153846,4442.051282,4213.333333,4244.102564,4518.461538,4231.282051,4655.897435,4005.641025,4054.871794
209,4403.076923,4563.589743,4535.384615,4266.153846,4524.102564,4206.666666,4446.666666,4215.897435,4250.769230,4510.769230,4224.615384,4659.487179,4008.717948,4052.820512
210,4407.692307,4566.153846,4542.051282,4267.179487,4527.179487,4212.307692,4457.948717,4218.974358,4255.384615,4516.923076,4216.923076,4661.538461,4033.333333,4058.974358
211,4407.692307,4568.717948,4543.076923,4270.256410,4524.102564,4211.794871,4452.820512,4212.820512,4246.666666,4520.512820,4223.589743,4658.461538,4040.000000,4061.538461
212,4398.461538,4559.487179,4531.794871,4265.128205,4520.000000,4201.538461,4440.512820,4201.025641,4231.282051,4507.692307,4220.512820,4649.743589,4011.282051,4045.128205
213,4392.307692,4547.692307,4526.666666,4257.435897,4520.512820,4196.923076,4438.461538,4195.384615,4228.717948,4502.051282,4207.179487,4641.025641,3997.435898,4034.358974
214,4395.897435,4552.820512,4530.256410,4257.435897,4522.564102,4201.538461,4438.974358,4195.897435,4232.307692,4506.153846,4212.307692,4642.564102,4008.717948,4043.589743
215,4403.589743,4565.641025,4533.846153,4264.102564,4523.589743,4207.179487,4440.000000,4197.948717,4228.717948,4510.256410,4226.666666,4652.307692,4016.923076,4054.871794
216,4408.717948,4565.641025,4536.410256,4267.692307,4526.153846,4209.230769,4444.102564,4195.897435,4227.179487,4512.307692,4226.666666,4654.358974,4022.051282,4054.358974
217,4405.128205,4555.897435,4532.307692,4265.641025,4525.128205,4203.589743,4443.076923,4192.820512,4232.307692,4514.871794,4220.512820,4649.230769,4025.128205,4051.282051
218,4398.461538,4553.846153,4526.666666,4264.102564,4521.025641,4197.435897,4439.487179,4193.846153,4229.230769,4512.820512,4213.333333,4646.666666,4018.461538,4049.230769
219,4394.871794,4558.461538,4526.153846,4257.435897,4522.051282,4200.000000,4440.512820,4197.948717,4221.538461,4508.717948,4208.717948,4645.641025,4006.666666,4043.589743
220,4393.846153,4556.923076,4525.641025,4245.641025,4526.153846,4205.641025,4444.615384,4202.564102,4226.153846,4509.743589,4211.282051,4645.641025,4004.615384,4041.538461
221,4395.384615,4552.820512,4525.641025,4249.743589,4522.051282,4205.128205,4441.538461,4204.615384,4231.282051,4511.794871,4216.410256,4647.179487,4016.410256,4042.051282
222,4400.000000,4556.410256,4530.769230,4262.564102,4518.461538,4199.487179,4433.333333,4204.615384,4230.256410,4512.820512,4220.000000,4646.666666,4025.641025,4045.128205
223,4406.153846,4564.102564,4535.897435,4266.666666,4523.076923,4197.435897,4436.410256,4208.717948,4234.871794,4517.948717,4217.435897,4647.692307,4024.102564,4050.769230
224,4407.179487,4564.615384,4535.897435,4267.692307,4525.641025,4202.051282,4444.102564,4215.384615,4242.051282,4524.102564,4217.948717,4653.333333,4024.615384,4055.897435
225,4404.615384,4561.538461,4538.461538,4269.743589,4522.051282,4207.179487,4444.615384,4216.923076,4248.205128,4527.692307,4225.641025,4655.897435,4025.128205,4056.410256
226,4405.641025,4562.051282,4540.512820,4267.692307,4523.076923,4208.717948,4446.153846,4217.435897,4248.717948,4524.615384,4223.589743,4652.820512,4018.461538,4052.820512
227,4402.051282,4560.000000,4532.820512,4263.589743,4525.641025,4205.128205,4447.179487,4217.948717,4242.564102,4514.871794,4211.794871,4649.230769,4014.871794,4050.769230
228,4394.871794,4553.846153,4527.179487,4260.512820,4522.564102,4199.487179,4444.102564,4215.384615,4239.487179,4512.307692,4214.871794,4649.230769,4019.487179,4049.230769
229,4400.000000,4555.384615,4532.820512,4268.717948,4521.025641,4202.051282,4444.615384,4218.461538,4249.743589,4525.641025,4225.128205,4653.333333,4028.205128,4055.897435
230,4407.179487,4563.589743,4542.051282,4280.000000,4524.102564,4205.128205,4449.743589,4222.564102,4253.846153,4527.692307,4217.948717,4654.871794,4032.820512,4061.538461
231,4398.461538,4564.615384,4539.487179,4272.307692,4519.487179,4200.000000,4446.666666,4215.384615,4241.538461,4511.282051,4204.615384,4648.205128,4021.538461,4053.333333
232,4393.333333,4560.512820,4534.358974,4262.051282,4512.820512,4197.435897,4443.076923,4208.205128,4231.794871,4506.666666,4207.692307,4645.128205,4015.384615,4050.769230
233,4400.512820,4557.435897,4539.487179,4265.128205,4518.461538,4204.102564,4451.794871,4213.333333,4232.820512,4514.871794,4216.410256,4652.820512,4024.615384,4058.461538
234,4402.564102,4555.384615,4542.051282,4269.230769,4524.615384,4207.692307,4457.948717,4217.435897,4237.435897,4517.435897,4212.307692,4655.384615,4020.000000,4055.384615
235,4396.923076,4555.897435,4536.923076,4271.282051,4524.102564,4205.641025,4448.205128,4210.769230,4237.435897,4517.435897,4200.512820,4649.230769,4008.717948,4048.717948
236,4396.410256,4561.538461,4531.794871,4270.256410,4521.025641,4200.512820,4438.461538,4198.461538,4229.743589,4514.358974,4196.923076,4647.692307,4009.743589,4051.282051
237,4399.487179,4561.538461,4532.820512,4262.564102,4516.923076,4195.384615,4438.461538,4192.820512,4222.051282,4510.256410,4197.435897,4652.820512,4012.820512,4052.307692
238,4398.974358,4549.230769,4538.461538,4263.076923,4514.871794,4196.410256,4440.000000,4196.923076,4225.128205,4511.282051,4202.051282,4654.871794,4008.717948,4052.307692
239,4396.923076,4547.179487,4538.974358,4269.230769,4519.487179,4200.512820,4442.564102,4201.025641,4234.358974,4512.820512,4211.282051,4656.410256,4004.615384,4059.487179
240,4396.923076,4557.435897,4536.410256,4265.641025,4523.589743,4205.641025,4447.179487,4207.692307,4235.897435,4514.871794,4214.358974,4661.025641,4004.102564,4062.051282
241,4397.948717,4555.384615,4535.897435,4262.051282,4522.564102,4208.205128,4446.153846,4215.897435,4234.358974,4516.923076,4209.230769,4664.102564,4002.051282,4057.948717
242,4396.410256,4545.128205,4537.435897,4262.564102,4523.076923,4206.666666,4443.076923,4214.358974,4235.897435,4513.846153,4205.641025,4660.000000,3997.948718,4058.461538
243,4398.461538,4549.743589,4537.948717,4263.076923,4522.564102,4205.641025,4444.102564,4207.692307,4236.410256,4513.333333,4206.666666,4656.923076,3992.820513,4062.564102
244,4397.948717,4551.794871,4538.461538,4265.128205,4523.589743,4208.205128,4443.076923,4207.179487,4232.307692,4518.461538,4206.153846,4658.461538,3985.128206,4062.051282
245,4389.743589,4541.538461,4530.256410,4266.153846,4525.128205,4204.102564,4436.923076,4203.076923,4228.717948,4511.794871,4202.051282,4657.435897,3978.974359,4056.410256
246,4389.743589,4541.538461,4523.589743,4264.102564,4515.897435,4197.435897,4433.333333,4197.435897,4231.794871,4500.512820,4198.461538,4657.435897,3985.641026,4055.897435
247,4396.923076,4546.153846,4528.205128,4253.333333,4509.230769,4198.974358,4432.307692,4199.487179,4235.384615,4507.179487,4200.512820,4658.461538,3993.846154,4061.538461
248,4396.923076,4540.512820,4531.282051,4241.538461,4514.871794,4199.487179,4434.871794,4207.692307,4237.435897,4520.000000,4205.641025,4657.948717,3988.205129,4065.641025
249,4393.846153,4538.461538,4532.307692,4250.256410,4513.846153,4201.025641,4439.487179,4211.794871,4238.461538,4521.538461,4208.717948,4658.461538,3981.538462,4065.641025
250,4394.871794,4546.153846,4536.410256,4264.102564,4511.282051,4202.051282,4439.487179,4212.307692,4238.461538,4519.487179,4211.794871,4662.564102,3988.205129,4066.153846
251,4395.897435,4551.282051,4540.000000,4266.666666,4514.358974,4198.461538,4438.461538,4210.256410,4238.461538,4520.512820,4212.307692,4666.666666,3998.461539,4070.769230
252,4397.435897,4551.794871,4542.564102,4264.615384,4511.282051,4200.000000,4443.076923,4209.743589,4241.025641,4515.897435,4209.743589,4670.769230,4002.051282,4074.358974
253,4395.384615,4542.051282,4538.974358,4257.948717,4512.307692,4203.589743,4444.615384,4206.153846,4238.974358,4508.717948,4201.025641,4666.666666,3995.384616,4068.205128
254,4383.589743,4532.820512,4530.256410,4248.717948,4518.974358,4202.051282,4440.000000,4200.000000,4234.871794,4507.179487,4197.435897,4658.461538,3977.948718,4057.435897
255,4380.512820,4544.615384,4529.743589,4248.205128,4517.948717,4202.051282,4441.025641,4204.615384,4236.410256,4511.282051,4205.641025,4658.461538,3968.717949,4055.897435
256,4390.256410,4550.256410,4535.897435,4251.282051,4513.846153,4205.128205,4442.051282,4213.846153,4231.282051,4512.307692,4205.641025,4662.051282,3981.538462,4060.000000
257,4394.871794,4541.025641,4536.410256,4252.820512,4513.846153,4204.102564,4441.538461,4213.846153,4227.692307,4510.769230,4200.000000,4663.589743,3997.435898,4061.025641
258,4389.743589,4541.025641,4532.307692,4262.564102,4509.743589,4202.564102,4443.589743,4213.846153,4234.871794,4508.205128,4198.461538,4663.589743,3997.948718,4060.000000
259,4383.076923,4546.153846,4529.743589,4264.102564,4505.641025,4198.974358,4439.487179,4213.333333,4233.333333,4498.974358,4197.948717,4660.000000,3985.641026,4055.384615
