,AF3,F7,F3,FC5,T7,P7,O1,O2,P8,T8,FC6,F4,F8,AF4
0,4532.307692,4680.000000,4686.153846,4415.897435,4732.820512,4322.564102,4582.051282,4382.564102,4405.128205,4662.564102,4371.794871,4797.435897,4159.487179,4205.641025
1,4529.743589,4681.538461,4686.153846,4415.897435,4736.410256,4323.589743,4578.461538,4386.666666,4409.230769,4649.230769,4374.871794,4799.487179,4151.282051,4206.666666
2,4526.666666,4675.897435,4683.589743,4411.794871,4727.179487,4318.461538,4572.307692,4383.589743,4407.692307,4642.051282,4367.692307,4796.410256,4150.256410,4212.820512
3,4527.179487,4674.871794,4684.102564,4409.230769,4725.128205,4312.820512,4568.205128,4380.000000,4396.923076,4642.051282,4364.615384,4794.871794,4150.769230,4208.205128
4,4531.282051,4681.025641,4687.179487,4409.230769,4725.128205,4314.871794,4570.769230,4379.487179,4397.435897,4639.487179,4369.743589,4796.923076,4150.256410,4203.076923
5,4537.948717,4685.128205,4693.333333,4412.307692,4725.641025,4323.076923,4575.897435,4383.589743,4412.820512,4643.076923,4376.923076,4799.487179,4154.871794,4208.717948
6,4537.948717,4684.102564,4693.846153,4418.974358,4731.282051,4324.102564,4576.410256,4383.589743,4413.846153,4651.794871,4374.871794,4800.000000,4151.794871,4202.564102
7,4534.358974,4681.025641,4685.641025,4419.487179,4736.923076,4317.948717,4571.282051,4377.948717,4399.487179,4650.769230,4363.589743,4795.897435,4147.692307,4200.000000
8,4536.410256,4683.076923,4684.615384,4414.871794,4741.025641,4320.512820,4570.256410,4380.000000,4397.948717,4644.615384,4365.128205,4793.333333,4154.358974,4217.948717
9,4539.487179,4684.615384,4688.205128,4412.820512,4736.923076,4325.128205,4572.307692,4382.051282,4401.025641,4638.461538,4370.769230,4794.871794,4155.384615,4214.358974
10,4536.410256,4677.948717,4685.641025,4413.846153,4724.102564,4319.487179,4572.307692,4376.923076,4393.846153,4635.384615,4362.051282,4791.794871,4145.128205,4197.435897
11,4526.666666,4670.769230,4679.487179,4412.307692,4709.743589,4310.769230,4567.179487,4370.769230,4390.256410,4637.435897,4353.333333,4783.589743,4138.974358,4202.564102
12,4520.512820,4668.717948,4674.871794,4408.205128,4704.615384,4309.230769,4559.487179,4365.641025,4391.794871,4630.256410,4351.794871,4777.435897,4133.846153,4204.102564
13,4524.102564,4669.230769,4678.461538,4407.179487,4714.358974,4311.282051,4563.076923,4370.256410,4393.333333,4627.692307,4355.897435,4785.128205,4131.282051,4193.846153
14,4527.179487,4670.256410,4684.615384,4409.230769,4725.641025,4312.307692,4572.820512,4378.461538,4397.435897,4637.435897,4364.615384,4795.384615,4136.410256,4201.538461
15,4526.153846,4674.358974,4681.025641,4411.282051,4726.153846,4311.282051,4569.743589,4376.923076,4396.410256,4638.974358,4365.641025,4789.230769,4141.025641,4209.743589
16,4526.666666,4674.871794,4677.435897,4412.307692,4727.179487,4312.307692,4565.641025,4373.333333,4393.333333,4634.871794,4357.948717,4780.512820,4143.076923,4203.589743
17,4527.692307,4671.282051,4681.538461,4410.769230,4726.666666,4313.333333,4571.794871,4374.871794,4396.923076,4637.435897,4355.897435,4783.589743,4141.538461,4201.025641
18,4523.076923,4665.128205,4677.435897,4405.128205,4707.179487,4304.102564,4567.692307,4369.230769,4392.820512,4638.461538,4352.820512,4782.051282,4130.769230,4195.384615
19,4519.487179,4656.923076,4668.717948,4395.897435,4691.282051,4292.820512,4556.410256,4362.051282,4382.051282,4637.435897,4344.615384,4772.307692,4122.564102,4184.102564
20,4522.564102,4657.948717,4669.230769,4392.820512,4704.102564,4293.846153,4558.461538,4366.666666,4386.153846,4637.948717,4348.205128,4774.358974,4130.256410,4185.641025
21,4525.128205,4665.641025,4674.871794,4402.051282,4720.512820,4301.025641,4562.051282,4369.230769,4394.871794,4625.128205,4356.923076,4784.102564,4137.948717,4195.384615
22,4523.589743,4661.025641,4674.358974,4407.692307,4716.923076,4298.974358,4556.410256,4364.102564,4386.153846,4615.384615,4350.256410,4782.564102,4134.871794,4198.974358
23,4521.025641,4651.282051,4668.717948,4397.948717,4706.153846,4293.846153,4552.307692,4359.487179,4374.871794,4628.205128,4341.538461,4775.897435,4132.307692,4204.102564
24,4522.051282,4652.820512,4667.692307,4389.743589,4701.538461,4293.846153,4550.769230,4359.487179,4376.410256,4637.948717,4348.717948,4777.435897,4132.820512,4201.025641
25,4517.435897,4652.820512,4667.179487,4394.358974,4693.846153,4288.205128,4545.128205,4355.897435,4377.948717,4634.358974,4353.846153,4776.410256,4125.641025,4187.179487
26,4511.282051,4650.256410,4663.589743,4397.435897,4687.179487,4285.641025,4545.128205,4350.769230,4376.410256,4627.692307,4347.179487,4767.692307,4117.435897,4183.076923
27,4513.333333,4658.461538,4665.641025,4397.435897,4693.333333,4291.794871,4552.307692,4356.410256,4377.948717,4613.333333,4340.512820,4768.205128,4117.948717,4188.717948
28,4512.820512,4661.025641,4665.641025,4397.435897,4709.230769,4297.435897,4554.358974,4361.538461,4378.461538,4601.538461,4331.794871,4771.282051,4120.000000,4186.666666
29,4511.794871,4653.846153,4659.487179,4389.743589,4716.923076,4297.948717,4554.358974,4357.435897,4376.410256,4615.384615,4332.307692,4766.666666,4119.487179,4184.615384
30,4515.384615,4650.256410,4656.410256,4387.179487,4708.205128,4296.923076,4553.846153,4353.846153,4372.820512,4631.282051,4338.461538,4763.076923,4115.897435,4185.128205
31,4512.307692,4650.256410,4657.435897,4395.897435,4703.589743,4296.410256,4552.820512,4355.384615,4369.230769,4626.153846,4333.846153,4760.000000,4112.307692,4175.897435
32,4504.102564,4648.717948,4654.358974,4396.923076,4705.641025,4298.461538,4555.384615,4356.923076,4371.794871,4615.897435,4328.717948,4752.820512,4112.820512,4168.205128
33,4503.076923,4641.538461,4646.153846,4384.615384,4690.769230,4294.871794,4551.282051,4349.230769,4369.743589,4603.076923,4325.128205,4746.666666,4107.179487,4165.641025
34,4504.102564,4637.435897,4643.589743,4377.435897,4686.666666,4288.717948,4541.538461,4344.102564,4359.487179,4600.512820,4320.000000,4749.743589,4097.948717,4163.589743
35,4506.666666,4645.128205,4651.794871,4383.076923,4704.615384,4293.333333,4543.589743,4352.820512,4363.076923,4621.025641,4329.743589,4759.487179,4105.128205,4176.410256
36,4505.641025,4647.692307,4655.897435,4386.666666,4695.384615,4292.307692,4549.743589,4355.897435,4368.205128,4620.000000,4339.487179,4761.025641,4115.897435,4187.179487
37,4498.461538,4633.333333,4649.230769,4380.512820,4671.282051,4278.461538,4541.025641,4342.051282,4356.923076,4596.410256,4327.179487,4749.743589,4104.615384,4173.333333
38,4501.025641,4627.692307,4649.230769,4379.487179,4684.615384,4274.871794,4533.846153,4337.435897,4352.307692,4602.564102,4318.974358,4744.102564,4094.871794,4166.153846
39,4507.692307,4636.410256,4655.897435,4384.615384,4703.076923,4283.076923,4538.974358,4347.692307,4362.051282,4614.358974,4325.128205,4754.358974,4103.076923,4173.846153
40,4509.230769,4643.076923,4658.461538,4385.128205,4695.384615,4285.128205,4541.025641,4351.282051,4365.128205,4598.461538,4324.615384,4762.564102,4105.128205,4174.358974
41,4507.179487,4640.512820,4656.923076,4382.564102,4687.692307,4282.564102,4537.435897,4346.153846,4356.410256,4592.820512,4318.974358,4755.384615,4096.410256,4168.205128
42,4496.923076,4631.794871,4645.128205,4381.538461,4687.692307,4280.512820,4536.923076,4341.025641,4346.666666,4598.974358,4308.717948,4742.564102,4089.230769,4157.435897
43,4488.205128,4627.692307,4637.948717,4377.435897,4687.692307,4281.025641,4536.923076,4341.538461,4348.205128,4598.461538,4307.179487,4739.487179,4087.179487,4149.743589
44,4492.307692,4628.717948,4643.076923,4372.820512,4686.666666,4282.051282,4540.000000,4346.666666,4356.410256,4601.538461,4318.461538,4745.128205,4085.641025,4154.871794
45,4493.846153,4624.615384,4643.589743,4371.794871,4685.128205,4278.461538,4541.025641,4348.205128,4352.820512,4595.384615,4319.487179,4744.615384,4085.641025,4154.358974
46,4490.256410,4622.564102,4638.461538,4372.307692,4692.307692,4277.948717,4538.974358,4344.615384,4347.179487,4584.102564,4313.333333,4742.051282,4091.794871,4155.384615
47,4492.307692,4628.205128,4637.948717,4371.794871,4694.871794,4280.000000,4538.461538,4341.538461,4352.820512,4593.846153,4312.307692,4741.538461,4093.846153,4163.589743
48,4489.743589,4629.230769,4635.897435,4370.769230,4682.051282,4277.435897,4537.435897,4340.000000,4350.769230,4609.230769,4310.769230,4738.974358,4086.153846,4157.948717
49,4489.743589,4629.743589,4636.410256,4376.923076,4678.974358,4274.871794,4535.897435,4341.025641,4345.641025,4609.743589,4314.358974,4739.487179,4085.128205,4150.256410
50,4498.974358,4630.769230,4644.102564,4382.051282,4692.820512,4277.435897,4535.897435,4343.076923,4351.282051,4598.461538,4320.000000,4746.666666,4096.923076,4154.871794
51,4505.128205,4629.743589,4646.153846,4375.384615,4700.000000,4279.487179,4535.384615,4342.051282,4355.384615,4589.230769,4315.384615,4750.256410,4100.000000,4161.538461
52,4506.153846,4632.820512,4647.179487,4371.282051,4700.512820,4280.000000,4535.897435,4342.564102,4351.794871,4591.794871,4315.384615,4749.230769,4091.794871,4166.153846
53,4504.615384,4638.461538,4653.846153,4376.923076,4705.128205,4281.025641,4538.461538,4347.179487,4351.794871,4602.051282,4323.076923,4753.846153,4085.641025,4172.820512
54,4507.179487,4637.948717,4656.410256,4379.487179,4696.410256,4282.051282,4537.948717,4346.153846,4352.307692,4606.153846,4318.461538,4754.358974,4082.051282,4172.820512
55,4505.128205,4628.717948,4652.307692,4373.846153,4675.384615,4277.948717,4534.871794,4341.025641,4347.179487,4598.461538,4309.743589,4748.205128,4085.641025,4160.512820
56,4491.794871,4619.487179,4647.692307,4369.743589,4670.769230,4269.230769,4534.871794,4342.051282,4343.076923,4591.794871,4311.794871,4746.666666,4088.205128,4145.641025
57,4491.282051,4621.025641,4647.179487,4369.230769,4683.076923,4270.256410,4536.410256,4345.641025,4346.666666,4589.743589,4310.256410,4746.153846,4079.487179,4144.615384
58,4504.102564,4627.179487,4649.230769,4371.794871,4692.307692,4278.461538,4538.974358,4349.230769,4352.307692,4586.666666,4308.205128,4746.666666,4076.410256,4155.897435
59,4500.000000,4626.666666,4649.743589,4375.384615,4689.230769,4281.025641,4541.025641,4353.846153,4351.282051,4587.179487,4312.820512,4749.743589,4085.128205,4162.564102
60,4485.128205,4620.512820,4644.102564,4366.666666,4681.538461,4274.358974,4538.461538,4349.743589,4345.128205,4590.769230,4309.743589,4743.589743,4078.974358,4154.358974
61,4488.717948,4615.384615,4642.051282,4357.435897,4678.974358,4268.717948,4537.435897,4343.589743,4348.717948,4596.923076,4301.025641,4736.923076,4067.692307,4140.512820
62,4495.897435,4611.794871,4645.128205,4358.974358,4676.923076,4272.307692,4539.487179,4349.230769,4358.461538,4603.076923,4302.564102,4741.538461,4072.307692,4144.102564
63,4486.666666,4610.256410,4638.461538,4352.820512,4664.615384,4270.769230,4533.333333,4345.128205,4352.820512,4593.333333,4302.051282,4740.000000,4075.384615,4149.743589
64,4477.948717,4607.692307,4629.230769,4343.589743,4657.435897,4261.025641,4522.564102,4329.743589,4335.384615,4574.358974,4293.333333,4730.256410,4069.743589,4138.461538
65,4476.410256,4601.538461,4629.743589,4346.666666,4666.666666,4258.974358,4521.538461,4326.666666,4331.282051,4570.256410,4290.769230,4731.282051,4068.205128,4135.384615
66,4476.410256,4597.948717,4636.410256,4343.589743,4668.205128,4262.051282,4524.102564,4330.769230,4334.358974,4569.230769,4295.897435,4734.358974,4070.256410,4143.076923
67,4473.846153,4600.000000,4635.384615,4334.358974,4659.487179,4256.410256,4520.512820,4324.102564,4329.743589,4565.641025,4296.923076,4729.743589,4067.179487,4140.512820
68,4468.717948,4597.948717,4631.794871,4342.564102,4658.974358,4256.923076,4520.512820,4323.076923,4330.769230,4579.487179,4291.794871,4727.179487,4058.461538,4133.333333
69,4467.179487,4594.871794,4636.410256,4349.743589,4671.794871,4266.666666,4528.717948,4334.358974,4342.564102,4591.282051,4291.794871,4731.282051,4056.923076,4134.871794
70,4474.358974,4601.538461,4646.153846,4346.666666,4684.615384,4273.846153,4537.435897,4343.589743,4352.820512,4587.179487,4309.230769,4742.051282,4074.871794,4146.666666
71,4476.923076,4606.153846,4645.641025,4343.076923,4665.641025,4270.769230,4537.948717,4344.615384,4355.384615,4588.205128,4323.076923,4746.666666,4096.923076,4157.435897
72,4464.102564,4590.769230,4633.846153,4333.333333,4634.871794,4260.512820,4525.128205,4337.435897,4348.717948,4598.461538,4313.846153,4737.948717,4095.384615,4147.179487
73,4455.897435,4577.948717,4631.282051,4332.307692,4649.230769,4256.923076,4522.564102,4333.333333,4344.615384,4602.051282,4310.256410,4733.333333,4087.179487,4131.794871
74,4466.666666,4588.205128,4639.487179,4342.564102,4682.564102,4265.128205,4531.794871,4336.923076,4350.769230,4593.846153,4318.461538,4737.435897,4090.769230,4141.025641
75,4476.923076,4601.025641,4643.076923,4343.589743,4677.435897,4267.179487,4530.769230,4336.410256,4354.358974,4589.230769,4313.333333,4738.461538,4090.769230,4152.820512
76,4472.307692,4601.538461,4637.435897,4339.487179,4660.512820,4262.051282,4524.102564,4332.820512,4350.256410,4590.256410,4306.153846,4737.435897,4082.564102,4143.589743
77,4462.051282,4592.820512,4632.307692,4336.410256,4663.076923,4264.615384,4523.589743,4333.333333,4347.179487,4581.025641,4309.743589,4735.384615,4081.538461,4134.358974
78,4458.461538,4583.589743,4632.820512,4327.179487,4665.128205,4262.564102,4523.076923,4331.282051,4345.641025,4578.974358,4307.692307,4730.256410,4088.717948,4134.358974
79,4460.000000,4585.128205,4635.897435,4330.256410,4659.487179,4255.384615,4521.025641,4327.179487,4346.666666,4601.025641,4307.692307,4732.307692,4090.256410,4135.384615
80,4460.000000,4591.794871,4635.897435,4342.051282,4649.230769,4252.307692,4518.461538,4326.153846,4345.128205,4603.076923,4311.794871,4734.358974,4086.153846,4137.948717
81,4455.384615,4592.820512,4629.743589,4335.384615,4641.025641,4250.769230,4512.307692,4325.128205,4340.000000,4582.051282,4304.102564,4726.153846,4082.564102,4137.435897
82,4457.948717,4596.923076,4626.153846,4332.307692,4658.461538,4254.871794,4516.923076,4328.205128,4343.076923,4589.743589,4300.512820,4728.205128,4085.641025,4133.846153
83,4469.743589,4610.256410,4635.384615,4346.153846,4687.179487,4266.666666,4527.179487,4338.461538,4355.897435,4605.128205,4316.923076,4745.128205,4097.435897,4142.051282
84,4480.512820,4615.384615,4645.128205,4351.282051,4687.179487,4270.769230,4525.641025,4342.051282,4359.487179,4598.461538,4330.256410,4753.846153,4109.743589,4156.923076
85,4480.512820,4606.666666,4639.487179,4344.102564,4666.666666,4263.589743,4521.025641,4333.333333,4349.230769,4590.256410,4319.487179,4744.615384,4110.769230,4159.487179
86,4469.743589,4597.435897,4628.205128,4338.974358,4657.435897,4257.435897,4521.025641,4323.589743,4336.923076,4587.692307,4306.153846,4733.333333,4102.051282,4151.282051
87,4463.589743,4599.487179,4627.692307,4338.974358,4665.128205,4258.461538,4522.564102,4323.589743,4333.846153,4587.179487,4308.205128,4732.820512,4100.000000,4138.974358
88,4472.820512,4609.743589,4633.333333,4340.512820,4675.384615,4264.102564,4525.128205,4328.205128,4339.487179,4588.205128,4315.897435,4736.923076,4103.076923,4140.512820
89,4473.846153,4610.769230,4632.307692,4341.025641,4670.769230,4263.589743,4526.666666,4326.666666,4340.512820,4586.153846,4313.846153,4734.871794,4098.974358,4151.282051
90,4462.051282,4602.051282,4629.743589,4340.000000,4660.000000,4257.435897,4517.948717,4322.051282,4337.948717,4587.179487,4313.333333,4736.410256,4093.846153,4141.538461
91,4467.179487,4597.948717,4632.307692,4340.512820,4666.666666,4259.487179,4510.769230,4322.564102,4343.589743,4599.487179,4324.102564,4746.666666,4102.564102,4136.923076
92,4474.358974,4599.487179,4632.307692,4341.538461,4674.871794,4259.487179,4517.435897,4323.076923,4346.666666,4603.589743,4323.589743,4746.153846,4109.230769,4154.871794
93,4463.076923,4599.487179,4626.666666,4335.897435,4667.179487,4251.282051,4522.051282,4323.589743,4342.564102,4599.487179,4313.333333,4736.410256,4105.128205,4151.794871
94,4454.358974,4596.410256,4622.051282,4327.179487,4652.307692,4247.692307,4512.307692,4320.000000,4336.410256,4598.461538,4312.820512,4733.846153,4102.051282,4134.358974
95,4456.410256,4591.794871,4622.564102,4324.102564,4644.615384,4246.153846,4502.051282,4313.333333,4329.230769,4581.538461,4312.307692,4731.282051,4094.871794,4133.333333
96,4468.205128,4595.384615,4628.205128,4334.358974,4656.410256,4246.153846,4510.769230,4317.435897,4330.256410,4569.230769,4305.641025,4737.435897,4089.230769,4138.974358
97,4475.384615,4604.102564,4633.333333,4343.076923,4663.589743,4250.256410,4522.051282,4326.153846,4336.923076,4583.589743,4310.256410,4747.179487,4094.871794,4146.153846
98,4464.102564,4603.076923,4630.256410,4339.487179,4649.230769,4248.717948,4517.435897,4321.538461,4333.846153,4593.846153,4314.871794,4740.000000,4096.923076,4155.384615
99,4463.076923,4598.974358,4628.717948,4333.846153,4651.282051,4247.692307,4515.897435,4321.025641,4334.358974,4585.641025,4307.692307,4732.820512,4090.769230,4153.333333
100,4476.923076,4602.564102,4632.307692,4333.333333,4670.769230,4252.307692,4522.051282,4335.897435,4347.179487,4585.641025,4310.769230,4742.051282,4097.435897,4144.615384
101,4470.256410,4600.512820,4628.717948,4331.794871,4658.974358,4251.282051,4518.461538,4335.384615,4345.641025,4593.333333,4314.871794,4744.102564,4102.564102,4138.461538
102,4456.410256,4589.230769,4623.076923,4328.205128,4638.461538,4246.153846,4509.743589,4318.461538,4331.282051,4594.358974,4302.051282,4733.846153,4091.282051,4133.846153
103,4462.051282,4592.820512,4628.717948,4332.307692,4653.846153,4246.666666,4511.282051,4320.512820,4334.358974,4586.153846,4300.000000,4735.384615,4084.615384,4139.487179
104,4465.128205,4600.512820,4635.897435,4334.871794,4668.205128,4249.743589,4515.384615,4327.692307,4339.487179,4570.256410,4311.794871,4741.025641,4088.717948,4142.564102
105,4460.512820,4590.769230,4630.769230,4328.717948,4657.435897,4248.205128,4511.282051,4317.948717,4331.794871,4567.692307,4305.641025,4737.948717,4091.282051,4135.384615
106,4457.948717,4580.000000,4619.487179,4324.615384,4646.666666,4247.179487,4509.230769,4312.307692,4328.205128,4583.076923,4295.897435,4732.820512,4090.769230,4138.461538
107,4456.923076,4585.641025,4616.923076,4325.128205,4640.512820,4247.692307,4508.205128,4317.435897,4332.307692,4586.666666,4300.000000,4730.769230,4088.717948,4142.051282
108,4457.948717,4589.743589,4615.897435,4324.615384,4633.333333,4246.666666,4509.743589,4317.435897,4334.358974,4578.974358,4300.512820,4727.692307,4088.717948,4130.256410
109,4451.794871,4583.076923,4607.179487,4318.461538,4634.358974,4243.589743,4507.692307,4315.384615,4331.282051,4574.358974,4294.358974,4722.051282,4086.666666,4120.000000
110,4442.051282,4581.025641,4602.564102,4314.871794,4642.564102,4244.102564,4504.615384,4313.846153,4328.205128,4568.205128,4294.358974,4717.948717,4080.512820,4124.615384
111,4447.179487,4582.051282,4610.256410,4316.923076,4649.230769,4246.153846,4507.179487,4310.769230,4327.179487,4573.846153,4295.384615,4720.000000,4077.948717,4133.846153
112,4460.000000,4588.205128,4620.512820,4327.692307,4661.538461,4248.717948,4508.717948,4315.897435,4332.307692,4588.205128,4296.410256,4731.282051,4088.205128,4138.974358
113,4461.538461,4590.256410,4621.025641,4333.333333,4665.641025,4252.820512,4509.230769,4324.102564,4338.974358,4582.051282,4300.512820,4741.538461,4096.923076,4136.410256
114,4449.743589,4576.923076,4611.794871,4318.974358,4638.461538,4242.051282,4505.641025,4314.358974,4331.794871,4570.256410,4292.307692,4729.743589,4083.076923,4121.538461
115,4435.384615,4565.128205,4598.461538,4303.076923,4609.743589,4224.615384,4493.846153,4297.435897,4313.333333,4566.666666,4270.769230,4709.743589,4060.512820,4107.179487
116,4432.820512,4569.230769,4596.923076,4309.230769,4616.410256,4223.076923,4484.615384,4293.846153,4307.179487,4550.256410,4265.128205,4707.179487,4057.948717,4110.256410
117,4440.512820,4573.846153,4607.692307,4320.512820,4642.051282,4233.846153,4493.846153,4304.102564,4315.897435,4544.615384,4282.564102,4716.410256,4068.205128,4122.564102
118,4445.128205,4577.948717,4611.794871,4317.948717,4650.769230,4235.897435,4504.102564,4308.205128,4319.487179,4567.692307,4289.743589,4721.025641,4072.307692,4125.128205
119,4445.641025,4582.564102,4604.102564,4311.794871,4638.461538,4231.282051,4495.897435,4298.974358,4313.333333,4573.846153,4278.974358,4716.923076,4069.743589,4122.051282
120,4446.153846,4578.974358,4597.948717,4313.333333,4632.307692,4231.282051,4488.205128,4294.871794,4310.256410,4561.538461,4270.769230,4709.743589,4072.307692,4124.615384
121,4444.615384,4577.435897,4604.102564,4321.538461,4638.974358,4235.384615,4493.846153,4301.538461,4318.461538,4571.282051,4271.282051,4712.307692,4073.846153,4123.076923
122,4443.076923,4577.435897,4604.102564,4320.000000,4621.025641,4229.743589,4494.358974,4301.025641,4318.974358,4570.769230,4276.923076,4716.923076,4067.692307,4115.384615
123,4443.076923,4571.794871,4597.435897,4310.256410,4593.846153,4216.923076,4484.615384,4291.794871,4306.666666,4544.615384,4280.000000,4709.230769,4065.128205,4120.000000
124,4443.076923,4576.923076,4600.000000,4313.846153,4611.794871,4223.589743,4489.743589,4296.410256,4308.717948,4547.179487,4277.435897,4707.692307,4071.794871,4125.641025
125,4444.615384,4586.666666,4604.615384,4321.025641,4642.564102,4235.384615,4504.102564,4309.230769,4323.589743,4571.282051,4277.948717,4718.461538,4075.384615,4115.897435
126,4443.589743,4584.102564,4603.076923,4320.512820,4640.512820,4235.384615,4506.666666,4310.769230,4324.102564,4572.820512,4284.615384,4720.512820,4070.256410,4116.410256
127,4443.589743,4583.076923,4603.076923,4320.512820,4641.025641,4237.948717,4507.179487,4308.717948,4321.538461,4569.743589,4282.564102,4715.897435,4071.794871,4133.846153
128,4445.128205,4589.230769,4602.051282,4324.102564,4651.794871,4240.512820,4506.153846,4310.769230,4328.205128,4580.512820,4277.435897,4715.897435,4077.948717,4132.820512
129,4442.564102,4585.128205,4599.487179,4321.538461,4640.512820,4234.358974,4498.974358,4310.256410,4328.205128,4574.871794,4284.615384,4717.435897,4079.487179,4120.000000
130,4441.025641,4578.974358,4602.051282,4317.435897,4622.564102,4232.307692,4495.384615,4310.769230,4324.102564,4552.820512,4293.846153,4717.948717,4076.410256,4120.512820
131,4443.076923,4577.435897,4601.538461,4316.410256,4615.384615,4232.307692,4494.871794,4306.666666,4321.025641,4555.384615,4286.666666,4713.846153,4067.692307,4123.589743
132,4441.025641,4579.487179,4598.461538,4313.846153,4621.538461,4229.743589,4490.769230,4296.410256,4313.333333,4572.307692,4275.897435,4706.666666,4066.153846,4121.025641
133,4443.589743,4584.102564,4601.538461,4315.384615,4637.948717,4231.794871,4492.307692,4300.000000,4313.846153,4573.333333,4277.948717,4711.282051,4074.358974,4124.615384
134,4454.871794,4585.128205,4604.102564,4323.076923,4643.076923,4232.820512,4495.897435,4310.256410,4322.564102,4567.179487,4278.974358,4718.974358,4074.358974,4124.615384
135,4455.897435,4585.128205,4606.153846,4328.717948,4635.897435,4231.282051,4493.333333,4304.102564,4320.512820,4567.179487,4275.384615,4718.461538,4068.717948,4117.948717
136,4450.769230,4586.666666,4608.717948,4324.615384,4626.153846,4231.282051,4492.820512,4295.384615,4312.820512,4557.948717,4280.512820,4721.025641,4068.717948,4117.948717
137,4453.333333,4584.102564,4605.641025,4321.538461,4615.897435,4228.205128,4493.846153,4297.948717,4314.358974,4554.358974,4282.564102,4719.487179,4067.179487,4121.538461
138,4452.820512,4581.025641,4601.538461,4323.589743,4614.871794,4227.692307,4490.769230,4298.461538,4316.923076,4569.743589,4268.717948,4707.179487,4057.948717,4121.025641
139,4441.538461,4582.051282,4601.025641,4319.487179,4621.538461,4228.717948,4491.282051,4292.820512,4308.205128,4564.615384,4262.051282,4699.487179,4057.435897,4119.487179
140,4440.512820,4578.974358,4601.538461,4315.897435,4623.589743,4229.743589,4493.333333,4290.769230,4302.051282,4546.666666,4269.743589,4702.051282,4068.717948,4120.000000
141,4454.871794,4581.025641,4603.589743,4321.025641,4626.666666,4230.769230,4492.307692,4292.820512,4308.205128,4550.256410,4270.256410,4709.743589,4073.333333,4121.538461
142,4462.564102,4592.307692,4608.205128,4326.153846,4630.256410,4231.282051,4489.743589,4293.846153,4311.794871,4555.897435,4266.153846,4715.897435,4069.230769,4121.025641
143,4461.538461,4594.358974,4608.717948,4327.179487,4627.179487,4230.769230,4489.743589,4294.871794,4310.256410,4553.333333,4274.871794,4719.487179,4070.256410,4120.000000
144,4460.512820,4588.205128,4607.692307,4327.692307,4620.512820,4229.743589,4491.282051,4293.333333,4310.769230,4564.615384,4283.589743,4719.487179,4075.384615,4126.153846
145,4458.974358,4589.230769,4608.205128,4330.769230,4618.974358,4229.230769,4491.794871,4291.794871,4310.256410,4569.230769,4280.000000,4716.410256,4071.282051,4132.820512
146,4453.846153,4590.256410,4604.615384,4328.717948,4616.410256,4230.256410,4490.769230,4293.333333,4307.692307,4557.435897,4270.256410,4712.307692,4062.051282,4129.230769
147,4451.794871,4583.076923,4599.487179,4320.000000,4604.102564,4228.717948,4489.230769,4289.743589,4306.153846,4551.794871,4262.051282,4707.692307,4060.000000,4118.461538
148,4455.384615,4577.948717,4598.974358,4319.487179,4596.923076,4226.153846,4489.230769,4285.641025,4307.692307,4550.769230,4263.076923,4707.692307,4064.615384,4113.846153
149,4460.000000,4585.128205,4602.051282,4329.230769,4608.205128,4229.230769,4490.769230,4296.410256,4317.948717,4556.923076,4274.358974,4715.384615,4071.794871,4127.179487
150,4464.615384,4593.846153,4605.641025,4332.307692,4616.923076,4229.743589,4491.794871,4307.179487,4326.666666,4573.333333,4284.102564,4723.076923,4077.948717,4137.948717
151,4463.589743,4593.846153,4605.641025,4326.153846,4615.897435,4229.230769,4490.769230,4300.512820,4320.512820,4578.974358,4286.666666,4722.051282,4082.564102,4128.205128
152,4460.512820,4586.153846,4604.102564,4322.564102,4615.384615,4230.769230,4491.794871,4293.846153,4316.923076,4576.410256,4290.769230,4722.051282,4081.538461,4123.589743
153,4461.538461,4584.615384,4607.179487,4325.641025,4610.769230,4224.615384,4491.794871,4295.897435,4319.487179,4584.615384,4294.358974,4725.128205,4078.461538,4135.384615
154,4463.589743,4586.153846,4610.256410,4331.794871,4609.743589,4221.538461,4490.256410,4295.897435,4314.358974,4576.410256,4286.153846,4721.025641,4078.974358,4141.538461
155,4461.025641,4587.179487,4605.128205,4334.358974,4616.410256,4228.205128,4490.256410,4294.871794,4307.692307,4547.692307,4278.461538,4719.487179,4081.538461,4135.384615
156,4459.487179,4587.179487,4602.564102,4328.717948,4609.743589,4226.153846,4488.717948,4294.358974,4308.205128,4546.153846,4277.948717,4718.974358,4076.923076,4122.051282
157,4461.538461,4584.102564,4604.615384,4324.102564,4597.948717,4216.923076,4487.179487,4293.846153,4308.717948,4566.153846,4275.384615,4711.282051,4068.205128,4116.923076
158,4461.538461,4582.564102,4603.076923,4325.641025,4605.641025,4216.923076,4487.692307,4293.333333,4308.717948,4573.333333,4274.358974,4709.743589,4063.589743,4126.153846
159,4460.512820,4585.128205,4602.051282,4327.692307,4622.051282,4228.205128,4492.820512,4295.897435,4310.769230,4571.282051,4277.948717,4718.974358,4066.666666,4127.692307
160,4460.000000,4587.692307,4603.076923,4329.743589,4621.538461,4233.846153,4494.871794,4299.487179,4314.871794,4561.025641,4280.000000,4720.000000,4076.923076,4125.128205
161,4460.512820,4587.179487,4598.974358,4324.615384,4604.102564,4224.102564,4489.230769,4297.948717,4312.307692,4545.128205,4278.461538,4709.743589,4077.948717,4126.153846
162,4457.948717,4585.641025,4594.871794,4317.948717,4599.487179,4217.948717,4486.153846,4292.820512,4306.153846,4552.820512,4275.897435,4707.179487,4069.230769,4116.410256
163,4455.384615,4581.025641,4598.461538,4323.076923,4616.923076,4225.128205,4491.794871,4294.358974,4309.743589,4574.358974,4271.794871,4711.794871,4069.230769,4112.307692
164,4456.410256,4577.948717,4600.512820,4328.205128,4615.897435,4223.589743,4488.205128,4291.282051,4310.256410,4565.128205,4272.820512,4709.743589,4069.230769,4125.128205
165,4457.435897,4580.000000,4596.923076,4324.102564,4586.153846,4213.846153,4474.358974,4279.487179,4300.512820,4543.076923,4274.871794,4703.589743,4056.410256,4125.641025
166,4457.948717,4581.538461,4597.435897,4323.076923,4582.564102,4212.307692,4474.871794,4275.897435,4300.000000,4548.717948,4268.717948,4702.564102,4053.333333,4118.461538
167,4460.512820,4584.102564,4598.461538,4323.589743,4614.871794,4222.051282,4487.692307,4288.205128,4309.230769,4565.641025,4272.307692,4707.692307,4071.282051,4123.589743
168,4461.538461,4586.153846,4594.358974,4316.923076,4628.205128,4227.692307,4492.820512,4293.333333,4310.769230,4564.615384,4278.974358,4711.282051,4079.487179,4120.512820
169,4457.948717,4583.076923,4592.820512,4312.820512,4615.384615,4223.076923,4483.589743,4285.128205,4308.205128,4562.051282,4271.282051,4709.743589,4072.307692,4113.846153
170,4456.410256,4583.076923,4596.923076,4316.410256,4609.743589,4221.025641,4477.948717,4285.641025,4308.205128,4563.076923,4267.179487,4706.666666,4072.820512,4120.512820
171,4458.974358,4585.128205,4603.076923,4319.487179,4621.025641,4225.641025,4488.205128,4296.410256,4311.794871,4556.923076,4275.897435,4710.769230,4077.435897,4127.179487
172,4452.307692,4579.487179,4601.538461,4313.846153,4623.076923,4222.564102,4491.794871,4295.384615,4313.846153,4554.358974,4273.846153,4709.230769,4067.179487,4121.025641
173,4432.307692,4564.615384,4587.179487,4299.487179,4596.923076,4212.307692,4476.410256,4281.538461,4304.102564,4549.743589,4254.871794,4691.794871,4051.794871,4100.000000
174,4421.025641,4557.435897,4578.974358,4290.769230,4583.076923,4209.743589,4469.230769,4274.871794,4292.307692,4532.307692,4249.743589,4683.076923,4051.282051,4081.538461
175,4436.410256,4567.692307,4587.179487,4301.538461,4604.102564,4214.871794,4478.461538,4279.487179,4294.358974,4533.846153,4258.461538,4695.897435,4062.564102,4088.205128
176,4448.205128,4577.948717,4591.794871,4312.820512,4616.923076,4219.487179,4482.051282,4280.512820,4300.000000,4557.948717,4261.025641,4701.025641,4069.743589,4111.794871
177,4434.871794,4570.769230,4583.589743,4305.641025,4604.615384,4216.410256,4474.358974,4273.846153,4296.923076,4560.512820,4251.794871,4690.256410,4062.051282,4110.769230
178,4422.564102,4563.076923,4581.025641,4292.307692,4609.743589,4213.333333,4474.358974,4273.333333,4291.794871,4549.230769,4244.615384,4685.641025,4052.307692,4093.846153
179,4428.717948,4568.717948,4586.666666,4293.333333,4624.615384,4218.974358,4483.076923,4279.487179,4295.897435,4549.230769,4248.717948,4687.179487,4053.333333,4097.948717
180,4432.820512,4572.820512,4589.230769,4302.051282,4610.769230,4219.487179,4482.564102,4278.974358,4302.564102,4554.358974,4255.384615,4691.282051,4056.410256,4102.051282
181,4429.743589,4570.769230,4590.256410,4307.692307,4599.487179,4217.435897,4480.512820,4277.435897,4303.076923,4551.282051,4257.948717,4697.435897,4057.435897,4089.230769
182,4430.256410,4569.230769,4592.307692,4308.717948,4613.846153,4222.564102,4485.128205,4282.051282,4304.102564,4539.487179,4253.333333,4695.897435,4062.564102,4093.846153
183,4429.743589,4567.179487,4591.282051,4302.051282,4614.358974,4222.564102,4481.025641,4281.025641,4307.179487,4539.487179,4248.717948,4693.333333,4062.051282,4109.230769
184,4429.230769,4567.692307,4588.205128,4295.897435,4598.461538,4216.410256,4475.897435,4278.974358,4306.153846,4553.333333,4254.358974,4701.025641,4056.923076,4103.589743
185,4436.410256,4570.256410,4587.692307,4304.102564,4601.025641,4221.025641,4484.615384,4285.641025,4308.205128,4560.512820,4261.025641,4705.641025,4061.025641,4100.000000
186,4439.487179,4570.256410,4594.871794,4311.794871,4621.025641,4232.820512,4493.846153,4291.794871,4313.846153,4554.871794,4262.051282,4705.128205,4063.589743,4111.794871
187,4431.282051,4570.769230,4598.461538,4302.051282,4622.564102,4232.820512,4491.282051,4296.923076,4315.384615,4555.384615,4264.102564,4705.641025,4057.948717,4108.717948
188,4425.641025,4568.717948,4590.769230,4292.307692,4603.589743,4221.538461,4482.564102,4293.846153,4313.846153,4560.512820,4262.051282,4702.564102,4054.871794,4092.820512
189,4424.615384,4555.897435,4586.153846,4294.871794,4594.358974,4215.897435,4475.897435,4281.025641,4310.769230,4550.769230,4248.717948,4700.000000,4054.358974,4086.666666
190,4421.025641,4551.282051,4589.743589,4295.384615,4602.051282,4218.974358,4477.435897,4283.076923,4311.282051,4546.666666,4243.076923,4704.102564,4052.820512,4093.333333
191,4422.564102,4560.000000,4592.307692,4292.307692,4601.025641,4217.948717,4477.435897,4291.794871,4315.384615,4553.846153,4251.282051,4708.205128,4052.820512,4104.615384
192,4428.717948,4560.512820,4592.820512,4294.358974,4587.179487,4213.846153,4472.307692,4283.589743,4307.179487,4550.256410,4252.307692,4708.717948,4052.820512,4108.205128
193,4428.205128,4558.974358,4592.820512,4294.358974,4590.769230,4213.846153,4474.358974,4275.897435,4297.948717,4542.564102,4249.230769,4707.179487,4052.820512,4104.102564
194,4427.692307,4562.564102,4593.333333,4293.846153,4602.564102,4217.435897,4476.923076,4281.538461,4300.512820,4545.128205,4257.948717,4709.743589,4055.384615,4102.564102
195,4429.230769,4562.564102,4592.307692,4296.410256,4603.076923,4217.948717,4474.358974,4282.051282,4302.051282,4538.974358,4263.589743,4711.794871,4057.948717,4102.564102
196,4428.717948,4564.102564,4590.256410,4296.923076,4596.410256,4215.897435,4473.846153,4278.461538,4301.538461,4534.358974,4252.307692,4706.666666,4057.435897,4100.512820
197,4429.743589,4569.743589,4588.205128,4295.384615,4587.692307,4215.384615,4474.871794,4281.025641,4302.564102,4550.256410,4243.589743,4703.076923,4053.846153,4106.153846
198,4429.743589,4568.205128,4587.692307,4298.461538,4583.589743,4215.384615,4473.846153,4283.589743,4303.589743,4554.871794,4255.897435,4707.179487,4055.384615,4114.871794
199,4428.717948,4566.666666,4590.769230,4303.589743,4590.769230,4212.820512,4472.820512,4283.076923,4305.128205,4549.230769,4266.666666,4708.717948,4063.589743,4107.179487
200,4429.743589,4574.358974,4594.871794,4307.179487,4599.487179,4213.846153,4474.358974,4284.102564,4311.282051,4556.410256,4253.333333,4704.615384,4060.000000,4095.897435
201,4428.717948,4568.205128,4590.769230,4303.589743,4592.820512,4216.923076,4476.410256,4286.153846,4310.769230,4557.435897,4244.615384,4702.564102,4047.179487,4100.000000
202,4423.076923,4556.923076,4581.538461,4296.410256,4584.615384,4210.256410,4474.358974,4283.076923,4303.589743,4551.794871,4253.846153,4704.102564,4050.256410,4106.153846
203,4422.564102,4562.051282,4582.564102,4300.000000,4587.179487,4205.641025,4468.717948,4276.410256,4302.051282,4553.846153,4251.282051,4703.076923,4060.000000,4100.512820
204,4427.692307,4570.769230,4586.153846,4307.179487,4589.230769,4214.358974,4469.230769,4277.435897,4301.025641,4547.692307,4245.128205,4700.000000,4056.410256,4091.282051
205,4428.205128,4568.205128,4584.615384,4308.205128,4590.256410,4218.974358,4474.358974,4281.538461,4299.487179,4532.820512,4250.769230,4701.538461,4050.769230,4089.743589
206,4427.692307,4567.692307,4583.589743,4307.179487,4598.974358,4215.897435,4476.923076,4280.512820,4301.538461,4536.410256,4249.743589,4705.128205,4056.923076,4098.974358
207,4430.769230,4573.846153,4587.692307,4306.153846,4607.179487,4219.487179,4476.410256,4278.974358,4304.102564,4553.333333,4247.179487,4702.051282,4062.564102,4112.307692
208,4429.230769,4570.769230,4582.051282,4302.051282,4589.743589,4220.000000,4475.897435,4278.974358,4302.051282,4562.051282,4252.820512,4695.384615,4055.384615,4106.666666
209,4424.102564,4558.974358,4574.358974,4295.897435,4571.794871,4213.333333,4472.820512,4276.410256,4297.435897,4552.820512,4248.717948,4694.871794,4046.666666,4084.102564
210,4427.692307,4560.000000,4579.487179,4296.410256,4590.256410,4214.871794,4473.333333,4278.461538,4300.000000,4542.564102,4245.128205,4703.589743,4054.358974,4083.076923
211,4430.256410,4565.641025,4581.025641,4298.974358,4600.000000,4217.948717,4477.435897,4284.102564,4303.076923,4547.179487,4254.358974,4703.589743,4062.051282,4103.076923
212,4426.153846,4561.538461,4576.410256,4299.487179,4575.384615,4214.871794,4476.410256,4282.051282,4301.025641,4556.923076,4256.410256,4697.948717,4053.846153,4108.717948
213,4430.769230,4560.512820,4582.051282,4297.948717,4570.256410,4214.358974,4475.897435,4279.487179,4298.461538,4555.897435,4250.256410,4701.025641,4051.794871,4104.102564
214,4435.897435,4567.179487,4587.692307,4300.000000,4589.743589,4216.923076,4477.948717,4282.564102,4299.487179,4545.128205,4249.743589,4704.615384,4057.948717,4103.589743
215,4430.256410,4571.794871,4583.076923,4306.153846,4592.820512,4216.923076,4476.410256,4281.025641,4298.461538,4536.923076,4250.769230,4704.102564,4055.897435,4098.974358
216,4433.846153,4576.410256,4584.615384,4312.820512,4589.743589,4216.410256,4474.871794,4277.435897,4292.820512,4541.025641,4248.205128,4704.102564,4054.358974,4095.897435
217,4442.564102,4576.410256,4587.692307,4311.282051,4596.923076,4216.923076,4476.923076,4278.461538,4293.846153,4553.333333,4246.153846,4702.564102,4055.897435,4106.153846
218,4442.051282,4571.794871,4584.102564,4302.051282,4594.358974,4218.461538,4476.923076,4281.025641,4298.974358,4557.948717,4252.307692,4702.564102,4056.410256,4115.384615
219,4437.435897,4569.743589,4582.051282,4298.974358,4578.461538,4213.846153,4475.897435,4281.025641,4298.974358,4551.282051,4253.846153,4705.128205,4054.358974,4101.025641
220,4431.794871,4565.128205,4576.410256,4300.000000,4564.615384,4203.076923,4469.743589,4277.948717,4290.769230,4536.410256,4242.051282,4698.974358,4046.666666,4075.897435
221,4424.102564,4564.102564,4569.743589,4300.512820,4568.717948,4202.564102,4462.051282,4273.333333,4282.051282,4523.076923,4237.948717,4688.205128,4035.384615,4082.051282
222,4425.641025,4569.230769,4569.230769,4302.051282,4578.461538,4207.179487,4462.564102,4268.205128,4282.564102,4529.743589,4240.000000,4684.615384,4031.794871,4104.615384
223,4426.153846,4560.512820,4567.692307,4297.948717,4576.923076,4204.615384,4463.076923,4267.692307,4287.179487,4542.564102,4228.717948,4682.564102,4033.846153,4101.025641
224,4423.076923,4554.871794,4564.615384,4293.846153,4580.512820,4205.128205,4460.512820,4272.820512,4289.230769,4537.435897,4225.641025,4683.589743,4040.512820,4087.692307
225,4434.358974,4567.179487,4575.897435,4300.512820,4597.435897,4215.897435,4469.230769,4277.435897,4293.846153,4537.435897,4246.153846,4695.384615,4052.307692,4091.794871
226,4447.179487,4575.897435,4588.717948,4309.230769,4600.000000,4220.512820,4475.897435,4283.076923,4299.487179,4552.820512,4261.538461,4707.692307,4060.000000,4101.025641
227,4440.000000,4569.743589,4581.025641,4310.256410,4573.333333,4209.743589,4465.641025,4278.974358,4293.846153,4547.179487,4249.230769,4703.589743,4055.384615,4103.589743
228,4425.128205,4555.897435,4566.153846,4300.000000,4548.717948,4198.974358,4455.384615,4266.153846,4281.538461,4530.769230,4231.282051,4688.205128,4038.461538,4099.487179
229,4424.102564,4544.615384,4564.615384,4287.179487,4562.051282,4203.589743,4460.512820,4267.179487,4280.000000,4536.410256,4231.794871,4685.641025,4029.743589,4094.871794
230,4436.410256,4560.000000,4574.358974,4297.948717,4595.384615,4217.435897,4471.794871,4279.487179,4290.769230,4543.589743,4245.641025,4698.461538,4041.538461,4100.512820
231,4448.717948,4587.692307,4583.076923,4320.512820,4604.615384,4220.000000,4474.358974,4284.615384,4298.461538,4543.589743,4252.307692,4705.641025,4051.282051,4111.794871
232,4449.743589,4589.230769,4584.102564,4317.948717,4590.769230,4212.820512,4472.307692,4284.615384,4298.974358,4552.820512,4246.153846,4703.076923,4044.615384,4112.820512
233,4446.153846,4581.538461,4581.025641,4310.769230,4586.666666,4214.871794,4468.717948,4286.666666,4298.461538,4562.564102,4243.076923,4702.051282,4042.051282,4103.589743
234,4448.205128,4590.769230,4585.641025,4317.948717,4583.589743,4217.435897,4464.615384,4285.128205,4297.948717,4554.871794,4247.179487,4705.128205,4049.230769,4102.564102
235,4446.666666,4590.769230,4586.153846,4312.820512,4573.333333,4205.641025,4459.487179,4278.974358,4290.769230,4535.384615,4244.615384,4704.102564,4046.666666,4107.692307
236,4442.051282,4572.820512,4574.871794,4301.538461,4572.307692,4202.051282,4458.461538,4276.410256,4288.205128,4531.282051,4236.923076,4702.564102,4038.974358,4106.153846
237,4445.128205,4566.666666,4576.410256,4307.179487,4576.410256,4211.282051,4460.512820,4278.461538,4296.410256,4544.615384,4241.538461,4704.102564,4038.974358,4111.794871
238,4446.153846,4574.871794,4584.615384,4311.282051,4572.307692,4208.205128,4458.974358,4280.000000,4298.974358,4545.641025,4251.282051,4704.102564,4041.025641,4122.564102
239,4441.025641,4573.333333,4577.435897,4306.153846,4577.435897,4204.102564,4460.000000,4277.435897,4291.282051,4538.974358,4247.179487,4701.538461,4037.948717,4110.256410
240,4443.076923,4571.282051,4570.769230,4305.641025,4591.794871,4213.333333,4466.666666,4280.000000,4289.743589,4544.102564,4237.435897,4702.051282,4028.717948,4090.769230
241,4441.538461,4572.820512,4568.717948,4302.564102,4579.487179,4211.282051,4466.153846,4276.923076,4286.153846,4530.769230,4232.307692,4698.974358,4024.615384,4086.153846
242,4427.692307,4566.153846,4564.615384,4297.435897,4556.923076,4195.897435,4455.897435,4263.076923,4273.846153,4507.692307,4227.692307,4688.717948,4025.641025,4087.179487
243,4429.230769,4568.717948,4567.179487,4305.641025,4567.692307,4196.410256,4453.846153,4265.128205,4274.871794,4528.717948,4228.205128,4686.153846,4026.666666,4094.871794
244,4446.153846,4582.051282,4577.435897,4316.923076,4594.358974,4209.230769,4461.538461,4280.000000,4291.794871,4558.974358,4237.435897,4697.435897,4029.743589,4109.230769
245,4446.153846,4575.384615,4576.410256,4309.230769,4591.282051,4210.769230,4462.564102,4277.435897,4294.358974,4548.717948,4238.461538,4700.512820,4033.333333,4110.256410
246,4429.743589,4557.948717,4564.102564,4292.820512,4568.717948,4201.538461,4456.923076,4262.051282,4278.974358,4534.358974,4224.615384,4686.153846,4022.564102,4083.076923
247,4428.717948,4562.051282,4561.025641,4294.871794,4570.256410,4198.461538,4457.948717,4261.025641,4276.923076,4533.846153,4220.512820,4677.435897,4014.871794,4069.230769
248,4436.410256,4572.307692,4568.205128,4304.102564,4578.974358,4205.641025,4465.128205,4267.692307,4285.641025,4524.615384,4233.333333,4684.615384,4026.153846,4096.923076
249,4433.846153,4569.230769,4569.230769,4301.538461,4567.179487,4204.102564,4464.615384,4266.153846,4283.589743,4519.487179,4231.794871,4688.717948,4031.282051,4109.230769
250,4432.307692,4566.666666,4564.102564,4300.000000,4562.564102,4200.000000,4458.461538,4263.076923,4283.076923,4535.897435,4225.641025,4685.128205,4023.076923,4088.205128
251,4439.487179,4569.230769,4566.666666,4302.051282,4574.358974,4203.076923,4459.487179,4265.128205,4291.794871,4545.128205,4234.358974,4685.641025,4024.615384,4086.666666
252,4440.512820,4568.205128,4571.282051,4296.410256,4575.897435,4203.076923,4461.538461,4265.641025,4287.692307,4535.897435,4238.461538,4688.717948,4029.230769,4090.769230
253,4433.333333,4565.641025,4565.641025,4294.871794,4569.743589,4200.512820,4458.974358,4263.589743,4278.461538,4533.846153,4228.717948,4686.153846,4024.615384,4074.358974
254,4428.205128,4557.435897,4564.102564,4297.948717,4569.230769,4201.538461,4458.974358,4271.282051,4286.666666,4544.102564,4226.666666,4684.615384,4027.692307,4078.461538
255,4425.641025,4549.743589,4569.743589,4295.384615,4565.641025,4203.076923,4462.564102,4280.000000,4294.871794,4536.923076,4230.769230,4687.179487,4032.820512,4095.897435
256,4432.820512,4561.025641,4569.230769,4299.487179,4564.615384,4202.564102,4461.025641,4272.820512,4289.230769,4522.051282,4231.794871,4690.256410,4025.128205,4092.820512
257,4447.179487,4580.000000,4572.820512,4308.717948,4575.897435,4203.076923,4458.974358,4265.128205,4287.179487,4536.410256,4237.435897,4697.948717,4023.076923,4091.282051
258,4451.282051,4582.564102,4581.538461,4312.820512,4575.384615,4202.564102,4460.000000,4268.205128,4291.794871,4553.333333,4241.538461,4701.025641,4030.256410,4095.384615
259,4443.589743,4579.487179,4578.461538,4310.256410,4555.897435,4198.974358,4459.487179,4267.692307,4287.179487,4541.025641,4233.333333,4694.358974,4023.589743,4096.410256
