,AF3,F7,F3,FC5,T7,P7,O1,O2,P8,T8,FC6,F4,F8,AF4
0,4394.358974,4546.666666,4568.205128,4227.179487,4491.794871,4137.948717,4442.051282,4224.615384,4245.128205,4498.974358,4198.974358,4672.307692,3989.743590,4080.512820
1,4382.051282,4530.256410,4557.435897,4228.717948,4492.820512,4120.512820,4440.512820,4225.641025,4241.538461,4493.333333,4191.282051,4666.666666,3988.717949,4072.820512
2,4387.179487,4526.666666,4562.051282,4233.333333,4495.897435,4111.282051,4440.512820,4227.692307,4245.641025,4498.461538,4193.846153,4668.717948,3996.410257,4072.307692
3,4395.384615,4538.974358,4567.692307,4242.564102,4503.076923,4112.307692,4444.615384,4232.820512,4251.794871,4505.641025,4210.256410,4673.846153,4000.000000,4081.538461
4,4385.128205,4537.435897,4555.897435,4248.205128,4511.282051,4102.051282,4441.025641,4227.692307,4247.179487,4499.487179,4210.769230,4668.205128,3995.384616,4079.487179
5,4381.538461,4534.358974,4552.820512,4247.692307,4516.923076,4091.282051,4437.435897,4222.564102,4245.128205,4494.358974,4202.051282,4666.153846,3991.282052,4070.256410
6,4391.794871,4542.051282,4564.615384,4249.743589,4517.435897,4093.846153,4443.076923,4228.717948,4248.717948,4501.538461,4207.692307,4671.794871,3995.897436,4075.897435
7,4388.205128,4537.948717,4561.538461,4255.897435,4520.512820,4088.205128,4442.564102,4229.743589,4246.153846,4500.000000,4205.128205,4667.692307,3998.974359,4082.564102
8,4376.923076,4525.128205,4552.307692,4255.897435,4524.102564,4076.410256,4436.923076,4221.025641,4240.000000,4493.333333,4193.846153,4660.512820,3990.769231,4069.743589
9,4377.435897,4530.769230,4556.923076,4252.820512,4524.615384,4079.487179,4442.051282,4220.512820,4240.000000,4494.871794,4203.076923,4662.564102,3981.025642,4059.487179
10,4377.948717,4534.871794,4558.461538,4253.846153,4529.230769,4083.076923,4449.230769,4225.641025,4240.512820,4492.820512,4204.102564,4662.051282,3977.948718,4065.128205
11,4371.282051,4523.589743,4550.256410,4252.307692,4532.820512,4073.333333,4445.128205,4224.615384,4236.410256,4483.589743,4185.128205,4653.846153,3971.794872,4064.102564
12,4372.307692,4522.564102,4552.820512,4257.435897,4530.769230,4071.282051,4446.153846,4226.666666,4238.461538,4485.128205,4186.153846,4658.974358,3971.794872,4058.461538
13,4381.538461,4533.846153,4565.641025,4278.974358,4536.410256,4077.435897,4453.333333,4234.871794,4248.717948,4492.820512,4201.025641,4670.769230,3986.153847,4068.205128
14,4381.025641,4534.871794,4563.589743,4290.769230,4544.615384,4071.794871,4447.179487,4231.282051,4246.666666,4489.743589,4195.897435,4666.153846,3985.641026,4072.820512
15,4374.358974,4530.256410,4554.358974,4280.000000,4542.564102,4063.076923,4438.461538,4214.871794,4234.358974,4483.589743,4188.205128,4658.461538,3973.333334,4065.128205
16,4375.897435,4527.692307,4555.897435,4275.384615,4539.487179,4067.179487,4442.564102,4211.282051,4231.282051,4486.153846,4193.846153,4661.025641,3978.461539,4065.641025
17,4374.358974,4519.487179,4555.384615,4279.487179,4544.615384,4067.692307,4445.128205,4215.897435,4232.307692,4484.102564,4188.717948,4658.974358,3981.538462,4063.076923
18,4364.102564,4508.717948,4548.205128,4274.871794,4543.589743,4057.948717,4439.487179,4212.820512,4228.717948,4476.923076,4183.076923,4650.769230,3964.102565,4051.794871
19,4369.743589,4510.769230,4550.769230,4276.923076,4542.051282,4058.974358,4440.000000,4215.384615,4236.923076,4482.564102,4198.461538,4657.435897,3966.153847,4060.000000
20,4382.564102,4524.102564,4557.948717,4284.102564,4550.256410,4066.153846,4445.641025,4225.641025,4247.692307,4495.384615,4207.179487,4667.179487,3989.230770,4075.384615
21,4381.538461,4531.794871,4556.410256,4282.051282,4552.820512,4064.102564,4442.051282,4227.179487,4243.076923,4490.769230,4198.461538,4664.102564,3985.128206,4070.769230
22,4377.948717,4531.282051,4555.897435,4276.923076,4548.717948,4061.538461,4439.487179,4222.051282,4236.923076,4481.538461,4200.000000,4660.000000,3972.820513,4063.589743
23,4380.000000,4528.205128,4557.435897,4278.461538,4547.692307,4067.179487,4445.128205,4223.589743,4241.538461,4488.205128,4204.615384,4663.076923,3984.102565,4069.743589
24,4377.435897,4523.589743,4554.871794,4283.589743,4550.256410,4074.871794,4448.205128,4225.128205,4244.102564,4495.897435,4195.384615,4664.102564,3985.641026,4069.743589
25,4374.358974,4516.410256,4552.307692,4283.076923,4547.179487,4082.564102,4445.641025,4218.974358,4234.871794,4487.692307,4189.743589,4658.974358,3966.666667,4061.025641
26,4376.923076,4515.897435,4555.384615,4277.435897,4543.589743,4093.333333,4446.153846,4215.897435,4230.256410,4476.923076,4196.923076,4659.487179,3964.615385,4060.000000
27,4380.512820,4526.153846,4557.948717,4278.974358,4544.615384,4104.102564,4449.743589,4223.589743,4237.435897,4483.589743,4206.153846,4666.666666,3982.564103,4067.179487
28,4374.871794,4525.641025,4554.871794,4279.487179,4538.974358,4105.641025,4446.666666,4226.153846,4238.974358,4487.179487,4202.564102,4663.589743,3983.076924,4067.179487
29,4365.641025,4514.871794,4550.256410,4269.743589,4526.666666,4101.025641,4436.410256,4219.487179,4233.846153,4476.410256,4189.230769,4653.333333,3972.307693,4058.461538
30,4372.820512,4516.410256,4552.307692,4268.717948,4525.128205,4106.153846,4434.871794,4218.974358,4236.923076,4478.461538,4191.282051,4655.897435,3975.384616,4061.025641
31,4377.948717,4522.051282,4555.384615,4280.000000,4530.256410,4114.871794,4443.076923,4223.589743,4241.538461,4487.692307,4196.923076,4664.102564,3972.307693,4068.717948
32,4366.666666,4514.871794,4553.846153,4283.589743,4526.153846,4114.358974,4447.179487,4219.487179,4229.230769,4478.461538,4190.256410,4661.025641,3957.435898,4061.025641
33,4366.666666,4509.230769,4552.820512,4277.948717,4517.435897,4112.820512,4444.102564,4214.871794,4221.025641,4471.282051,4196.410256,4656.410256,3964.102565,4053.333333
34,4375.384615,4513.846153,4553.846153,4275.384615,4516.923076,4119.487179,4443.076923,4213.846153,4227.692307,4480.512820,4205.641025,4657.948717,3975.897436,4058.461538
35,4371.794871,4515.384615,4553.333333,4273.333333,4518.974358,4126.666666,4442.564102,4212.820512,4230.256410,4483.076923,4194.871794,4657.435897,3965.641026,4061.025641
36,4370.256410,4514.358974,4554.871794,4274.871794,4518.974358,4130.256410,4443.076923,4217.435897,4232.820512,4478.974358,4189.230769,4659.487179,3964.615385,4062.051282
37,4377.948717,4516.923076,4558.461538,4279.487179,4523.076923,4135.384615,4446.666666,4225.641025,4244.102564,4482.564102,4201.538461,4666.666666,3974.358975,4069.743589
38,4373.333333,4517.435897,4556.410256,4278.461538,4524.615384,4137.948717,4445.128205,4226.153846,4245.641025,4485.641025,4211.282051,4667.692307,3969.743590,4070.256410
39,4365.641025,4513.333333,4551.794871,4271.794871,4516.923076,4133.333333,4438.461538,4219.487179,4232.820512,4482.051282,4205.128205,4662.051282,3964.102565,4062.051282
40,4369.743589,4513.846153,4552.307692,4271.794871,4510.256410,4132.307692,4439.487179,4218.974358,4229.230769,4478.974358,4195.897435,4657.948717,3968.205129,4060.512820
41,4374.871794,4516.410256,4554.358974,4276.410256,4514.358974,4141.025641,4447.179487,4223.076923,4235.897435,4480.512820,4200.512820,4659.487179,3970.769231,4066.666666
42,4375.897435,4517.435897,4554.871794,4281.025641,4521.538461,4147.179487,4450.256410,4225.128205,4242.564102,4487.179487,4211.282051,4665.128205,3977.435898,4075.384615
43,4376.923076,4519.487179,4554.358974,4287.179487,4522.051282,4146.666666,4447.692307,4226.153846,4248.205128,4493.846153,4211.794871,4666.153846,3985.641026,4076.410256
44,4377.435897,4520.000000,4552.307692,4286.666666,4518.974358,4146.666666,4444.102564,4225.128205,4244.615384,4494.358974,4209.230769,4660.000000,3979.487180,4068.717948
45,4375.384615,4518.974358,4544.615384,4279.487179,4517.435897,4145.128205,4442.051282,4222.051282,4240.000000,4488.205128,4204.615384,4654.871794,3969.230770,4064.102564
46,4372.307692,4518.461538,4538.974358,4278.974358,4516.923076,4142.051282,4440.000000,4218.461538,4238.461538,4475.384615,4198.461538,4653.846153,3968.717949,4065.128205
47,4373.333333,4520.512820,4540.512820,4284.102564,4514.871794,4149.230769,4442.051282,4213.846153,4231.282051,4469.230769,4202.564102,4656.410256,3973.846154,4070.769230
48,4377.435897,4520.000000,4541.538461,4283.076923,4514.358974,4154.871794,4445.128205,4210.769230,4223.076923,4471.794871,4205.128205,4657.435897,3977.435898,4074.358974
49,4375.897435,4516.410256,4541.025641,4276.410256,4511.794871,4149.230769,4440.000000,4207.179487,4222.564102,4475.897435,4197.948717,4650.769230,3976.410257,4068.717948
50,4373.333333,4515.897435,4541.538461,4277.435897,4510.256410,4149.230769,4435.897435,4209.743589,4226.666666,4478.461538,4203.076923,4646.153846,3970.256411,4064.615384
51,4374.358974,4516.410256,4539.487179,4285.128205,4514.358974,4155.897435,4440.000000,4217.948717,4231.794871,4478.461538,4212.820512,4648.717948,3969.230770,4067.692307
52,4380.000000,4519.487179,4545.641025,4287.692307,4514.358974,4158.461538,4445.128205,4226.153846,4238.974358,4483.076923,4212.307692,4651.794871,3982.564103,4071.794871
53,4380.512820,4523.076923,4553.846153,4281.025641,4510.256410,4161.538461,4448.205128,4228.717948,4241.538461,4482.051282,4211.794871,4650.769230,3991.282052,4072.820512
54,4369.743589,4517.948717,4545.128205,4276.410256,4508.717948,4165.128205,4452.820512,4227.179487,4237.435897,4472.307692,4207.179487,4646.153846,3981.025642,4065.128205
55,4364.102564,4511.282051,4534.871794,4278.461538,4508.717948,4169.743589,4458.974358,4227.179487,4238.461538,4472.820512,4198.461538,4641.538461,3973.846154,4055.897435
56,4372.307692,4515.384615,4540.000000,4283.076923,4512.820512,4177.948717,4463.076923,4232.820512,4243.076923,4483.589743,4202.051282,4643.076923,3975.897436,4059.487179
57,4375.384615,4518.461538,4542.051282,4281.025641,4516.410256,4180.512820,4461.025641,4236.923076,4241.025641,4480.512820,4210.769230,4645.641025,3972.820513,4066.153846
58,4372.307692,4512.820512,4538.974358,4277.948717,4512.820512,4177.435897,4462.564102,4233.846153,4240.000000,4478.974358,4213.333333,4644.102564,3971.794872,4064.615384
59,4380.000000,4513.333333,4548.205128,4283.076923,4509.230769,4182.564102,4467.179487,4237.435897,4251.282051,4492.307692,4213.333333,4651.794871,3980.512821,4068.205128
60,4386.153846,4519.487179,4557.948717,4286.666666,4512.307692,4183.589743,4462.051282,4245.128205,4256.923076,4490.256410,4207.692307,4660.512820,3987.179488,4072.307692
61,4380.512820,4519.487179,4552.307692,4282.051282,4512.820512,4177.435897,4452.307692,4237.948717,4248.205128,4474.358974,4204.615384,4658.461538,3985.128206,4069.743589
62,4377.948717,4513.333333,4541.538461,4279.487179,4505.128205,4176.923076,4449.230769,4226.666666,4240.512820,4476.410256,4214.358974,4654.871794,3984.102565,4070.769230
63,4381.538461,4511.282051,4539.487179,4280.512820,4496.923076,4180.000000,4447.692307,4226.666666,4239.487179,4484.102564,4216.410256,4654.358974,3979.487180,4072.307692
64,4383.589743,4516.923076,4543.589743,4278.974358,4496.410256,4178.461538,4445.128205,4227.692307,4238.461538,4473.333333,4210.769230,4652.307692,3972.820513,4069.230769
65,4377.948717,4515.384615,4542.051282,4272.820512,4496.923076,4173.333333,4445.128205,4220.000000,4233.333333,4460.000000,4209.230769,4650.769230,3971.794872,4063.076923
66,4372.307692,4510.256410,4538.974358,4270.256410,4489.743589,4175.897435,4447.179487,4216.923076,4229.230769,4462.051282,4202.564102,4649.230769,3967.692308,4062.051282
67,4375.384615,4514.871794,4541.025641,4274.358974,4496.410256,4180.000000,4447.179487,4221.025641,4234.358974,4469.230769,4194.871794,4647.692307,3964.615385,4063.076923
68,4378.461538,4514.871794,4541.538461,4278.461538,4512.307692,4177.435897,4444.615384,4222.564102,4240.000000,4473.846153,4197.435897,4647.692307,3973.846154,4063.076923
69,4374.871794,4509.230769,4535.384615,4274.358974,4506.666666,4173.846153,4440.512820,4220.512820,4235.384615,4468.717948,4200.512820,4645.641025,3984.102565,4061.538461
70,4372.820512,4513.333333,4530.256410,4268.205128,4496.410256,4180.000000,4444.102564,4223.589743,4236.923076,4462.051282,4194.871794,4643.076923,3983.076924,4062.051282
71,4381.025641,4520.000000,4534.358974,4272.307692,4505.641025,4189.743589,4451.282051,4229.230769,4245.641025,4468.205128,4192.820512,4645.641025,3981.538462,4063.589743
72,4387.179487,4521.025641,4540.512820,4276.410256,4513.333333,4193.333333,4456.410256,4227.692307,4243.589743,4479.487179,4191.794871,4647.179487,3980.000000,4064.615384
73,4386.666666,4524.615384,4540.000000,4268.717948,4508.717948,4194.358974,4460.512820,4227.692307,4239.487179,4483.076923,4186.666666,4647.179487,3978.461539,4065.128205
74,4388.205128,4526.666666,4543.076923,4267.179487,4513.333333,4194.358974,4460.000000,4232.307692,4242.564102,4482.564102,4185.128205,4650.769230,3984.102565,4066.153846
75,4394.871794,4524.615384,4552.820512,4280.000000,4524.615384,4198.461538,4460.000000,4232.820512,4246.153846,4481.025641,4189.230769,4658.461538,3991.282052,4070.769230
76,4402.564102,4534.358974,4556.923076,4287.179487,4531.794871,4206.153846,4467.692307,4237.948717,4249.743589,4486.153846,4192.820512,4665.128205,3994.358975,4078.461538
77,4403.589743,4544.615384,4553.846153,4286.153846,4530.256410,4209.230769,4472.307692,4246.666666,4255.897435,4495.384615,4194.871794,4668.205128,3996.923077,4082.564102
78,4402.564102,4539.487179,4554.358974,4287.179487,4520.512820,4208.717948,4467.692307,4250.769230,4260.512820,4497.948717,4196.410256,4669.230769,3999.487180,4081.025641
79,4397.948717,4529.743589,4554.871794,4280.000000,4515.384615,4203.589743,4462.051282,4245.641025,4256.410256,4494.871794,4186.666666,4665.641025,3991.794872,4072.820512
80,4391.794871,4530.769230,4550.769230,4273.846153,4514.871794,4197.435897,4456.923076,4237.948717,4248.205128,4491.282051,4172.307692,4660.512820,3980.000000,4066.153846
81,4397.435897,4535.897435,4551.794871,4281.538461,4512.307692,4202.564102,4455.897435,4237.948717,4245.128205,4488.717948,4172.820512,4663.589743,3984.615385,4068.205128
82,4404.615384,4535.384615,4556.923076,4287.179487,4514.871794,4208.717948,4463.589743,4242.051282,4247.179487,4491.282051,4182.051282,4668.717948,3995.897436,4073.333333
83,4399.487179,4533.846153,4556.923076,4286.666666,4522.564102,4209.743589,4467.692307,4243.076923,4251.794871,4500.512820,4189.230769,4667.179487,3995.384616,4075.384615
84,4393.846153,4533.846153,4551.794871,4286.666666,4520.512820,4209.743589,4462.051282,4242.564102,4251.794871,4497.435897,4191.794871,4664.615384,3993.846154,4072.307692
85,4395.897435,4534.358974,4553.846153,4287.179487,4510.256410,4208.205128,4456.923076,4238.461538,4244.102564,4480.000000,4184.615384,4663.076923,3999.487180,4066.153846
86,4392.307692,4531.794871,4553.333333,4282.564102,4508.717948,4202.564102,4456.410256,4231.794871,4238.461538,4472.820512,4176.923076,4659.487179,3996.923077,4061.538461
87,4384.615384,4529.743589,4543.076923,4275.897435,4508.717948,4198.974358,4454.358974,4227.179487,4237.948717,4476.923076,4178.461538,4657.435897,3987.179488,4056.410256
88,4384.615384,4532.307692,4542.564102,4278.461538,4507.692307,4200.512820,4454.871794,4227.179487,4237.435897,4480.512820,4177.948717,4655.897435,3988.205129,4053.333333
89,4389.743589,4534.358974,4554.358974,4286.666666,4510.769230,4204.615384,4456.923076,4233.333333,4238.974358,4488.205128,4177.948717,4658.974358,3995.384616,4058.461538
90,4389.230769,4533.333333,4553.333333,4285.641025,4513.333333,4208.717948,4460.000000,4240.000000,4243.076923,4493.846153,4184.615384,4662.564102,3990.256411,4063.076923
91,4383.589743,4532.307692,4541.025641,4280.512820,4506.666666,4207.692307,4460.000000,4234.871794,4238.461538,4484.615384,4180.512820,4656.923076,3980.512821,4056.410256
92,4383.076923,4534.871794,4538.461538,4283.589743,4500.000000,4207.179487,4456.923076,4227.179487,4235.384615,4479.487179,4174.358974,4650.256410,3988.205129,4051.282051
93,4388.205128,4534.871794,4542.051282,4288.717948,4505.641025,4213.333333,4459.487179,4234.358974,4241.025641,4487.179487,4182.051282,4656.410256,4001.025641,4055.897435
94,4391.282051,4534.358974,4542.051282,4284.615384,4513.846153,4215.384615,4462.564102,4238.461538,4245.128205,4489.230769,4186.153846,4662.051282,3995.897436,4061.538461
95,4386.666666,4535.897435,4540.000000,4277.948717,4510.256410,4210.769230,4458.974358,4229.743589,4240.000000,4483.589743,4178.461538,4656.410256,3983.589744,4059.487179
96,4380.000000,4533.333333,4535.384615,4276.410256,4502.564102,4205.128205,4453.846153,4226.666666,4235.384615,4481.025641,4175.384615,4648.717948,3980.512821,4051.282051
97,4377.948717,4529.743589,4533.846153,4280.512820,4501.025641,4203.589743,4454.871794,4232.820512,4235.384615,4482.051282,4175.384615,4646.666666,3985.128206,4049.230769
98,4380.512820,4532.307692,4536.410256,4284.102564,4498.461538,4204.615384,4456.923076,4237.435897,4241.025641,4484.102564,4175.384615,4647.692307,3992.307693,4052.820512
99,4379.487179,4532.820512,4537.948717,4286.153846,4497.948717,4207.179487,4462.051282,4237.435897,4243.076923,4483.076923,4176.410256,4649.743589,3996.410257,4054.871794
100,4378.461538,4530.256410,4536.923076,4286.153846,4504.102564,4209.230769,4465.641025,4237.948717,4240.512820,4489.743589,4178.974358,4650.256410,3991.282052,4055.384615
101,4386.153846,4537.948717,4538.974358,4287.179487,4508.205128,4215.384615,4464.102564,4242.564102,4246.666666,4504.102564,4187.179487,4655.384615,3994.358975,4062.051282
102,4392.307692,4549.230769,4542.051282,4292.307692,4510.769230,4221.025641,4469.743589,4246.153846,4255.384615,4501.025641,4190.769230,4661.025641,4005.128205,4064.615384
103,4383.589743,4541.025641,4538.461538,4289.743589,4513.846153,4214.358974,4469.230769,4237.948717,4243.076923,4480.512820,4180.512820,4653.846153,3991.794872,4053.846153
104,4373.333333,4529.743589,4534.871794,4284.615384,4508.205128,4209.743589,4463.589743,4233.846153,4232.820512,4478.461538,4174.871794,4646.666666,3978.461539,4046.153846
105,4377.948717,4537.948717,4537.435897,4290.769230,4500.512820,4218.461538,4469.230769,4243.589743,4244.615384,4495.897435,4181.538461,4656.923076,3995.384616,4052.307692
106,4382.564102,4545.641025,4538.974358,4292.307692,4500.512820,4219.487179,4470.769230,4244.102564,4248.205128,4497.948717,4181.025641,4660.512820,4001.538461,4055.384615
107,4380.000000,4536.923076,4535.897435,4286.153846,4502.051282,4211.794871,4465.128205,4236.923076,4237.435897,4484.102564,4175.384615,4650.769230,3981.025642,4048.717948
108,4381.538461,4534.358974,4537.435897,4288.717948,4500.512820,4211.794871,4465.641025,4238.461538,4233.846153,4480.512820,4178.461538,4650.256410,3972.820513,4048.205128
109,4384.615384,4538.461538,4541.025641,4295.384615,4498.974358,4213.846153,4469.230769,4240.000000,4239.487179,4485.128205,4183.589743,4656.923076,3980.512821,4051.794871
110,4385.128205,4534.358974,4541.025641,4292.820512,4500.512820,4214.871794,4468.205128,4239.487179,4243.076923,4486.666666,4183.589743,4659.487179,3987.179488,4053.333333
111,4389.230769,4536.923076,4541.025641,4288.205128,4504.102564,4220.000000,4471.794871,4243.076923,4242.564102,4485.128205,4179.487179,4660.512820,3992.307693,4058.461538
112,4391.794871,4547.179487,4541.538461,4289.230769,4504.102564,4226.153846,4475.384615,4243.589743,4243.076923,4486.153846,4177.435897,4656.410256,3990.769231,4060.512820
113,4382.564102,4542.051282,4538.461538,4287.692307,4497.435897,4225.641025,4472.820512,4238.461538,4236.410256,4482.564102,4178.974358,4648.205128,3982.051283,4050.769230
114,4376.923076,4535.897435,4534.358974,4285.128205,4499.487179,4222.564102,4470.256410,4236.410256,4228.205128,4477.948717,4177.435897,4646.153846,3977.435898,4042.051282
115,4382.564102,4544.615384,4535.384615,4287.179487,4508.205128,4220.000000,4469.230769,4235.897435,4229.743589,4478.974358,4175.384615,4648.205128,3980.000000,4045.128205
116,4386.666666,4549.743589,4539.487179,4294.358974,4508.717948,4220.512820,4472.307692,4240.000000,4242.051282,4488.717948,4182.051282,4652.820512,3989.230770,4054.358974
117,4386.666666,4546.666666,4538.974358,4296.410256,4510.769230,4224.102564,4473.846153,4244.615384,4252.820512,4498.461538,4190.256410,4657.435897,3999.487180,4060.000000
118,4387.692307,4547.179487,4540.000000,4293.333333,4512.307692,4227.179487,4472.820512,4245.641025,4251.794871,4496.923076,4192.820512,4657.948717,3998.974359,4056.410256
119,4385.641025,4544.615384,4539.487179,4291.794871,4504.102564,4223.589743,4468.717948,4242.564102,4243.589743,4487.692307,4193.846153,4652.820512,3994.871795,4049.743589
120,4376.923076,4533.846153,4529.230769,4287.692307,4496.923076,4212.307692,4460.512820,4231.282051,4234.871794,4478.461538,4185.128205,4645.641025,3990.256411,4046.153846
121,4376.923076,4534.358974,4524.615384,4284.615384,4497.948717,4208.717948,4457.948717,4227.179487,4233.333333,4476.923076,4177.948717,4645.641025,3985.128206,4048.205128
122,4386.153846,4547.179487,4535.897435,4288.717948,4502.051282,4212.820512,4462.564102,4236.410256,4238.461538,4484.615384,4191.282051,4654.871794,3989.230770,4053.846153
123,4388.205128,4547.692307,4542.051282,4292.307692,4500.512820,4213.333333,4462.051282,4239.487179,4243.076923,4493.846153,4198.974358,4659.487179,3995.897436,4056.410256
124,4385.641025,4540.000000,4540.512820,4290.769230,4498.461538,4215.384615,4462.051282,4236.923076,4245.128205,4496.923076,4192.820512,4656.410256,3997.948718,4057.435897
125,4382.051282,4542.051282,4541.538461,4290.256410,4501.025641,4218.461538,4466.666666,4240.000000,4243.589743,4491.282051,4190.256410,4655.897435,4000.000000,4056.410256
126,4376.410256,4547.692307,4537.435897,4289.743589,4501.538461,4214.358974,4463.076923,4235.384615,4235.897435,4481.025641,4185.641025,4651.282051,3995.897436,4047.179487
127,4375.384615,4543.589743,4533.333333,4289.230769,4495.897435,4210.256410,4457.948717,4226.666666,4227.692307,4477.435897,4182.564102,4646.153846,3981.025642,4040.000000
128,4377.435897,4537.435897,4536.923076,4290.769230,4494.358974,4213.333333,4465.641025,4234.871794,4232.307692,4483.076923,4185.128205,4650.256410,3978.461539,4043.589743
129,4381.025641,4538.974358,4539.487179,4287.179487,4499.487179,4218.461538,4477.435897,4243.589743,4242.564102,4487.692307,4186.666666,4653.333333,3992.307693,4049.743589
130,4388.717948,4548.717948,4538.461538,4284.102564,4501.538461,4221.025641,4475.384615,4240.512820,4244.102564,4490.769230,4189.743589,4652.820512,4001.025641,4051.282051
131,4389.743589,4552.307692,4537.948717,4292.307692,4501.538461,4220.000000,4471.282051,4244.102564,4245.128205,4494.871794,4195.897435,4654.358974,4003.589743,4051.794871
132,4384.102564,4549.743589,4538.974358,4297.948717,4500.512820,4220.000000,4476.923076,4253.846153,4251.282051,4497.948717,4200.000000,4658.461538,4004.615384,4054.358974
133,4383.589743,4546.153846,4539.487179,4298.974358,4498.461538,4223.076923,4476.410256,4247.692307,4251.282051,4499.487179,4199.487179,4657.435897,3997.435898,4056.923076
134,4383.589743,4538.974358,4537.948717,4300.000000,4498.974358,4220.512820,4468.205128,4236.410256,4242.564102,4494.871794,4196.410256,4650.769230,3988.205129,4051.282051
135,4382.051282,4538.974358,4535.897435,4296.923076,4498.461538,4220.000000,4469.743589,4238.461538,4242.051282,4484.615384,4193.846153,4650.256410,3998.461539,4049.743589
136,4385.128205,4550.769230,4538.974358,4293.333333,4496.923076,4226.153846,4475.384615,4247.179487,4254.871794,4486.666666,4195.897435,4660.512820,4013.846153,4055.897435
137,4383.589743,4549.743589,4539.487179,4292.307692,4497.435897,4224.102564,4470.256410,4244.102564,4255.384615,4497.948717,4196.410256,4658.461538,4004.615384,4052.307692
138,4377.948717,4542.564102,4533.846153,4291.794871,4495.897435,4215.384615,4466.153846,4236.923076,4244.615384,4496.923076,4189.743589,4646.153846,3990.769231,4047.692307
139,4387.692307,4554.871794,4543.076923,4301.538461,4500.512820,4225.641025,4476.923076,4248.205128,4251.794871,4496.923076,4196.923076,4655.897435,4003.589743,4061.025641
140,4409.230769,4573.333333,4569.743589,4325.641025,4522.564102,4252.307692,4496.923076,4268.205128,4270.769230,4515.384615,4223.589743,4682.564102,4026.153846,4080.512820
141,4427.692307,4588.717948,4586.153846,4346.153846,4544.102564,4272.307692,4515.897435,4284.102564,4287.179487,4534.871794,4246.666666,4700.000000,4039.487179,4097.435897
142,4441.538461,4604.615384,4589.743589,4350.769230,4549.743589,4278.974358,4526.153846,4296.923076,4301.538461,4544.615384,4252.820512,4708.717948,4051.282051,4111.794871
143,4442.051282,4609.230769,4593.333333,4351.794871,4546.153846,4277.948717,4527.692307,4300.512820,4306.153846,4547.692307,4254.358974,4713.846153,4058.461538,4112.820512
144,4440.512820,4607.692307,4597.948717,4358.974358,4549.743589,4280.000000,4530.256410,4296.923076,4305.128205,4545.128205,4258.974358,4715.897435,4059.487179,4111.794871
145,4455.384615,4624.615384,4608.717948,4371.794871,4565.128205,4295.897435,4545.641025,4309.743589,4317.435897,4556.410256,4269.743589,4724.615384,4069.230769,4127.179487
146,4472.820512,4646.153846,4626.153846,4386.666666,4582.564102,4316.410256,4565.128205,4335.897435,4339.487179,4576.410256,4291.282051,4741.538461,4081.025641,4145.641025
147,4478.974358,4647.179487,4634.871794,4395.384615,4588.205128,4324.102564,4572.820512,4344.615384,4350.769230,4585.641025,4307.179487,4752.307692,4086.153846,4149.743589
148,4481.025641,4643.076923,4633.333333,4391.282051,4583.589743,4323.589743,4571.282051,4339.487179,4349.743589,4587.179487,4299.487179,4750.769230,4093.333333,4147.179487
149,4483.589743,4647.692307,4633.333333,4392.820512,4576.923076,4322.051282,4566.153846,4336.410256,4345.128205,4583.076923,4285.128205,4746.666666,4098.461538,4148.205128
150,4481.538461,4653.846153,4635.897435,4400.000000,4566.153846,4319.487179,4565.128205,4334.358974,4340.000000,4576.410256,4287.179487,4746.153846,4092.820512,4148.717948
151,4472.820512,4654.871794,4628.205128,4389.230769,4557.435897,4317.435897,4563.076923,4328.717948,4332.820512,4577.435897,4295.384615,4742.564102,4085.128205,4142.564102
152,4464.615384,4646.666666,4618.461538,4376.410256,4558.461538,4315.384615,4556.410256,4323.076923,4331.282051,4578.974358,4292.307692,4736.923076,4081.025641,4136.923076
153,4469.743589,4640.000000,4618.974358,4384.615384,4555.384615,4316.410256,4556.923076,4328.717948,4339.487179,4576.410256,4290.769230,4734.871794,4079.487179,4142.051282
154,4474.871794,4643.589743,4619.487179,4389.743589,4548.717948,4317.435897,4563.076923,4331.794871,4341.025641,4579.487179,4289.230769,4734.871794,4082.051282,4142.564102
155,4468.717948,4647.692307,4616.410256,4382.051282,4549.743589,4317.948717,4562.564102,4326.666666,4337.948717,4583.589743,4282.051282,4734.358974,4087.179487,4137.435897
156,4467.692307,4646.153846,4622.051282,4383.589743,4553.333333,4322.051282,4562.051282,4330.769230,4344.102564,4582.564102,4290.769230,4738.461538,4094.358974,4141.538461
157,4476.410256,4645.641025,4629.743589,4388.717948,4553.846153,4327.692307,4570.769230,4339.487179,4348.205128,4582.564102,4304.615384,4747.179487,4097.948717,4147.692307
158,4477.435897,4645.641025,4628.717948,4386.666666,4555.897435,4326.666666,4571.794871,4337.435897,4347.692307,4585.641025,4305.641025,4749.230769,4092.820512,4142.051282
159,4476.923076,4651.794871,4633.333333,4392.307692,4561.025641,4328.717948,4569.230769,4340.512820,4355.384615,4595.897435,4310.256410,4752.820512,4093.333333,4145.641025
160,4481.025641,4658.461538,4638.461538,4405.128205,4564.102564,4335.897435,4572.820512,4347.692307,4360.512820,4600.000000,4312.820512,4757.435897,4105.128205,4156.923076
161,4480.512820,4649.743589,4632.307692,4399.487179,4558.974358,4332.820512,4569.743589,4340.512820,4348.717948,4586.666666,4301.025641,4750.769230,4102.564102,4150.256410
162,4477.435897,4644.615384,4633.846153,4390.769230,4554.358974,4328.205128,4568.205128,4334.871794,4347.179487,4583.076923,4301.025641,4748.205128,4091.282051,4148.717948
163,4479.487179,4654.871794,4642.051282,4396.410256,4563.589743,4336.923076,4573.846153,4343.589743,4362.051282,4595.897435,4312.307692,4760.000000,4096.410256,4157.435897
164,4480.512820,4654.871794,4638.974358,4394.358974,4571.282051,4337.435897,4570.769230,4344.615384,4360.512820,4594.871794,4307.179487,4762.051282,4100.000000,4151.794871
165,4478.974358,4645.641025,4632.820512,4385.128205,4566.666666,4330.256410,4567.179487,4335.897435,4347.692307,4586.666666,4298.974358,4751.282051,4091.282051,4149.230769
166,4485.128205,4645.641025,4632.820512,4389.230769,4563.589743,4333.846153,4573.333333,4335.897435,4349.230769,4590.769230,4296.923076,4750.256410,4088.205128,4154.358974
167,4487.692307,4650.256410,4632.820512,4398.974358,4564.102564,4334.358974,4573.333333,4341.538461,4353.846153,4592.820512,4291.282051,4754.358974,4093.333333,4151.794871
168,4487.179487,4653.846153,4633.846153,4400.512820,4569.230769,4330.769230,4571.794871,4344.615384,4353.333333,4592.307692,4291.282051,4754.871794,4098.974358,4152.307692
169,4499.487179,4664.615384,4645.128205,4399.487179,4578.974358,4338.461538,4583.589743,4352.820512,4361.025641,4602.564102,4298.461538,4762.051282,4110.769230,4167.179487
170,4507.692307,4671.282051,4651.794871,4396.923076,4582.051282,4345.641025,4587.692307,4357.948717,4368.717948,4607.179487,4297.435897,4770.769230,4118.461538,4169.743589
171,4492.820512,4658.974358,4640.000000,4390.769230,4575.384615,4334.358974,4573.333333,4347.179487,4360.000000,4595.897435,4285.641025,4761.538461,4103.076923,4153.846153
172,4483.076923,4646.666666,4628.717948,4387.692307,4570.769230,4324.615384,4565.641025,4340.512820,4348.205128,4589.230769,4276.410256,4747.179487,4087.179487,4146.666666
173,4495.384615,4653.846153,4636.410256,4393.846153,4570.769230,4334.871794,4575.384615,4348.717948,4351.794871,4598.974358,4278.461538,4753.333333,4095.384615,4155.384615
174,4500.000000,4665.128205,4644.615384,4397.435897,4573.333333,4345.128205,4587.179487,4353.846153,4358.461538,4603.076923,4279.487179,4765.128205,4106.666666,4158.974358
175,4492.307692,4662.564102,4637.435897,4389.230769,4577.435897,4338.461538,4583.589743,4348.205128,4351.282051,4594.871794,4270.769230,4758.461538,4104.102564,4150.256410
176,4484.615384,4651.794871,4630.256410,4384.102564,4572.307692,4330.769230,4576.410256,4340.512820,4342.564102,4592.307692,4267.692307,4746.153846,4097.948717,4145.641025
177,4487.692307,4650.256410,4633.846153,4386.153846,4567.179487,4335.384615,4577.435897,4343.589743,4348.205128,4596.410256,4277.435897,4751.282051,4095.384615,4146.666666
178,4493.846153,4656.923076,4636.410256,4386.153846,4575.897435,4337.435897,4580.512820,4352.307692,4357.435897,4595.384615,4277.948717,4759.487179,4096.923076,4147.692307
179,4488.205128,4653.333333,4631.282051,4385.128205,4577.948717,4331.794871,4575.897435,4348.717948,4350.256410,4588.205128,4263.589743,4751.794871,4097.948717,4142.564102
180,4484.615384,4649.230769,4633.333333,4388.205128,4570.256410,4333.333333,4573.846153,4346.153846,4343.076923,4588.205128,4264.102564,4746.666666,4097.435897,4137.948717
181,4492.307692,4657.435897,4641.025641,4390.769230,4574.871794,4343.589743,4584.102564,4356.410256,4351.282051,4598.974358,4276.923076,4760.000000,4101.025641,4147.179487
182,4489.743589,4656.923076,4641.025641,4388.717948,4582.564102,4343.076923,4585.128205,4357.948717,4355.897435,4603.589743,4272.820512,4768.717948,4103.076923,4151.282051
183,4483.076923,4648.717948,4642.564102,4387.692307,4575.897435,4336.923076,4577.948717,4355.897435,4353.333333,4602.564102,4271.282051,4764.102564,4098.974358,4146.153846
184,4490.769230,4659.487179,4646.666666,4391.282051,4574.871794,4340.512820,4583.076923,4367.179487,4357.435897,4607.179487,4287.692307,4766.666666,4103.076923,4149.230769
185,4494.871794,4667.692307,4646.666666,4392.307692,4580.000000,4341.538461,4589.230769,4366.666666,4357.435897,4606.666666,4291.282051,4769.743589,4109.743589,4152.820512
186,4493.333333,4657.948717,4645.641025,4390.769230,4578.461538,4334.358974,4584.615384,4355.384615,4351.794871,4594.871794,4278.974358,4768.205128,4108.205128,4148.205128
187,4495.897435,4654.871794,4649.743589,4394.358974,4578.974358,4336.410256,4583.076923,4358.461538,4355.897435,4591.794871,4277.435897,4771.282051,4106.666666,4145.641025
188,4496.923076,4662.051282,4654.358974,4394.358974,4581.025641,4344.102564,4589.743589,4362.564102,4361.538461,4604.615384,4282.051282,4772.820512,4110.769230,4150.769230
189,4497.948717,4661.025641,4655.384615,4392.820512,4577.948717,4341.538461,4589.230769,4357.948717,4357.948717,4606.666666,4283.589743,4772.820512,4108.717948,4155.384615
190,4496.923076,4652.307692,4651.794871,4397.435897,4577.948717,4334.871794,4587.692307,4359.487179,4353.333333,4598.461538,4287.179487,4774.358974,4103.076923,4155.384615
191,4493.333333,4651.282051,4650.256410,4397.948717,4583.076923,4335.384615,4586.153846,4360.512820,4352.307692,4603.076923,4286.666666,4775.897435,4105.128205,4152.307692
192,4494.871794,4664.615384,4655.384615,4396.923076,4587.179487,4339.487179,4586.153846,4357.948717,4354.358974,4610.256410,4284.102564,4778.974358,4114.358974,4156.410256
193,4498.974358,4673.846153,4655.384615,4402.564102,4591.282051,4340.512820,4589.743589,4360.000000,4358.461538,4607.179487,4284.615384,4778.461538,4117.435897,4157.948717
194,4493.333333,4664.615384,4646.153846,4403.589743,4589.230769,4336.410256,4588.717948,4360.512820,4357.948717,4604.102564,4278.461538,4767.179487,4107.692307,4146.666666
195,4484.102564,4654.871794,4639.487179,4396.923076,4584.102564,4331.794871,4583.589743,4354.871794,4352.820512,4601.025641,4269.230769,4760.000000,4100.000000,4140.000000
196,4481.538461,4662.564102,4638.974358,4395.897435,4588.717948,4332.820512,4582.051282,4348.717948,4347.179487,4590.769230,4272.307692,4764.102564,4096.923076,4143.589743
197,4486.666666,4669.230769,4644.102564,4403.076923,4593.333333,4336.923076,4585.128205,4349.230769,4345.641025,4589.743589,4283.076923,4763.589743,4096.923076,4144.615384
198,4491.282051,4667.179487,4646.153846,4405.641025,4592.307692,4336.923076,4587.179487,4351.794871,4348.717948,4602.564102,4282.564102,4764.102564,4104.615384,4143.076923
199,4485.128205,4664.102564,4635.897435,4395.897435,4593.846153,4329.230769,4583.076923,4346.153846,4345.641025,4603.589743,4273.333333,4764.615384,4108.717948,4140.512820
200,4481.538461,4663.076923,4629.743589,4391.282051,4593.333333,4325.641025,4578.461538,4343.589743,4342.564102,4597.435897,4271.794871,4760.512820,4102.564102,4142.564102
201,4491.794871,4669.230769,4641.538461,4403.076923,4592.307692,4332.820512,4583.076923,4356.410256,4355.384615,4606.153846,4286.666666,4765.641025,4109.743589,4154.358974
202,4497.948717,4675.897435,4650.769230,4406.153846,4598.461538,4336.923076,4589.743589,4363.589743,4369.743589,4618.974358,4303.076923,4775.897435,4119.487179,4160.512820
203,4494.358974,4672.820512,4647.692307,4398.974358,4602.564102,4336.923076,4587.692307,4356.923076,4365.641025,4615.897435,4304.615384,4775.897435,4111.794871,4155.384615
204,4495.384615,4672.307692,4647.692307,4403.589743,4602.051282,4339.487179,4589.230769,4356.410256,4358.461538,4607.179487,4300.512820,4772.820512,4117.435897,4155.897435
205,4498.461538,4673.846153,4650.256410,4409.230769,4607.179487,4343.076923,4596.923076,4364.102564,4363.076923,4612.820512,4304.102564,4777.948717,4133.333333,4160.000000
206,4497.948717,4674.358974,4651.794871,4409.230769,4612.820512,4348.205128,4601.025641,4370.256410,4371.794871,4626.153846,4307.692307,4782.564102,4129.230769,4162.051282
207,4501.538461,4680.000000,4655.384615,4412.307692,4615.384615,4351.794871,4602.051282,4373.846153,4375.384615,4629.230769,4306.153846,4782.564102,4124.102564,4167.179487
208,4505.128205,4682.051282,4658.461538,4415.384615,4620.000000,4351.282051,4600.512820,4370.769230,4373.333333,4621.025641,4307.692307,4786.153846,4127.179487,4167.692307
209,4504.615384,4675.897435,4658.974358,4413.846153,4618.974358,4347.692307,4595.897435,4363.076923,4369.230769,4614.871794,4316.410256,4786.666666,4126.666666,4162.051282
210,4505.641025,4679.487179,4661.025641,4411.282051,4614.871794,4347.692307,4596.410256,4360.512820,4367.692307,4618.461538,4320.512820,4783.076923,4129.230769,4165.128205
211,4505.641025,4683.589743,4660.000000,4408.205128,4620.512820,4349.743589,4601.025641,4363.589743,4369.230769,4622.051282,4313.333333,4783.589743,4132.307692,4170.769230
212,4498.461538,4673.333333,4652.307692,4405.128205,4623.076923,4346.666666,4601.538461,4365.128205,4368.717948,4622.564102,4302.051282,4780.512820,4123.076923,4161.025641
213,4495.384615,4668.205128,4649.230769,4404.615384,4613.333333,4344.615384,4596.923076,4364.615384,4367.692307,4627.179487,4300.512820,4777.435897,4115.384615,4152.820512
214,4496.923076,4670.256410,4650.256410,4406.153846,4613.333333,4346.666666,4590.769230,4365.128205,4367.692307,4628.717948,4308.205128,4781.025641,4117.948717,4155.384615
215,4493.333333,4669.230769,4649.230769,4403.076923,4616.410256,4342.051282,4586.666666,4362.564102,4366.153846,4615.384615,4308.205128,4778.974358,4114.871794,4155.897435
216,4486.666666,4671.282051,4646.153846,4394.871794,4610.256410,4332.820512,4586.153846,4356.923076,4360.512820,4603.589743,4300.512820,4768.717948,4107.179487,4152.820512
217,4486.666666,4669.743589,4644.102564,4394.358974,4610.769230,4328.717948,4582.051282,4351.794871,4354.871794,4606.666666,4295.384615,4764.102564,4107.179487,4151.282051
218,4489.230769,4663.589743,4646.153846,4404.102564,4615.384615,4332.307692,4580.512820,4350.256410,4355.384615,4607.692307,4295.897435,4767.179487,4114.871794,4149.743589
219,4486.153846,4666.153846,4645.128205,4404.615384,4611.794871,4334.871794,4584.615384,4349.743589,4352.820512,4599.487179,4296.923076,4767.692307,4114.871794,4147.179487
220,4485.641025,4671.282051,4642.051282,4397.948717,4611.794871,4334.871794,4587.692307,4350.256410,4350.769230,4601.538461,4297.435897,4766.153846,4109.743589,4152.307692
221,4486.153846,4667.179487,4638.974358,4399.487179,4614.358974,4334.871794,4583.589743,4352.820512,4355.384615,4609.230769,4298.461538,4764.615384,4109.230769,4156.410256
222,4481.025641,4662.051282,4634.358974,4396.923076,4609.743589,4332.307692,4580.512820,4349.230769,4352.307692,4603.589743,4294.358974,4761.538461,4101.538461,4149.230769
223,4481.025641,4667.692307,4632.820512,4394.358974,4609.743589,4330.769230,4578.974358,4344.615384,4347.692307,4600.512820,4294.871794,4762.564102,4098.974358,4144.102564
224,4485.641025,4675.384615,4635.897435,4402.051282,4619.487179,4332.820512,4576.923076,4347.179487,4354.871794,4610.256410,4297.948717,4766.153846,4112.820512,4150.769230
225,4478.461538,4667.179487,4634.358974,4399.487179,4615.897435,4328.717948,4568.717948,4343.076923,4353.333333,4606.153846,4295.897435,4765.128205,4110.769230,4151.282051
226,4470.256410,4652.307692,4629.230769,4388.205128,4601.538461,4315.897435,4557.948717,4331.282051,4340.000000,4588.717948,4293.846153,4760.512820,4094.358974,4141.025641
227,4471.282051,4649.230769,4628.717948,4385.128205,4596.410256,4312.307692,4560.512820,4328.717948,4340.512820,4586.153846,4295.384615,4755.897435,4095.384615,4139.487179
228,4472.307692,4654.871794,4627.692307,4386.666666,4601.025641,4318.461538,4564.102564,4330.256410,4343.076923,4591.794871,4296.923076,4751.282051,4098.974358,4142.051282
229,4470.769230,4660.000000,4625.641025,4384.615384,4604.615384,4321.538461,4565.128205,4324.615384,4337.948717,4591.794871,4297.435897,4749.230769,4094.358974,4141.025641
230,4468.717948,4657.948717,4622.051282,4382.051282,4605.641025,4321.025641,4566.153846,4319.487179,4337.948717,4590.256410,4296.923076,4751.282051,4090.256410,4136.923076
231,4465.641025,4650.256410,4615.897435,4380.512820,4607.179487,4317.948717,4560.000000,4321.538461,4338.974358,4584.102564,4297.435897,4750.256410,4080.000000,4135.897435
232,4469.230769,4649.743589,4618.974358,4381.025641,4605.128205,4316.923076,4559.487179,4329.743589,4341.538461,4585.641025,4297.948717,4749.743589,4077.948717,4143.076923
233,4470.769230,4651.794871,4621.538461,4381.538461,4600.512820,4315.384615,4564.102564,4334.358974,4342.051282,4592.820512,4295.384615,4750.769230,4090.256410,4143.589743
234,4464.615384,4646.153846,4616.410256,4380.000000,4593.333333,4306.666666,4560.000000,4325.128205,4336.410256,4588.205128,4297.948717,4749.743589,4086.666666,4137.435897
235,4462.564102,4643.589743,4615.897435,4380.000000,4590.256410,4303.076923,4550.769230,4318.974358,4334.358974,4580.000000,4300.512820,4749.743589,4069.743589,4136.923076
236,4463.589743,4645.641025,4620.512820,4380.512820,4594.358974,4309.743589,4551.794871,4319.487179,4337.948717,4582.564102,4288.205128,4749.743589,4061.538461,4135.384615
237,4464.615384,4646.666666,4620.000000,4378.461538,4599.487179,4313.846153,4558.461538,4317.435897,4333.846153,4582.051282,4282.564102,4747.692307,4069.230769,4134.358974
238,4464.615384,4645.641025,4616.410256,4379.487179,4597.948717,4309.743589,4561.025641,4314.358974,4327.692307,4576.923076,4297.435897,4747.692307,4081.538461,4139.487179
239,4465.128205,4646.153846,4618.974358,4382.051282,4592.820512,4308.717948,4561.025641,4317.948717,4332.820512,4578.974358,4305.641025,4750.256410,4082.564102,4142.564102
240,4467.692307,4647.692307,4621.538461,4382.051282,4595.897435,4309.230769,4558.461538,4320.512820,4335.897435,4578.461538,4298.461538,4753.846153,4071.794871,4142.051282
241,4466.666666,4643.076923,4618.974358,4382.051282,4599.487179,4306.666666,4557.435897,4315.384615,4328.205128,4573.333333,4291.794871,4752.307692,4065.128205,4143.076923
242,4464.615384,4644.102564,4620.000000,4382.564102,4597.948717,4309.230769,4556.923076,4318.974358,4332.307692,4577.948717,4296.410256,4750.769230,4068.717948,4145.128205
243,4469.230769,4653.333333,4623.589743,4378.974358,4597.948717,4313.333333,4556.410256,4328.205128,4342.564102,4586.666666,4306.666666,4753.846153,4075.897435,4145.641025
244,4471.794871,4651.794871,4623.589743,4376.410256,4595.384615,4309.230769,4556.410256,4328.717948,4341.025641,4585.128205,4306.153846,4755.897435,4077.948717,4144.102564
245,4462.051282,4640.000000,4622.051282,4376.923076,4596.410256,4307.692307,4556.410256,4326.153846,4338.461538,4583.076923,4302.564102,4752.820512,4074.871794,4142.051282
246,4458.461538,4640.000000,4623.589743,4376.410256,4603.589743,4312.307692,4556.923076,4328.205128,4345.128205,4590.769230,4306.666666,4750.256410,4077.948717,4144.102564
247,4464.102564,4646.153846,4620.512820,4380.512820,4602.564102,4314.358974,4556.923076,4330.769230,4345.641025,4595.384615,4307.179487,4750.769230,4074.871794,4141.025641
248,4460.000000,4644.615384,4616.410256,4379.487179,4594.871794,4312.820512,4558.461538,4326.153846,4337.435897,4591.794871,4301.025641,4749.230769,4062.564102,4133.333333
249,4456.410256,4647.692307,4617.948717,4368.205128,4601.025641,4315.384615,4560.512820,4322.564102,4334.871794,4586.153846,4301.538461,4743.076923,4062.051282,4132.820512
250,4459.487179,4647.692307,4616.923076,4366.666666,4604.102564,4313.333333,4556.923076,4321.025641,4333.846153,4581.025641,4302.051282,4738.974358,4070.769230,4134.871794
251,4454.358974,4635.897435,4610.769230,4370.769230,4594.358974,4304.615384,4549.230769,4318.461538,4329.743589,4574.871794,4291.794871,4734.871794,4067.179487,4131.282051
252,4442.051282,4625.128205,4608.717948,4363.076923,4593.333333,4298.461538,4544.102564,4315.384615,4326.666666,4571.282051,4284.615384,4727.179487,4055.384615,4118.974358
253,4436.410256,4622.051282,4609.743589,4361.538461,4594.871794,4294.871794,4545.641025,4312.307692,4328.717948,4574.358974,4285.641025,4725.641025,4049.230769,4109.230769
254,4443.076923,4628.205128,4610.256410,4367.179487,4587.692307,4298.974358,4552.307692,4316.923076,4332.820512,4581.025641,4288.717948,4731.282051,4053.333333,4113.333333
255,4452.307692,4637.948717,4613.333333,4363.589743,4592.307692,4309.743589,4556.410256,4326.666666,4338.461538,4584.615384,4300.512820,4737.435897,4062.051282,4126.153846
256,4458.461538,4644.102564,4617.435897,4364.615384,4607.692307,4314.871794,4553.846153,4328.717948,4343.589743,4585.641025,4313.846153,4744.102564,4067.692307,4134.358974
257,4462.051282,4647.179487,4618.461538,4373.846153,4612.820512,4314.871794,4552.820512,4321.538461,4343.076923,4591.794871,4310.769230,4747.692307,4071.282051,4133.333333
258,4460.512820,4648.205128,4619.487179,4370.769230,4605.128205,4313.846153,4554.871794,4314.358974,4339.487179,4591.282051,4297.948717,4745.641025,4071.282051,4127.179487
259,4447.179487,4632.820512,4610.769230,4355.384615,4596.410256,4305.128205,4542.051282,4299.487179,4325.641025,4571.282051,4288.717948,4735.384615,4050.256410,4113.846153
