,AF3,F7,F3,FC5,T7,P7,O1,O2,P8,T8,FC6,F4,F8,AF4
0,4374.358974,4513.846153,4542.051282,4258.461538,4504.615384,4217.435897,4442.564102,4155.897435,4255.897435,4527.179487,4253.333333,4665.128205,3976.923077,4070.769230
1,4376.923076,4521.025641,4542.051282,4261.025641,4505.128205,4215.384615,4436.923076,4153.846153,4252.307692,4524.615384,4253.333333,4669.230769,3981.025642,4076.923076
2,4381.538461,4531.282051,4540.000000,4267.179487,4505.641025,4215.384615,4435.897435,4150.769230,4246.666666,4521.025641,4247.179487,4670.769230,3982.564103,4078.461538
3,4377.435897,4531.282051,4538.461538,4267.179487,4505.641025,4215.897435,4441.025641,4148.717948,4243.076923,4515.384615,4237.435897,4662.564102,3973.333334,4070.769230
4,4372.820512,4525.641025,4537.948717,4265.641025,4506.153846,4217.435897,4445.641025,4148.717948,4243.076923,4509.743589,4237.948717,4657.435897,3964.615385,4065.641025
5,4371.794871,4522.051282,4535.384615,4263.589743,4508.205128,4219.487179,4442.051282,4145.641025,4237.948717,4503.589743,4237.948717,4656.923076,3965.641026,4063.076923
6,4368.717948,4521.538461,4534.358974,4264.102564,4507.692307,4220.000000,4438.974358,4141.025641,4233.846153,4507.692307,4236.923076,4655.384615,3971.794872,4062.564102
7,4367.692307,4522.051282,4535.384615,4264.102564,4505.641025,4217.435897,4439.487179,4144.615384,4239.487179,4516.410256,4245.641025,4656.923076,3976.410257,4066.153846
8,4366.666666,4518.974358,4534.871794,4262.051282,4503.589743,4213.333333,4434.358974,4144.102564,4241.538461,4514.871794,4251.794871,4658.974358,3972.307693,4064.615384
9,4370.256410,4523.589743,4536.923076,4268.205128,4506.666666,4216.923076,4433.846153,4140.512820,4239.487179,4513.846153,4248.205128,4661.538461,3972.307693,4063.589743
10,4375.897435,4531.282051,4540.512820,4276.410256,4512.820512,4222.564102,4442.051282,4146.666666,4245.641025,4522.051282,4243.076923,4664.615384,3978.461539,4068.717948
11,4372.820512,4526.666666,4540.000000,4270.256410,4510.769230,4218.461538,4440.512820,4145.128205,4246.153846,4517.948717,4240.512820,4661.025641,3973.333334,4067.692307
12,4366.153846,4517.948717,4536.923076,4263.076923,4502.564102,4212.307692,4427.692307,4131.282051,4233.333333,4504.615384,4236.410256,4656.410256,3963.589744,4062.051282
13,4365.641025,4520.000000,4535.897435,4267.179487,4503.076923,4213.846153,4424.615384,4131.282051,4227.692307,4502.564102,4237.948717,4657.948717,3965.128206,4061.538461
14,4365.128205,4526.666666,4537.435897,4268.717948,4508.717948,4216.410256,4429.230769,4139.487179,4230.256410,4503.076923,4237.948717,4658.974358,3969.230770,4064.615384
15,4364.102564,4526.153846,4538.974358,4265.641025,4507.179487,4214.871794,4433.333333,4136.410256,4233.846153,4500.512820,4232.307692,4656.410256,3967.179488,4062.564102
16,4366.153846,4523.589743,4538.974358,4267.692307,4506.666666,4217.435897,4441.538461,4140.000000,4239.487179,4507.179487,4230.256410,4656.410256,3965.128206,4062.051282
17,4368.205128,4530.769230,4537.435897,4270.256410,4517.948717,4228.205128,4449.230769,4151.794871,4245.128205,4517.435897,4235.897435,4659.487179,3967.179488,4067.692307
18,4369.230769,4536.410256,4538.974358,4270.256410,4521.025641,4231.794871,4448.205128,4154.358974,4251.282051,4520.000000,4242.051282,4658.974358,3970.256411,4069.230769
19,4367.179487,4529.230769,4539.487179,4269.230769,4515.384615,4226.666666,4444.615384,4153.846153,4253.333333,4518.461538,4240.000000,4658.974358,3972.307693,4065.641025
20,4363.589743,4522.051282,4538.974358,4263.076923,4516.923076,4228.205128,4444.615384,4158.461538,4251.794871,4521.025641,4235.897435,4661.025641,3973.846154,4066.666666
21,4367.179487,4526.153846,4538.974358,4261.538461,4521.025641,4234.871794,4446.666666,4160.000000,4251.794871,4522.051282,4238.974358,4664.102564,3978.974359,4070.256410
22,4371.282051,4528.717948,4540.000000,4270.769230,4518.461538,4233.846153,4448.205128,4160.512820,4251.282051,4518.974358,4246.153846,4663.589743,3977.948718,4066.666666
23,4366.153846,4521.025641,4537.435897,4271.794871,4514.358974,4227.692307,4447.179487,4161.538461,4246.153846,4514.358974,4247.692307,4658.461538,3969.743590,4060.000000
24,4358.461538,4514.871794,4527.179487,4262.051282,4510.769230,4222.564102,4444.102564,4157.948717,4241.538461,4511.794871,4237.948717,4653.333333,3965.128206,4056.923076
25,4357.948717,4516.923076,4524.102564,4259.487179,4505.128205,4216.410256,4441.025641,4150.769230,4240.000000,4513.333333,4231.794871,4653.846153,3967.692308,4058.974358
26,4365.641025,4523.076923,4534.871794,4260.000000,4503.589743,4214.871794,4440.512820,4143.076923,4240.000000,4513.333333,4235.897435,4658.974358,3972.820513,4063.076923
27,4369.230769,4524.102564,4540.000000,4256.923076,4511.794871,4218.461538,4443.589743,4142.051282,4241.025641,4513.846153,4238.974358,4660.512820,3976.410257,4063.589743
28,4368.205128,4519.487179,4537.948717,4257.435897,4517.435897,4219.487179,4444.615384,4150.256410,4243.589743,4517.435897,4242.051282,4662.051282,3980.512821,4066.666666
29,4373.846153,4521.538461,4542.564102,4256.923076,4518.461538,4217.948717,4444.102564,4157.948717,4250.256410,4520.000000,4250.256410,4666.666666,3988.717949,4076.923076
30,4379.487179,4530.256410,4548.205128,4254.358974,4518.974358,4222.564102,4449.230769,4155.384615,4253.846153,4518.461538,4249.230769,4667.179487,3994.871795,4077.948717
31,4382.051282,4533.333333,4551.282051,4254.358974,4523.076923,4226.153846,4456.923076,4154.871794,4255.897435,4521.538461,4247.692307,4667.179487,3991.794872,4075.384615
32,4387.179487,4532.820512,4552.307692,4258.974358,4524.615384,4227.179487,4455.384615,4157.435897,4262.051282,4526.153846,4257.948717,4668.205128,3989.743590,4082.051282
33,4387.692307,4531.282051,4545.641025,4257.435897,4518.461538,4225.641025,4449.230769,4151.794871,4262.564102,4523.076923,4254.871794,4666.666666,3994.358975,4084.102564
34,4381.025641,4527.692307,4539.487179,4252.307692,4512.307692,4220.512820,4448.205128,4145.128205,4257.435897,4524.102564,4245.641025,4661.538461,3993.333334,4077.435897
35,4384.102564,4530.769230,4539.487179,4252.820512,4516.410256,4219.487179,4453.333333,4149.230769,4256.410256,4526.666666,4254.871794,4660.512820,3988.717949,4076.923076
36,4390.769230,4534.871794,4546.666666,4254.358974,4524.615384,4222.564102,4457.948717,4153.333333,4264.615384,4525.641025,4261.025641,4663.076923,3993.846154,4083.076923
37,4391.282051,4532.820512,4552.307692,4253.846153,4523.076923,4222.051282,4457.948717,4148.717948,4269.230769,4527.179487,4256.410256,4664.615384,3997.435898,4086.153846
38,4388.717948,4528.717948,4548.717948,4252.307692,4518.974358,4216.410256,4453.333333,4145.128205,4262.564102,4530.256410,4256.410256,4664.102564,3992.820513,4083.589743
39,4387.179487,4529.230769,4547.179487,4254.358974,4523.076923,4217.435897,4452.307692,4149.230769,4260.000000,4524.615384,4257.435897,4662.564102,3991.282052,4082.051282
40,4386.666666,4533.333333,4551.282051,4253.846153,4523.589743,4223.589743,4456.410256,4151.794871,4267.179487,4520.000000,4253.333333,4663.076923,3998.461539,4085.128205
41,4388.717948,4534.871794,4550.256410,4252.820512,4521.025641,4224.102564,4460.000000,4152.307692,4274.358974,4533.846153,4253.846153,4664.615384,4001.025641,4087.179487
42,4392.820512,4533.846153,4549.230769,4254.358974,4522.051282,4220.000000,4460.000000,4160.000000,4278.461538,4545.128205,4256.923076,4667.692307,3997.435898,4085.641025
43,4393.333333,4534.871794,4554.871794,4257.948717,4522.051282,4219.487179,4458.461538,4168.205128,4280.000000,4538.974358,4260.000000,4672.307692,4000.512820,4086.666666
44,4392.820512,4540.512820,4555.897435,4262.051282,4520.512820,4223.076923,4458.461538,4165.128205,4276.410256,4535.897435,4265.641025,4675.897435,4009.743589,4093.333333
45,4391.282051,4540.512820,4553.846153,4258.974358,4523.076923,4218.974358,4460.512820,4155.384615,4270.256410,4541.538461,4263.076923,4674.871794,4009.230769,4093.846153
46,4387.179487,4530.769230,4553.333333,4252.307692,4519.487179,4212.307692,4454.871794,4150.769230,4266.666666,4533.846153,4255.897435,4670.769230,3996.923077,4086.666666
47,4385.641025,4525.641025,4551.794871,4255.384615,4511.282051,4211.794871,4448.205128,4153.333333,4263.589743,4522.564102,4260.000000,4669.743589,3991.282052,4084.615384
48,4386.153846,4532.820512,4553.846153,4262.564102,4515.384615,4213.333333,4452.307692,4155.897435,4263.589743,4526.666666,4263.589743,4671.794871,3992.307693,4088.205128
49,4387.179487,4537.948717,4555.897435,4261.538461,4517.435897,4215.897435,4456.923076,4155.384615,4265.641025,4531.794871,4256.923076,4673.333333,3992.307693,4088.717948
50,4385.641025,4530.769230,4554.358974,4256.923076,4512.820512,4215.384615,4452.307692,4154.358974,4264.102564,4525.641025,4252.307692,4672.307692,3995.384616,4086.153846
51,4381.538461,4522.564102,4553.333333,4257.435897,4512.307692,4213.333333,4453.846153,4157.435897,4262.051282,4519.487179,4254.871794,4672.307692,3997.435898,4083.589743
52,4378.974358,4525.128205,4553.333333,4259.487179,4513.333333,4214.358974,4460.512820,4158.461538,4263.589743,4520.512820,4252.307692,4671.282051,3989.743590,4079.487179
53,4380.000000,4529.743589,4553.846153,4258.974358,4515.384615,4216.923076,4460.000000,4167.179487,4266.666666,4525.641025,4246.153846,4667.692307,3986.153847,4077.435897
54,4377.948717,4528.205128,4551.794871,4255.384615,4516.923076,4217.435897,4459.487179,4184.615384,4268.205128,4526.153846,4244.102564,4665.641025,3990.256411,4073.333333
55,4373.846153,4523.076923,4544.102564,4254.358974,4516.923076,4217.435897,4461.538461,4188.205128,4264.615384,4517.948717,4244.102564,4661.538461,3984.102565,4068.205128
56,4373.333333,4522.051282,4538.974358,4257.948717,4514.358974,4217.435897,4459.487179,4181.538461,4261.025641,4513.846153,4240.512820,4654.871794,3973.846154,4067.179487
57,4371.794871,4525.641025,4538.974358,4257.435897,4513.333333,4218.974358,4460.000000,4185.641025,4263.076923,4521.538461,4235.384615,4656.410256,3975.897436,4068.717948
58,4370.769230,4523.076923,4541.538461,4252.307692,4516.923076,4222.051282,4464.615384,4196.923076,4269.743589,4531.282051,4238.974358,4663.076923,3982.564103,4069.230769
59,4374.871794,4520.512820,4546.153846,4254.358974,4520.512820,4223.076923,4465.128205,4202.564102,4271.282051,4530.256410,4242.564102,4665.128205,3983.589744,4072.820512
60,4377.435897,4525.641025,4545.128205,4260.000000,4515.384615,4219.487179,4460.512820,4203.076923,4268.205128,4528.717948,4239.487179,4665.128205,3980.512821,4074.871794
61,4375.897435,4529.743589,4545.128205,4261.538461,4509.743589,4215.897435,4459.487179,4200.512820,4267.179487,4530.769230,4243.076923,4665.128205,3979.487180,4074.358974
62,4373.333333,4526.153846,4550.256410,4260.000000,4513.333333,4214.871794,4461.025641,4202.051282,4267.179487,4528.717948,4245.128205,4664.615384,3977.435898,4075.897435
63,4369.743589,4522.051282,4547.179487,4251.282051,4509.230769,4215.897435,4460.000000,4200.512820,4261.538461,4522.051282,4235.384615,4663.589743,3974.358975,4075.384615
64,4366.153846,4520.000000,4536.923076,4246.666666,4503.076923,4211.794871,4455.897435,4189.743589,4252.307692,4515.897435,4227.692307,4658.974358,3978.461539,4069.743589
65,4363.076923,4516.410256,4536.410256,4248.717948,4505.641025,4205.128205,4449.743589,4184.615384,4251.794871,4514.871794,4228.717948,4654.358974,3976.923077,4064.615384
66,4362.564102,4515.897435,4538.461538,4244.615384,4506.153846,4205.641025,4449.230769,4188.717948,4254.358974,4514.358974,4228.717948,4655.384615,3966.153847,4062.564102
67,4364.102564,4520.000000,4535.897435,4243.076923,4505.128205,4212.820512,4454.358974,4187.179487,4251.794871,4510.256410,4231.794871,4655.897435,3968.205129,4063.076923
68,4365.641025,4523.589743,4537.948717,4254.358974,4509.743589,4217.435897,4457.948717,4190.769230,4253.333333,4510.256410,4232.307692,4655.384615,3974.871795,4067.692307
69,4365.641025,4521.025641,4539.487179,4260.512820,4511.794871,4215.384615,4457.948717,4197.435897,4258.461538,4518.974358,4226.666666,4656.410256,3972.307693,4068.205128
70,4365.128205,4517.948717,4537.948717,4252.820512,4510.256410,4214.358974,4455.897435,4191.794871,4259.487179,4525.128205,4225.641025,4654.871794,3970.256411,4064.615384
71,4366.666666,4517.435897,4537.948717,4250.769230,4510.256410,4214.358974,4453.846153,4188.717948,4258.974358,4524.102564,4231.794871,4655.384615,3973.846154,4066.666666
72,4366.666666,4521.538461,4539.487179,4253.846153,4511.282051,4213.846153,4453.846153,4193.333333,4262.564102,4526.153846,4233.846153,4657.948717,3975.897436,4071.282051
73,4367.179487,4523.589743,4538.461538,4252.307692,4509.743589,4213.333333,4457.435897,4188.717948,4262.564102,4527.179487,4230.256410,4655.384615,3980.000000,4072.307692
74,4371.794871,4520.512820,4537.948717,4255.384615,4506.153846,4212.820512,4457.435897,4185.128205,4258.461538,4521.538461,4232.307692,4655.897435,3982.564103,4072.307692
75,4377.948717,4524.615384,4546.666666,4263.076923,4509.230769,4215.384615,4458.461538,4196.923076,4261.538461,4523.589743,4246.153846,4666.153846,3985.128206,4077.435897
76,4382.564102,4532.307692,4556.923076,4264.615384,4518.974358,4220.000000,4461.025641,4203.076923,4268.717948,4533.333333,4253.333333,4673.846153,3994.871795,4086.666666
77,4380.000000,4529.743589,4553.846153,4262.051282,4517.948717,4219.487179,4460.512820,4196.923076,4269.743589,4534.358974,4243.589743,4670.256410,3992.820513,4087.692307
78,4375.897435,4524.615384,4543.589743,4263.589743,4512.820512,4218.461538,4461.538461,4192.307692,4265.641025,4527.179487,4240.512820,4667.692307,3983.076924,4081.538461
79,4371.282051,4522.051282,4541.025641,4261.538461,4513.333333,4215.897435,4460.000000,4184.102564,4258.974358,4519.487179,4244.102564,4664.102564,3980.000000,4078.974358
80,4363.589743,4514.871794,4534.358974,4254.358974,4511.282051,4208.717948,4450.769230,4177.948717,4250.256410,4515.384615,4237.948717,4656.410256,3974.871795,4075.384615
81,4358.974358,4513.846153,4525.128205,4248.205128,4504.615384,4208.205128,4448.717948,4180.000000,4248.205128,4515.897435,4231.282051,4652.820512,3972.820513,4067.692307
82,4361.538461,4518.974358,4530.769230,4249.230769,4506.153846,4217.435897,4455.384615,4186.153846,4259.487179,4523.589743,4236.923076,4656.923076,3980.512821,4071.794871
83,4365.128205,4518.461538,4538.461538,4249.743589,4512.307692,4220.000000,4455.384615,4195.384615,4266.153846,4528.205128,4245.128205,4658.461538,3987.692308,4078.974358
84,4361.538461,4515.897435,4535.897435,4249.743589,4510.769230,4213.846153,4448.205128,4196.410256,4261.538461,4522.564102,4242.051282,4656.923076,3981.025642,4074.358974
85,4362.564102,4521.538461,4534.871794,4257.948717,4507.179487,4213.333333,4449.230769,4188.717948,4261.538461,4522.051282,4236.410256,4658.461538,3978.461539,4073.846153
86,4373.333333,4529.230769,4539.487179,4269.743589,4511.794871,4219.487179,4458.974358,4188.717948,4268.205128,4532.307692,4238.974358,4663.589743,3986.666667,4081.025641
87,4375.897435,4529.230769,4541.025641,4268.717948,4512.307692,4218.974358,4460.512820,4192.307692,4266.153846,4536.410256,4242.564102,4667.179487,3988.717949,4080.512820
88,4364.615384,4515.897435,4534.871794,4258.461538,4503.589743,4213.846153,4450.256410,4186.153846,4255.897435,4528.717948,4238.974358,4664.102564,3978.461539,4073.846153
89,4358.974358,4504.615384,4527.179487,4255.384615,4497.948717,4209.230769,4441.538461,4181.025641,4247.179487,4518.461538,4229.230769,4655.384615,3968.717949,4066.153846
90,4359.487179,4505.641025,4523.076923,4254.358974,4495.384615,4204.615384,4443.589743,4179.487179,4240.000000,4508.717948,4216.923076,4649.743589,3962.051283,4056.923076
91,4358.461538,4511.794871,4523.589743,4254.358974,4495.384615,4203.589743,4442.564102,4175.897435,4235.897435,4506.153846,4214.871794,4648.717948,3960.512821,4054.871794
92,4361.025641,4515.384615,4528.717948,4257.948717,4498.461538,4208.717948,4440.000000,4178.974358,4241.538461,4511.794871,4228.717948,4653.846153,3966.666667,4062.051282
93,4362.051282,4514.871794,4529.230769,4256.923076,4498.974358,4211.282051,4443.589743,4184.615384,4247.692307,4511.794871,4229.743589,4656.410256,3968.717949,4062.051282
94,4361.025641,4514.871794,4528.717948,4254.871794,4498.974358,4211.282051,4445.128205,4189.743589,4246.666666,4510.256410,4220.512820,4652.307692,3963.589744,4060.512820
95,4364.615384,4516.923076,4532.307692,4263.076923,4507.179487,4217.435897,4444.615384,4196.410256,4249.743589,4518.974358,4226.153846,4652.307692,3969.743590,4068.205128
96,4363.589743,4515.384615,4529.743589,4266.666666,4509.230769,4220.000000,4444.615384,4191.794871,4255.897435,4526.153846,4231.794871,4654.871794,3977.948718,4070.256410
97,4356.923076,4510.256410,4521.538461,4262.564102,4503.589743,4214.871794,4444.102564,4181.538461,4252.820512,4518.461538,4228.717948,4651.282051,3972.307693,4061.538461
98,4358.974358,4509.743589,4521.538461,4261.025641,4506.666666,4215.384615,4444.102564,4184.102564,4249.230769,4514.358974,4225.641025,4647.179487,3967.179488,4061.538461
99,4363.076923,4514.358974,4525.128205,4244.102564,4508.717948,4216.410256,4445.128205,4187.179487,4251.794871,4521.025641,4220.000000,4648.717948,3970.769231,4064.615384
100,4360.512820,4514.871794,4518.461538,4221.025641,4501.538461,4215.384615,4443.589743,4183.076923,4249.230769,4519.487179,4213.846153,4646.153846,3971.794872,4058.974358
101,4360.000000,4510.769230,4517.948717,4224.102564,4501.025641,4215.384615,4443.589743,4187.179487,4242.564102,4507.179487,4213.333333,4645.128205,3962.564103,4056.410256
102,4357.435897,4507.692307,4524.615384,4230.769230,4505.128205,4215.384615,4444.615384,4194.871794,4237.948717,4500.512820,4215.384615,4647.179487,3954.358975,4057.435897
103,4350.769230,4507.692307,4517.948717,4225.128205,4501.025641,4215.897435,4443.589743,4195.897435,4240.512820,4506.153846,4217.435897,4645.128205,3957.435898,4053.333333
104,4349.743589,4508.205128,4509.230769,4237.948717,4498.974358,4215.897435,4443.076923,4198.974358,4247.692307,4514.358974,4217.948717,4643.076923,3962.051283,4051.282051
105,4355.897435,4514.358974,4516.410256,4265.641025,4498.974358,4207.692307,4437.948717,4199.487179,4248.205128,4510.769230,4217.435897,4643.589743,3959.487180,4054.358974
106,4358.974358,4514.871794,4521.538461,4270.769230,4498.461538,4203.589743,4434.871794,4196.923076,4242.051282,4502.564102,4217.948717,4642.051282,3960.000000,4056.410256
107,4350.256410,4504.615384,4510.769230,4261.538461,4497.435897,4208.717948,4434.358974,4196.410256,4238.461538,4498.461538,4209.230769,4636.410256,3958.461539,4050.256410
108,4342.564102,4502.564102,4505.128205,4262.051282,4494.871794,4207.179487,4431.282051,4193.333333,4238.461538,4494.871794,4203.076923,4631.794871,3946.666667,4044.102564
109,4345.641025,4506.666666,4507.692307,4265.128205,4498.461538,4206.153846,4432.820512,4191.282051,4236.923076,4493.333333,4206.153846,4631.282051,3941.025642,4041.538461
110,4350.256410,4508.205128,4510.769230,4265.641025,4502.564102,4210.256410,4436.410256,4196.923076,4235.384615,4495.384615,4203.589743,4632.820512,3948.205129,4042.051282
111,4350.256410,4510.769230,4516.923076,4267.692307,4498.461538,4211.794871,4435.897435,4203.076923,4238.974358,4498.461538,4203.076923,4638.461538,3957.435898,4049.230769
112,4352.307692,4511.282051,4523.076923,4267.179487,4493.846153,4212.307692,4437.948717,4202.051282,4244.102564,4502.051282,4211.282051,4645.128205,3955.384616,4054.871794
113,4352.820512,4509.230769,4519.487179,4265.641025,4498.461538,4210.256410,4438.461538,4198.974358,4242.564102,4500.000000,4211.282051,4644.615384,3946.666667,4049.230769
114,4350.256410,4506.666666,4514.871794,4271.282051,4495.384615,4208.205128,4435.384615,4196.923076,4233.846153,4491.794871,4201.538461,4638.461538,3946.153847,4044.615384
115,4348.717948,4505.128205,4514.871794,4274.871794,4489.230769,4209.230769,4435.384615,4193.333333,4229.743589,4488.717948,4199.487179,4635.897435,3948.717949,4047.179487
116,4347.179487,4505.641025,4512.307692,4269.743589,4491.282051,4208.717948,4433.846153,4188.717948,4231.794871,4492.820512,4203.076923,4636.410256,3944.102565,4044.615384
117,4348.717948,4507.179487,4513.333333,4267.692307,4497.948717,4208.717948,4429.743589,4186.666666,4236.410256,4497.435897,4202.051282,4641.025641,3946.666667,4044.102564
118,4354.358974,4506.666666,4520.000000,4271.794871,4500.512820,4212.820512,4431.794871,4185.641025,4239.487179,4494.871794,4201.538461,4646.153846,3954.871795,4051.282051
119,4352.820512,4504.615384,4517.435897,4271.282051,4497.435897,4209.230769,4429.743589,4181.538461,4229.743589,4485.128205,4201.025641,4640.512820,3947.692308,4048.205128
120,4344.615384,4504.102564,4506.153846,4266.666666,4494.871794,4205.128205,4424.615384,4176.410256,4225.128205,4484.102564,4199.487179,4631.794871,3937.435898,4040.000000
121,4345.128205,4505.128205,4504.615384,4265.128205,4497.435897,4214.871794,4429.743589,4174.871794,4234.871794,4493.846153,4202.051282,4632.307692,3943.076924,4042.051282
122,4348.717948,4506.666666,4508.717948,4263.589743,4497.435897,4216.410256,4428.717948,4175.384615,4236.923076,4494.358974,4201.025641,4634.871794,3945.641026,4042.564102
123,4344.615384,4501.538461,4505.641025,4261.025641,4492.307692,4205.128205,4424.102564,4171.794871,4229.230769,4488.717948,4196.410256,4631.282051,3941.025642,4036.923076
124,4345.641025,4497.948717,4507.179487,4262.051282,4494.871794,4205.641025,4427.179487,4172.307692,4235.384615,4495.897435,4199.487179,4630.769230,3944.615385,4037.948717
125,4351.282051,4498.974358,4509.230769,4259.487179,4498.974358,4212.307692,4427.692307,4177.948717,4242.564102,4500.000000,4207.692307,4632.820512,3948.205129,4041.025641
126,4349.743589,4495.897435,4506.153846,4254.358974,4495.897435,4208.205128,4426.153846,4184.615384,4237.435897,4494.358974,4205.128205,4632.820512,3947.179488,4038.974358
127,4350.769230,4494.358974,4506.153846,4253.333333,4495.897435,4206.153846,4429.230769,4192.307692,4240.000000,4500.512820,4201.025641,4631.794871,3951.282052,4037.435897
128,4358.974358,4496.923076,4507.692307,4253.333333,4504.102564,4210.256410,4428.717948,4192.820512,4245.641025,4506.153846,4199.487179,4632.307692,3954.871795,4041.538461
129,4364.102564,4501.538461,4508.205128,4255.384615,4508.205128,4212.307692,4429.743589,4188.205128,4241.538461,4496.923076,4201.025641,4636.923076,3951.794872,4047.692307
130,4364.102564,4506.153846,4509.230769,4257.948717,4504.102564,4212.307692,4438.974358,4189.743589,4243.589743,4495.384615,4209.230769,4642.051282,3954.871795,4049.743589
131,4364.615384,4502.564102,4507.179487,4252.307692,4502.051282,4208.717948,4436.923076,4190.769230,4248.205128,4502.051282,4209.743589,4641.538461,3957.948718,4045.128205
132,4369.230769,4494.871794,4507.692307,4248.717948,4501.538461,4206.666666,4430.769230,4184.615384,4244.615384,4498.461538,4204.102564,4638.461538,3962.051283,4045.641025
133,4375.384615,4502.564102,4515.897435,4257.435897,4504.615384,4210.256410,4438.461538,4191.794871,4247.692307,4501.025641,4210.256410,4642.564102,3965.641026,4054.358974
134,4378.974358,4512.307692,4524.102564,4263.589743,4507.692307,4210.769230,4444.102564,4203.589743,4254.871794,4509.743589,4220.512820,4649.743589,3964.102565,4058.974358
135,4377.435897,4506.153846,4522.051282,4258.974358,4506.153846,4209.743589,4438.461538,4200.000000,4250.256410,4507.179487,4218.974358,4647.692307,3966.153847,4056.410256
136,4373.846153,4502.564102,4517.435897,4253.333333,4503.076923,4208.205128,4438.461538,4197.948717,4247.692307,4505.128205,4211.282051,4640.000000,3968.205129,4052.820512
137,4371.794871,4506.153846,4517.948717,4250.256410,4501.538461,4207.179487,4442.051282,4201.538461,4249.230769,4505.641025,4206.666666,4638.461538,3961.025642,4051.282051
138,4374.871794,4504.102564,4521.025641,4251.282051,4500.000000,4208.717948,4441.025641,4201.025641,4247.692307,4503.076923,4209.230769,4644.615384,3956.410257,4054.358974
139,4376.923076,4500.512820,4522.051282,4251.282051,4497.948717,4209.230769,4442.051282,4199.487179,4250.256410,4506.153846,4222.564102,4647.179487,3962.564103,4058.461538
140,4374.871794,4503.076923,4523.076923,4252.307692,4501.025641,4205.128205,4442.564102,4198.974358,4254.871794,4510.769230,4231.794871,4646.666666,3967.179488,4056.923076
141,4379.487179,4509.230769,4524.615384,4260.512820,4502.564102,4204.102564,4441.538461,4201.025641,4254.358974,4511.794871,4223.589743,4648.717948,3970.769231,4057.948717
142,4384.615384,4509.743589,4524.615384,4263.589743,4500.512820,4205.641025,4443.589743,4206.153846,4256.410256,4517.435897,4217.948717,4650.769230,3977.948718,4064.102564
143,4381.538461,4505.641025,4524.102564,4260.512820,4503.589743,4207.692307,4445.128205,4203.589743,4258.461538,4520.512820,4224.615384,4649.230769,3976.410257,4065.641025
144,4380.512820,4506.666666,4524.102564,4261.025641,4508.717948,4211.282051,4444.615384,4198.974358,4252.820512,4513.333333,4226.153846,4647.692307,3968.717949,4061.025641
145,4384.615384,4513.333333,4522.051282,4263.076923,4507.179487,4209.230769,4443.589743,4200.000000,4249.230769,4509.743589,4222.051282,4647.179487,3966.666667,4060.000000
146,4383.589743,4517.435897,4524.102564,4263.076923,4501.025641,4208.205128,4443.589743,4198.974358,4253.333333,4513.333333,4220.512820,4649.743589,3970.769231,4061.538461
147,4375.384615,4510.769230,4520.512820,4257.435897,4500.000000,4205.641025,4443.589743,4191.282051,4252.307692,4510.769230,4212.820512,4647.179487,3964.102565,4058.461538
148,4369.230769,4502.051282,4511.282051,4245.128205,4498.461538,4198.461538,4441.025641,4183.076923,4245.641025,4500.000000,4203.589743,4636.410256,3954.358975,4050.256410
149,4369.743589,4502.564102,4508.717948,4243.076923,4493.846153,4200.000000,4434.871794,4182.564102,4245.641025,4496.923076,4206.666666,4634.358974,3957.435898,4047.179487
150,4376.923076,4508.205128,4514.871794,4256.923076,4495.897435,4202.564102,4432.820512,4188.205128,4248.205128,4501.538461,4212.307692,4643.076923,3961.025642,4053.846153
151,4382.051282,4507.692307,4520.512820,4261.025641,4498.974358,4201.025641,4434.358974,4191.282051,4246.666666,4508.717948,4214.871794,4647.692307,3959.487180,4056.923076
152,4376.923076,4501.025641,4516.923076,4253.333333,4497.948717,4201.025641,4431.282051,4188.205128,4245.128205,4509.743589,4218.974358,4643.589743,3960.000000,4053.333333
153,4372.820512,4500.000000,4514.358974,4256.923076,4497.435897,4200.512820,4428.717948,4185.128205,4242.564102,4504.102564,4215.384615,4642.051282,3958.461539,4054.358974
154,4380.000000,4506.666666,4517.948717,4265.641025,4497.948717,4200.512820,4430.256410,4184.615384,4238.461538,4504.102564,4214.871794,4646.153846,3955.897436,4057.435897
155,4384.102564,4509.230769,4521.538461,4264.102564,4499.487179,4202.051282,4433.333333,4190.256410,4238.974358,4506.666666,4224.615384,4647.692307,3961.538462,4056.923076
156,4378.974358,4506.666666,4521.025641,4262.564102,4498.974358,4201.025641,4432.307692,4195.897435,4242.051282,4509.230769,4224.102564,4646.153846,3966.666667,4058.461538
157,4376.923076,4508.205128,4515.384615,4265.128205,4496.923076,4199.487179,4429.230769,4193.333333,4245.128205,4509.230769,4216.410256,4644.615384,3963.589744,4058.974358
158,4380.512820,4511.282051,4512.820512,4262.564102,4498.974358,4206.666666,4433.846153,4192.820512,4247.179487,4505.128205,4218.974358,4646.153846,3966.666667,4055.384615
159,4381.538461,4509.743589,4516.410256,4264.102564,4504.615384,4210.769230,4440.000000,4199.487179,4241.538461,4506.666666,4223.589743,4647.179487,3970.256411,4053.846153
160,4382.051282,4506.666666,4521.538461,4268.205128,4505.128205,4208.717948,4440.000000,4201.538461,4238.974358,4512.820512,4225.128205,4647.179487,3968.717949,4058.461538
161,4380.512820,4505.128205,4521.025641,4265.128205,4498.461538,4204.615384,4434.358974,4198.461538,4241.025641,4506.153846,4222.564102,4645.641025,3964.102565,4056.923076
162,4375.897435,4504.102564,4516.410256,4260.512820,4496.410256,4202.051282,4432.307692,4196.923076,4237.948717,4493.333333,4209.230769,4642.051282,3959.487180,4048.205128
163,4376.410256,4505.128205,4514.871794,4264.615384,4499.487179,4206.153846,4435.897435,4202.564102,4235.384615,4496.923076,4203.076923,4641.025641,3960.000000,4048.205128
164,4383.076923,4508.717948,4520.000000,4271.282051,4505.128205,4209.743589,4440.512820,4209.230769,4240.512820,4506.153846,4215.897435,4647.179487,3964.615385,4057.435897
165,4385.128205,4509.743589,4524.615384,4267.692307,4507.692307,4210.769230,4442.564102,4214.358974,4243.589743,4509.230769,4223.076923,4649.743589,3966.666667,4061.025641
166,4378.461538,4506.153846,4518.461538,4260.000000,4501.538461,4207.179487,4436.923076,4211.794871,4237.948717,4503.076923,4213.846153,4640.512820,3959.487180,4052.820512
167,4375.897435,4504.615384,4515.384615,4261.538461,4496.923076,4203.076923,4429.743589,4208.205128,4233.333333,4494.871794,4208.205128,4633.846153,3959.487180,4047.692307
168,4383.076923,4507.179487,4522.051282,4270.769230,4498.974358,4204.615384,4428.717948,4211.794871,4235.897435,4500.512820,4213.333333,4638.974358,3967.692308,4054.871794
169,4386.153846,4507.179487,4523.076923,4269.743589,4507.179487,4206.153846,4430.769230,4216.923076,4238.461538,4509.743589,4220.000000,4644.615384,3961.025642,4058.974358
170,4382.564102,4508.717948,4520.512820,4265.128205,4508.205128,4206.666666,4434.871794,4222.051282,4241.025641,4509.230769,4218.461538,4644.615384,3952.820513,4054.358974
171,4383.589743,4516.410256,4523.589743,4270.256410,4504.615384,4211.794871,4441.538461,4228.205128,4244.615384,4509.743589,4214.358974,4646.153846,3962.051283,4055.384615
172,4384.615384,4515.384615,4521.538461,4272.820512,4506.153846,4212.820512,4442.564102,4226.153846,4245.641025,4512.820512,4215.897435,4646.153846,3970.256411,4059.487179
173,4377.435897,4506.153846,4511.282051,4264.102564,4506.666666,4202.564102,4432.820512,4215.897435,4237.948717,4506.666666,4216.923076,4637.435897,3964.102565,4052.307692
174,4376.923076,4504.615384,4511.794871,4261.538461,4501.538461,4202.051282,4428.205128,4215.897435,4233.846153,4500.000000,4214.871794,4636.923076,3962.564103,4048.205128
175,4383.589743,4510.256410,4517.948717,4266.666666,4499.487179,4206.153846,4431.282051,4224.102564,4236.923076,4504.102564,4209.230769,4644.615384,3963.076924,4053.333333
176,4380.512820,4505.128205,4512.307692,4264.102564,4500.000000,4199.487179,4428.717948,4222.051282,4234.358974,4504.615384,4204.102564,4642.564102,3956.923077,4051.794871
177,4371.282051,4492.820512,4504.615384,4260.512820,4494.871794,4197.948717,4424.615384,4214.871794,4225.641025,4491.794871,4201.538461,4631.794871,3951.794872,4046.666666
178,4369.743589,4493.846153,4504.615384,4261.025641,4492.307692,4201.538461,4423.589743,4214.358974,4222.051282,4487.179487,4203.589743,4628.205128,3947.692308,4044.102564
179,4374.871794,4504.615384,4504.615384,4261.025641,4498.461538,4198.974358,4425.641025,4214.871794,4229.230769,4497.435897,4210.256410,4631.794871,3950.769231,4046.666666
180,4385.641025,4510.769230,4510.256410,4265.128205,4503.076923,4201.538461,4427.692307,4216.410256,4236.410256,4505.128205,4217.948717,4640.512820,3963.589744,4055.384615
181,4394.358974,4516.410256,4524.102564,4273.333333,4502.564102,4210.256410,4430.256410,4222.564102,4240.512820,4508.717948,4226.153846,4648.717948,3970.256411,4064.615384
182,4393.846153,4520.512820,4524.615384,4271.282051,4505.641025,4210.256410,4431.794871,4225.128205,4245.128205,4512.820512,4227.179487,4648.205128,3970.769231,4066.666666
183,4387.692307,4512.307692,4511.794871,4266.666666,4505.641025,4207.692307,4430.769230,4225.641025,4241.538461,4508.717948,4222.051282,4643.589743,3973.846154,4064.102564
184,4389.230769,4504.615384,4510.256410,4272.307692,4503.076923,4210.256410,4431.282051,4226.153846,4232.820512,4501.025641,4213.846153,4641.025641,3970.256411,4058.974358
185,4393.333333,4508.717948,4519.487179,4279.487179,4506.666666,4209.230769,4431.282051,4224.102564,4233.333333,4504.102564,4210.769230,4643.076923,3961.025642,4055.897435
186,4389.743589,4510.256410,4522.564102,4280.000000,4507.179487,4208.717948,4427.692307,4224.102564,4236.923076,4507.179487,4214.358974,4647.179487,3963.076924,4057.435897
187,4385.128205,4506.153846,4518.974358,4274.358974,4501.538461,4207.179487,4427.179487,4222.564102,4234.358974,4500.512820,4219.487179,4645.641025,3967.692308,4055.384615
188,4391.282051,4509.743589,4519.487179,4275.384615,4502.564102,4207.692307,4428.205128,4223.589743,4236.410256,4500.000000,4220.000000,4644.102564,3967.692308,4055.384615
189,4395.897435,4513.846153,4523.589743,4280.512820,4503.589743,4209.230769,4426.666666,4227.692307,4241.538461,4507.692307,4216.923076,4650.769230,3968.717949,4062.051282
190,4388.205128,4510.769230,4518.974358,4276.923076,4497.435897,4208.205128,4426.153846,4225.128205,4238.974358,4503.589743,4216.923076,4650.769230,3967.692308,4061.538461
191,4382.051282,4505.641025,4510.769230,4271.794871,4496.923076,4205.128205,4428.205128,4221.538461,4230.769230,4494.358974,4213.846153,4643.076923,3961.538462,4053.846153
192,4383.589743,4502.051282,4509.743589,4273.846153,4500.512820,4205.641025,4426.666666,4225.641025,4230.769230,4493.846153,4211.794871,4641.538461,3962.564103,4052.307692
193,4383.589743,4503.076923,4512.307692,4275.384615,4495.384615,4206.153846,4425.641025,4227.179487,4237.948717,4498.461538,4217.948717,4642.564102,3964.615385,4055.384615
194,4380.000000,4505.128205,4508.717948,4271.282051,4489.230769,4200.512820,4420.000000,4216.410256,4235.897435,4498.461538,4215.897435,4637.435897,3960.000000,4051.282051
195,4374.871794,4497.948717,4503.076923,4266.153846,4492.307692,4198.461538,4411.282051,4209.230769,4222.564102,4493.846153,4203.589743,4630.769230,3953.333334,4043.076923
196,4372.307692,4494.358974,4504.102564,4267.692307,4492.820512,4205.128205,4415.897435,4209.230769,4216.410256,4488.717948,4202.051282,4629.743589,3948.205129,4039.487179
197,4373.333333,4497.948717,4505.641025,4268.717948,4490.769230,4208.717948,4426.153846,4216.410256,4224.615384,4489.743589,4207.179487,4631.282051,3950.256411,4040.512820
198,4370.769230,4495.897435,4504.102564,4267.692307,4492.307692,4205.128205,4421.025641,4219.487179,4230.256410,4494.358974,4202.051282,4630.769230,3959.487180,4041.538461
199,4370.769230,4493.846153,4506.153846,4270.769230,4492.307692,4204.102564,4416.923076,4215.384615,4227.692307,4495.897435,4202.051282,4630.769230,3961.025642,4042.051282
200,4380.000000,4503.076923,4507.692307,4273.333333,4491.282051,4208.205128,4424.102564,4215.897435,4227.692307,4501.538461,4214.871794,4634.358974,3956.923077,4047.179487
201,4385.128205,4511.282051,4506.666666,4274.871794,4496.410256,4208.717948,4427.179487,4220.000000,4237.435897,4504.615384,4218.974358,4640.000000,3962.564103,4054.358974
202,4383.589743,4512.820512,4514.871794,4283.076923,4506.666666,4215.384615,4426.153846,4221.538461,4244.102564,4506.153846,4217.435897,4645.641025,3971.794872,4058.974358
203,4383.076923,4512.307692,4519.487179,4289.230769,4510.769230,4221.538461,4427.179487,4222.051282,4242.564102,4508.717948,4219.487179,4646.153846,3972.820513,4061.025641
204,4384.102564,4506.153846,4512.820512,4283.589743,4505.128205,4216.410256,4426.153846,4225.641025,4240.512820,4507.692307,4216.410256,4643.076923,3969.230770,4057.948717
205,4382.564102,4506.153846,4514.358974,4282.564102,4500.000000,4216.923076,4428.205128,4226.153846,4240.000000,4506.666666,4214.871794,4645.641025,3966.153847,4054.358974
206,4381.025641,4508.717948,4519.487179,4283.076923,4503.076923,4221.538461,4429.743589,4219.487179,4241.538461,4508.205128,4220.000000,4648.717948,3967.179488,4057.948717
207,4377.948717,4505.641025,4510.256410,4278.461538,4501.538461,4216.923076,4424.102564,4216.923076,4242.051282,4503.589743,4220.512820,4641.025641,3967.179488,4056.923076
208,4375.897435,4504.615384,4500.512820,4278.461538,4495.384615,4215.384615,4422.564102,4218.974358,4235.897435,4496.410256,4216.410256,4629.743589,3960.512821,4048.205128
209,4381.538461,4506.153846,4506.153846,4278.974358,4496.923076,4219.487179,4427.179487,4217.435897,4231.282051,4500.000000,4215.897435,4632.307692,3958.974359,4048.717948
210,4387.692307,4508.205128,4514.358974,4280.512820,4505.641025,4221.538461,4425.641025,4215.897435,4236.923076,4505.128205,4216.923076,4643.589743,3964.102565,4057.435897
211,4390.256410,4510.256410,4515.897435,4282.051282,4510.256410,4219.487179,4421.025641,4220.000000,4237.435897,4497.435897,4219.487179,4646.153846,3964.615385,4056.923076
212,4385.641025,4507.692307,4509.230769,4280.512820,4502.564102,4215.897435,4418.461538,4214.358974,4227.692307,4489.230769,4214.358974,4636.923076,3957.948718,4048.205128
213,4378.974358,4505.128205,4506.153846,4280.512820,4495.384615,4215.897435,4415.897435,4205.641025,4229.743589,4492.307692,4202.564102,4631.794871,3955.384616,4045.641025
214,4380.000000,4506.666666,4510.769230,4281.538461,4502.564102,4217.948717,4414.358974,4209.743589,4233.846153,4493.846153,4205.128205,4634.358974,3953.846154,4047.692307
215,4384.615384,4505.641025,4508.205128,4279.487179,4505.128205,4216.923076,4413.333333,4211.282051,4223.589743,4483.589743,4212.307692,4634.358974,3954.358975,4047.692307
216,4384.102564,4505.641025,4506.153846,4278.974358,4498.461538,4213.846153,4413.333333,4208.717948,4221.025641,4481.025641,4212.307692,4632.820512,3957.435898,4047.179487
217,4382.051282,4507.692307,4508.205128,4278.461538,4497.948717,4213.846153,4412.820512,4209.743589,4229.230769,4488.205128,4209.743589,4633.333333,3958.974359,4047.179487
218,4381.538461,4502.051282,4505.128205,4269.230769,4499.487179,4213.846153,4411.794871,4207.179487,4227.692307,4492.820512,4203.589743,4631.794871,3958.461539,4041.538461
219,4381.538461,4499.487179,4503.076923,4261.538461,4496.410256,4215.384615,4412.307692,4205.128205,4222.051282,4490.769230,4203.076923,4629.743589,3956.410257,4036.923076
220,4388.717948,4500.512820,4505.641025,4266.153846,4494.871794,4213.333333,4414.358974,4209.230769,4228.717948,4489.743589,4209.743589,4633.846153,3955.897436,4044.102564
221,4397.948717,4500.512820,4507.179487,4268.717948,4496.923076,4208.717948,4413.846153,4211.282051,4233.846153,4494.358974,4212.820512,4637.948717,3964.102565,4051.794871
222,4395.897435,4500.000000,4509.230769,4263.076923,4499.487179,4208.717948,4412.307692,4210.256410,4229.743589,4497.948717,4211.794871,4637.435897,3968.205129,4053.333333
223,4395.384615,4497.435897,4512.820512,4262.564102,4501.025641,4209.743589,4412.820512,4213.846153,4228.205128,4495.384615,4216.923076,4640.512820,3965.128206,4053.846153
224,4405.128205,4500.000000,4515.384615,4265.641025,4500.000000,4208.205128,4414.358974,4214.358974,4230.769230,4495.384615,4217.948717,4646.153846,3967.692308,4055.384615
225,4409.743589,4503.076923,4520.512820,4263.589743,4495.897435,4203.076923,4413.846153,4212.820512,4230.769230,4496.923076,4215.384615,4644.615384,3971.282052,4056.923076
226,4406.153846,4499.487179,4520.000000,4262.051282,4496.410256,4203.589743,4412.820512,4215.384615,4231.794871,4496.410256,4217.948717,4640.512820,3969.743590,4060.000000
227,4407.692307,4498.974358,4514.358974,4261.538461,4501.025641,4208.717948,4417.948717,4220.512820,4236.410256,4498.461538,4216.923076,4643.589743,3969.743590,4061.025641
228,4414.358974,4505.641025,4516.410256,4260.000000,4501.025641,4205.128205,4422.564102,4229.230769,4238.461538,4497.948717,4215.897435,4646.666666,3972.820513,4058.461538
229,4413.846153,4507.692307,4523.076923,4265.128205,4498.461538,4205.128205,4422.564102,4234.358974,4242.051282,4500.000000,4220.512820,4646.666666,3973.333334,4056.410256
230,4411.794871,4503.076923,4524.102564,4271.794871,4500.000000,4212.820512,4424.615384,4233.333333,4247.692307,4504.615384,4220.512820,4648.205128,3974.871795,4058.461538
231,4413.333333,4501.538461,4517.948717,4268.717948,4502.051282,4212.307692,4428.205128,4233.333333,4243.589743,4501.538461,4216.923076,4645.128205,3977.435898,4061.538461
232,4410.769230,4498.974358,4514.871794,4261.538461,4501.025641,4207.692307,4426.666666,4232.820512,4239.487179,4496.923076,4221.538461,4638.461538,3974.871795,4056.410256
233,4409.743589,4504.102564,4518.461538,4262.564102,4501.025641,4212.820512,4426.666666,4233.846153,4248.717948,4504.102564,4225.128205,4640.512820,3975.897436,4056.410256
234,4414.871794,4509.230769,4523.076923,4265.641025,4501.538461,4216.923076,4428.205128,4240.512820,4253.333333,4513.333333,4224.102564,4648.717948,3981.538462,4064.102564
235,4413.846153,4505.641025,4519.487179,4263.076923,4498.461538,4211.794871,4426.666666,4241.538461,4246.153846,4512.307692,4223.589743,4648.717948,3981.538462,4064.615384
236,4405.128205,4503.589743,4516.923076,4262.564102,4497.948717,4207.179487,4427.692307,4235.897435,4244.615384,4509.230769,4223.076923,4645.128205,3975.897436,4058.974358
237,4407.692307,4508.205128,4522.051282,4264.102564,4502.051282,4208.717948,4428.717948,4236.410256,4249.743589,4506.666666,4226.153846,4647.179487,3978.974359,4062.051282
238,4414.358974,4506.666666,4521.538461,4262.564102,4503.589743,4211.794871,4426.666666,4238.461538,4251.794871,4506.153846,4227.179487,4649.230769,3985.641026,4066.666666
239,4411.794871,4499.487179,4519.487179,4262.564102,4501.025641,4208.717948,4427.179487,4241.025641,4252.307692,4509.230769,4225.641025,4647.179487,3981.538462,4060.512820
240,4408.717948,4501.538461,4521.538461,4266.153846,4497.435897,4204.615384,4431.794871,4246.666666,4255.897435,4513.846153,4227.179487,4650.256410,3975.897436,4056.410256
241,4413.333333,4508.717948,4524.615384,4267.179487,4498.461538,4206.666666,4433.333333,4247.692307,4256.923076,4513.333333,4230.769230,4655.384615,3977.948718,4062.051282
242,4419.487179,4510.769230,4524.615384,4271.794871,4501.025641,4206.153846,4432.307692,4240.000000,4252.820512,4509.230769,4232.307692,4653.846153,3980.512821,4066.666666
243,4416.923076,4505.128205,4522.564102,4273.333333,4501.538461,4202.564102,4426.153846,4235.384615,4243.076923,4508.205128,4231.282051,4647.692307,3971.794872,4061.538461
244,4409.230769,4499.487179,4520.000000,4266.153846,4495.897435,4202.564102,4415.384615,4233.846153,4238.461538,4507.179487,4223.589743,4643.589743,3967.179488,4053.333333
245,4405.641025,4496.410256,4517.435897,4263.589743,4487.692307,4198.461538,4414.871794,4230.256410,4243.076923,4504.615384,4214.358974,4641.538461,3967.692308,4052.307692
246,4407.179487,4493.333333,4517.948717,4263.589743,4490.256410,4196.923076,4420.000000,4231.282051,4242.051282,4503.076923,4212.307692,4641.025641,3964.102565,4053.333333
247,4408.717948,4500.000000,4521.025641,4265.128205,4493.846153,4206.666666,4422.051282,4237.435897,4239.487179,4508.717948,4213.333333,4646.153846,3967.692308,4055.897435
248,4412.307692,4504.102564,4523.076923,4270.256410,4489.230769,4211.794871,4426.153846,4244.102564,4246.153846,4516.410256,4218.461538,4651.282051,3974.871795,4058.461538
249,4414.358974,4497.948717,4522.051282,4271.794871,4492.820512,4206.153846,4429.743589,4246.666666,4254.871794,4516.410256,4226.666666,4649.743589,3972.307693,4057.435897
250,4411.794871,4497.435897,4520.000000,4271.794871,4500.000000,4207.179487,4428.205128,4246.153846,4253.333333,4511.794871,4226.153846,4646.666666,3965.641026,4054.871794
251,4412.820512,4508.205128,4521.025641,4277.948717,4497.435897,4211.794871,4429.230769,4247.179487,4249.743589,4510.256410,4220.000000,4648.205128,3972.307693,4057.435897
252,4417.948717,4511.282051,4522.564102,4281.025641,4497.435897,4211.794871,4432.820512,4249.230769,4250.256410,4516.410256,4222.564102,4651.282051,3977.948718,4064.615384
253,4417.948717,4507.692307,4522.051282,4277.435897,4503.589743,4211.794871,4428.717948,4246.666666,4248.717948,4518.461538,4226.153846,4650.256410,3974.871795,4065.128205
254,4414.358974,4507.692307,4521.538461,4277.948717,4499.487179,4208.717948,4425.128205,4241.538461,4244.102564,4511.282051,4222.051282,4646.153846,3974.871795,4062.051282
255,4421.025641,4510.769230,4523.076923,4282.564102,4497.948717,4207.692307,4427.179487,4243.076923,4240.512820,4509.743589,4221.538461,4647.179487,3975.384616,4067.179487
