,AF3,F7,F3,FC5,T7,P7,O1,O2,P8,T8,FC6,F4,F8,AF4
0,4388.205128,4565.641025,4534.871794,4280.000000,4514.358974,4221.538461,4421.538461,4225.128205,4246.666666,4497.948717,4203.076923,4656.410256,4004.615384,4106.666666
1,4388.717948,4553.846153,4527.179487,4283.076923,4502.051282,4216.410256,4420.512820,4215.897435,4235.384615,4498.974358,4195.897435,4651.794871,4003.076923,4102.051282
2,4385.641025,4561.025641,4526.666666,4287.692307,4503.589743,4217.948717,4420.512820,4218.461538,4230.769230,4512.820512,4203.589743,4653.333333,4004.615384,4092.820512
3,4386.666666,4572.307692,4535.384615,4294.871794,4515.384615,4222.564102,4416.923076,4218.461538,4232.307692,4504.615384,4211.282051,4654.871794,4004.102564,4094.358974
4,4396.923076,4572.307692,4541.538461,4305.128205,4523.076923,4228.717948,4422.564102,4219.487179,4238.461538,4490.256410,4218.461538,4660.512820,4008.717948,4108.205128
5,4394.871794,4566.153846,4534.358974,4297.948717,4511.282051,4223.076923,4423.589743,4217.435897,4234.871794,4498.974358,4216.410256,4657.435897,4008.205128,4109.743589
6,4385.641025,4564.615384,4531.282051,4282.051282,4497.948717,4214.871794,4416.410256,4206.666666,4222.564102,4512.820512,4204.615384,4647.179487,4001.538461,4100.000000
7,4384.102564,4566.153846,4534.358974,4285.128205,4503.589743,4218.461538,4415.897435,4201.538461,4215.897435,4504.102564,4200.512820,4644.615384,4000.512820,4096.410256
8,4385.128205,4570.256410,4531.794871,4295.897435,4506.666666,4218.974358,4416.410256,4206.153846,4220.512820,4493.333333,4205.641025,4644.102564,4003.076923,4095.897435
9,4384.102564,4568.717948,4532.307692,4294.871794,4498.461538,4213.333333,4411.794871,4210.769230,4230.256410,4502.051282,4209.230769,4640.512820,3999.487180,4090.769230
10,4391.282051,4566.153846,4539.487179,4291.794871,4507.692307,4216.410256,4416.410256,4216.410256,4235.384615,4509.230769,4213.333333,4648.205128,3993.846154,4095.897435
11,4396.923076,4572.307692,4542.051282,4295.897435,4525.128205,4221.538461,4425.641025,4221.538461,4234.871794,4503.076923,4217.435897,4659.487179,3998.974359,4106.153846
12,4389.230769,4569.743589,4538.461538,4294.358974,4513.333333,4218.461538,4420.512820,4219.487179,4231.794871,4501.025641,4209.230769,4654.871794,4005.641025,4102.564102
13,4384.102564,4558.974358,4536.410256,4289.230769,4487.179487,4213.846153,4412.307692,4215.384615,4228.205128,4505.641025,4202.564102,4644.615384,4003.076923,4096.410256
14,4390.769230,4562.564102,4537.948717,4291.794871,4490.769230,4215.897435,4415.897435,4215.384615,4229.230769,4507.179487,4213.846153,4647.692307,4006.153846,4103.589743
15,4395.384615,4574.358974,4541.025641,4296.410256,4513.333333,4220.512820,4425.641025,4221.025641,4240.512820,4506.666666,4222.051282,4657.948717,4015.897435,4108.717948
16,4391.282051,4573.846153,4544.102564,4293.333333,4513.333333,4221.025641,4428.717948,4225.128205,4247.692307,4506.153846,4219.487179,4657.435897,4015.897435,4104.615384
17,4388.717948,4567.179487,4541.025641,4283.589743,4502.564102,4219.487179,4426.666666,4219.487179,4238.974358,4503.076923,4217.435897,4652.820512,4004.615384,4104.102564
18,4392.820512,4569.230769,4543.076923,4285.641025,4509.230769,4219.487179,4429.230769,4215.384615,4232.820512,4513.333333,4214.871794,4655.384615,4006.666666,4108.717948
19,4396.410256,4573.333333,4551.282051,4294.871794,4508.717948,4218.461538,4429.230769,4219.487179,4237.435897,4521.538461,4212.820512,4658.974358,4017.948717,4109.230769
20,4392.820512,4570.256410,4547.179487,4293.846153,4490.256410,4214.871794,4423.589743,4217.435897,4233.846153,4507.692307,4216.923076,4657.435897,4011.282051,4103.589743
21,4389.230769,4565.641025,4541.538461,4290.256410,4491.282051,4214.358974,4424.102564,4214.358974,4227.179487,4497.948717,4216.410256,4656.923076,4000.512820,4102.564102
22,4396.923076,4565.641025,4551.282051,4293.846153,4512.307692,4218.461538,4429.743589,4221.025641,4232.307692,4505.128205,4214.358974,4666.153846,4009.743589,4110.769230
23,4402.564102,4569.230769,4558.461538,4296.923076,4515.384615,4220.512820,4431.282051,4223.076923,4237.948717,4507.692307,4218.974358,4674.871794,4021.538461,4111.794871
24,4394.871794,4567.692307,4551.794871,4293.846153,4497.948717,4216.410256,4428.205128,4216.410256,4234.358974,4504.615384,4217.948717,4668.205128,4012.307692,4105.128205
25,4391.794871,4565.641025,4548.717948,4291.282051,4494.871794,4213.846153,4426.153846,4215.384615,4229.743589,4506.153846,4209.743589,4660.000000,3999.487180,4106.153846
26,4394.358974,4565.641025,4553.846153,4293.333333,4504.102564,4215.897435,4428.205128,4217.948717,4231.282051,4505.128205,4208.205128,4662.051282,3997.948718,4110.256410
27,4395.384615,4565.641025,4552.820512,4296.923076,4507.179487,4216.923076,4430.256410,4218.974358,4233.333333,4507.179487,4213.333333,4663.076923,4008.205128,4107.692307
28,4401.538461,4573.333333,4553.846153,4299.487179,4513.846153,4220.512820,4431.794871,4226.666666,4241.025641,4511.282051,4221.538461,4665.641025,4022.564102,4112.307692
29,4411.794871,4585.128205,4560.512820,4305.641025,4518.974358,4229.743589,4434.871794,4232.820512,4249.743589,4507.692307,4232.307692,4675.897435,4025.641025,4124.102564
30,4413.846153,4582.051282,4563.076923,4312.307692,4515.384615,4231.794871,4437.948717,4225.641025,4242.564102,4508.205128,4232.307692,4676.923076,4023.076923,4125.128205
31,4407.179487,4572.820512,4556.923076,4309.743589,4509.230769,4222.051282,4432.307692,4216.923076,4234.358974,4510.769230,4221.025641,4666.666666,4023.076923,4121.538461
32,4398.974358,4569.743589,4550.769230,4301.025641,4496.923076,4214.358974,4427.692307,4214.871794,4233.846153,4500.000000,4210.256410,4660.512820,4013.846153,4115.897435
33,4395.897435,4569.743589,4552.307692,4297.948717,4490.256410,4216.923076,4427.179487,4213.846153,4231.282051,4494.358974,4215.384615,4661.025641,4006.666666,4108.717948
34,4400.512820,4576.410256,4552.820512,4298.461538,4510.256410,4222.051282,4429.230769,4214.871794,4232.820512,4504.615384,4226.153846,4664.102564,4017.948717,4110.256410
35,4405.641025,4586.153846,4551.794871,4297.435897,4529.230769,4227.179487,4433.333333,4217.948717,4244.102564,4509.743589,4225.641025,4669.230769,4027.692307,4117.435897
36,4407.179487,4586.153846,4554.358974,4303.589743,4525.128205,4232.307692,4434.358974,4223.589743,4250.256410,4510.256410,4223.589743,4671.794871,4022.051282,4118.974358
37,4411.282051,4583.076923,4557.435897,4307.692307,4520.000000,4230.769230,4436.410256,4231.794871,4248.205128,4516.410256,4228.717948,4674.871794,4019.487179,4120.000000
38,4410.256410,4582.564102,4555.384615,4300.512820,4509.743589,4222.051282,4437.435897,4235.897435,4249.230769,4518.974358,4228.205128,4675.384615,4025.128205,4123.589743
39,4399.487179,4571.282051,4548.717948,4295.384615,4495.897435,4215.897435,4431.282051,4228.717948,4246.666666,4507.692307,4218.461538,4667.179487,4018.974358,4118.461538
40,4394.871794,4562.564102,4548.205128,4298.461538,4502.564102,4214.871794,4426.666666,4219.487179,4238.974358,4494.358974,4214.871794,4660.512820,4005.128205,4109.743589
41,4401.025641,4575.897435,4553.333333,4298.974358,4511.794871,4217.435897,4427.179487,4217.948717,4233.333333,4495.384615,4217.948717,4666.153846,4007.179487,4113.333333
42,4403.076923,4587.179487,4554.871794,4298.974358,4508.205128,4217.948717,4426.666666,4217.435897,4232.307692,4507.179487,4219.487179,4673.846153,4021.025641,4121.025641
43,4401.538461,4576.923076,4555.384615,4301.025641,4506.153846,4215.897435,4422.564102,4210.769230,4230.769230,4509.230769,4220.512820,4671.282051,4019.487179,4119.487179
44,4398.974358,4566.153846,4554.358974,4296.410256,4502.564102,4213.333333,4417.435897,4206.666666,4226.153846,4493.846153,4216.923076,4665.128205,4009.230769,4113.333333
45,4396.923076,4572.820512,4551.282051,4296.923076,4504.102564,4213.333333,4418.974358,4217.435897,4231.282051,4488.717948,4216.410256,4667.692307,4014.871794,4116.923076
46,4405.128205,4585.128205,4551.282051,4305.128205,4518.974358,4217.435897,4426.153846,4233.333333,4246.153846,4504.615384,4228.717948,4674.871794,4028.717948,4121.538461
47,4411.282051,4584.615384,4553.333333,4305.128205,4525.128205,4220.000000,4430.256410,4234.871794,4249.743589,4521.025641,4237.948717,4672.307692,4028.717948,4119.487179
48,4402.051282,4580.512820,4551.282051,4298.461538,4521.538461,4217.948717,4430.769230,4233.846153,4247.179487,4527.179487,4234.358974,4668.205128,4021.538461,4117.435897
49,4400.000000,4583.589743,4550.256410,4297.948717,4521.538461,4218.461538,4432.307692,4242.051282,4252.820512,4522.051282,4230.769230,4673.846153,4021.025641,4120.512820
50,4408.205128,4584.615384,4555.897435,4300.000000,4509.743589,4222.051282,4436.923076,4245.641025,4257.948717,4516.923076,4228.205128,4678.461538,4025.641025,4123.076923
51,4403.076923,4575.384615,4552.307692,4295.384615,4488.717948,4220.000000,4437.948717,4234.358974,4247.692307,4511.282051,4221.025641,4669.230769,4024.615384,4115.384615
52,4392.307692,4565.128205,4542.564102,4293.846153,4493.333333,4216.923076,4435.897435,4230.256410,4240.000000,4495.897435,4218.974358,4662.051282,4014.358974,4107.179487
53,4398.461538,4568.205128,4547.179487,4294.871794,4521.538461,4225.128205,4440.512820,4237.948717,4245.641025,4491.282051,4223.076923,4669.230769,4012.307692,4112.820512
54,4404.615384,4577.948717,4557.435897,4291.794871,4529.230769,4233.846153,4449.743589,4236.923076,4249.743589,4508.717948,4226.153846,4675.384615,4023.589743,4117.948717
55,4395.897435,4576.410256,4550.769230,4292.307692,4512.307692,4231.282051,4449.230769,4230.769230,4247.179487,4508.717948,4221.538461,4669.743589,4023.589743,4108.717948
56,4390.769230,4569.743589,4540.000000,4293.333333,4505.128205,4226.153846,4445.128205,4232.307692,4245.128205,4496.410256,4207.179487,4661.538461,4008.717948,4100.000000
57,4389.743589,4568.717948,4539.487179,4288.205128,4505.641025,4222.051282,4444.615384,4228.205128,4238.974358,4503.076923,4194.871794,4653.846153,3996.923077,4098.461538
58,4379.487179,4558.974358,4530.769230,4279.487179,4491.282051,4216.410256,4431.794871,4214.871794,4228.717948,4493.846153,4190.769230,4643.076923,3989.743590,4088.717948
59,4372.820512,4550.769230,4523.076923,4278.461538,4483.076923,4214.358974,4425.128205,4216.410256,4230.769230,4468.205128,4194.358974,4643.589743,3987.179488,4087.692307
60,4382.051282,4563.589743,4534.358974,4282.564102,4493.846153,4217.435897,4433.846153,4228.205128,4238.974358,4478.461538,4202.051282,4657.435897,3996.410257,4100.512820
61,4388.717948,4572.307692,4540.512820,4284.102564,4494.358974,4215.897435,4432.820512,4221.538461,4234.871794,4494.871794,4205.128205,4658.974358,4001.538461,4101.538461
62,4390.256410,4567.692307,4536.923076,4284.615384,4496.410256,4215.897435,4425.641025,4211.282051,4232.307692,4493.333333,4204.615384,4656.410256,4003.076923,4098.974358
63,4399.487179,4568.717948,4544.615384,4293.333333,4511.282051,4221.025641,4431.794871,4221.538461,4243.076923,4504.615384,4212.307692,4669.743589,4009.743589,4110.769230
64,4400.512820,4567.179487,4548.717948,4296.923076,4503.076923,4219.487179,4433.846153,4222.564102,4241.025641,4510.769230,4217.948717,4672.820512,4004.615384,4112.820512
65,4391.794871,4559.487179,4536.923076,4285.641025,4482.051282,4213.333333,4420.512820,4204.615384,4221.025641,4484.615384,4213.846153,4662.564102,3993.846154,4103.076923
66,4394.871794,4565.641025,4535.897435,4285.641025,4500.000000,4213.846153,4418.461538,4198.974358,4217.435897,4470.256410,4216.923076,4668.717948,4007.692307,4104.615384
67,4405.128205,4577.948717,4542.564102,4298.461538,4524.102564,4217.948717,4424.615384,4204.102564,4230.256410,4490.769230,4223.589743,4677.948717,4023.076923,4110.256410
68,4401.538461,4577.435897,4538.974358,4298.461538,4509.743589,4217.435897,4424.615384,4202.051282,4232.307692,4498.974358,4221.025641,4664.615384,4009.743589,4106.666666
69,4393.846153,4571.794871,4538.461538,4295.897435,4497.435897,4216.923076,4423.589743,4201.025641,4230.769230,4493.846153,4215.897435,4660.000000,3997.948718,4107.692307
70,4394.871794,4570.256410,4538.974358,4298.974358,4502.051282,4217.435897,4422.564102,4202.051282,4233.333333,4498.461538,4211.282051,4663.589743,4006.153846,4105.128205
71,4393.846153,4571.282051,4527.179487,4292.820512,4498.974358,4215.384615,4422.051282,4205.128205,4235.384615,4498.974358,4207.692307,4652.820512,4008.205128,4094.358974
72,4390.769230,4572.307692,4527.692307,4288.717948,4501.538461,4215.897435,4425.641025,4214.871794,4241.025641,4495.384615,4217.948717,4650.769230,4004.102564,4096.410256
73,4394.871794,4571.282051,4537.948717,4294.871794,4511.794871,4218.974358,4429.743589,4222.051282,4251.794871,4504.615384,4229.230769,4664.102564,4014.871794,4108.205128
74,4398.974358,4570.769230,4530.256410,4292.820512,4511.282051,4217.948717,4427.692307,4220.000000,4249.743589,4508.205128,4226.666666,4666.666666,4024.102564,4107.692307
75,4395.384615,4574.871794,4526.666666,4295.384615,4515.384615,4218.461538,4427.692307,4218.974358,4243.076923,4507.179487,4223.076923,4661.538461,4017.435897,4104.102564
76,4392.820512,4576.923076,4536.923076,4301.538461,4519.487179,4221.025641,4428.717948,4220.512820,4248.717948,4518.974358,4225.128205,4664.102564,4013.846153,4109.743589
77,4388.717948,4569.230769,4527.692307,4286.666666,4495.897435,4215.897435,4420.000000,4216.410256,4248.205128,4507.692307,4221.538461,4663.076923,4014.871794,4106.153846
78,4386.153846,4563.076923,4518.974358,4277.948717,4480.000000,4209.230769,4415.384615,4213.846153,4234.871794,4482.051282,4214.871794,4661.025641,4016.410256,4098.974358
79,4394.358974,4571.282051,4535.897435,4294.871794,4504.102564,4216.923076,4426.153846,4217.948717,4238.461538,4498.974358,4221.025641,4669.230769,4027.692307,4111.282051
80,4402.051282,4576.923076,4543.589743,4302.564102,4527.692307,4227.692307,4434.358974,4220.000000,4250.256410,4529.743589,4231.282051,4673.846153,4026.153846,4120.512820
81,4401.025641,4571.794871,4534.358974,4294.871794,4524.102564,4230.769230,4434.358974,4218.461538,4243.076923,4517.435897,4227.179487,4671.282051,4007.179487,4110.769230
82,4398.461538,4572.307692,4527.179487,4293.333333,4508.717948,4229.230769,4432.820512,4216.923076,4234.871794,4485.128205,4212.307692,4666.666666,4006.153846,4101.025641
83,4393.846153,4574.871794,4523.076923,4291.282051,4501.025641,4220.512820,4430.256410,4215.897435,4238.461538,4480.000000,4207.179487,4662.564102,4018.974358,4101.538461
84,4395.384615,4576.410256,4528.717948,4291.794871,4507.179487,4219.487179,4432.307692,4222.564102,4247.692307,4501.538461,4219.487179,4665.128205,4023.076923,4108.205128
85,4403.076923,4581.538461,4538.461538,4301.538461,4511.794871,4228.205128,4437.948717,4234.871794,4256.923076,4524.102564,4230.769230,4674.871794,4025.128205,4118.461538
86,4402.564102,4582.564102,4535.384615,4298.974358,4505.641025,4223.589743,4431.282051,4235.384615,4260.000000,4523.589743,4231.794871,4676.410256,4026.666666,4120.512820
87,4401.025641,4580.000000,4531.282051,4291.794871,4509.743589,4219.487179,4426.153846,4230.256410,4256.923076,4514.358974,4230.256410,4673.333333,4027.692307,4112.307692
88,4405.641025,4584.615384,4535.897435,4296.923076,4524.615384,4231.794871,4432.307692,4232.307692,4255.384615,4516.410256,4230.769230,4674.358974,4033.333333,4111.282051
89,4402.051282,4588.717948,4533.333333,4302.564102,4519.487179,4228.717948,4433.846153,4232.307692,4253.333333,4515.897435,4226.153846,4671.282051,4030.769230,4111.282051
90,4394.358974,4580.512820,4528.205128,4293.846153,4501.025641,4213.846153,4428.205128,4227.692307,4246.666666,4507.179487,4218.461538,4663.589743,4023.076923,4105.128205
91,4403.076923,4580.512820,4534.358974,4291.282051,4505.128205,4222.564102,4432.307692,4228.717948,4247.179487,4502.564102,4224.102564,4667.179487,4026.666666,4109.743589
92,4417.435897,4592.820512,4543.076923,4305.641025,4529.230769,4236.923076,4443.589743,4234.358974,4259.487179,4510.256410,4238.461538,4680.512820,4032.307692,4124.615384
93,4417.435897,4592.307692,4544.615384,4310.769230,4533.333333,4235.897435,4444.102564,4234.358974,4263.076923,4521.025641,4242.051282,4683.076923,4036.923076,4125.641025
94,4407.692307,4582.564102,4534.358974,4297.948717,4515.384615,4227.179487,4431.794871,4224.615384,4253.333333,4517.948717,4231.794871,4669.743589,4033.846153,4111.282051
95,4397.948717,4582.564102,4524.615384,4290.256410,4508.717948,4219.487179,4425.641025,4213.333333,4243.076923,4509.743589,4222.564102,4659.487179,4021.538461,4104.102564
96,4396.923076,4585.128205,4526.666666,4295.897435,4504.615384,4217.435897,4428.717948,4213.846153,4239.487179,4504.102564,4221.025641,4660.512820,4017.948717,4104.615384
97,4398.974358,4583.589743,4531.282051,4297.948717,4493.846153,4218.974358,4428.717948,4219.487179,4237.948717,4494.871794,4218.461538,4664.102564,4020.000000,4102.051282
98,4397.948717,4580.512820,4524.615384,4293.333333,4505.128205,4217.948717,4425.641025,4217.948717,4243.076923,4493.846153,4213.846153,4662.564102,4016.923076,4097.435897
99,4397.948717,4576.923076,4522.051282,4290.256410,4526.666666,4218.461538,4426.153846,4218.461538,4248.205128,4508.205128,4216.410256,4662.051282,4020.000000,4098.974358
100,4400.512820,4577.948717,4533.333333,4291.794871,4525.128205,4223.076923,4428.717948,4220.000000,4243.589743,4510.256410,4220.000000,4667.179487,4022.564102,4104.102564
101,4402.564102,4584.615384,4540.512820,4296.923076,4518.461538,4224.102564,4429.743589,4218.461538,4244.615384,4506.153846,4221.538461,4672.820512,4018.461538,4109.230769
102,4405.128205,4589.230769,4538.461538,4295.897435,4516.410256,4222.051282,4429.743589,4218.461538,4248.717948,4510.256410,4221.025641,4671.282051,4021.538461,4110.769230
103,4402.564102,4586.153846,4535.897435,4294.358974,4506.666666,4218.974358,4430.769230,4219.487179,4245.641025,4497.948717,4218.461538,4665.641025,4022.051282,4107.179487
104,4397.435897,4576.923076,4535.897435,4297.948717,4503.589743,4217.435897,4431.282051,4218.461538,4242.564102,4486.666666,4217.435897,4666.153846,4011.794871,4106.153846
105,4401.025641,4573.333333,4538.461538,4297.948717,4515.897435,4223.076923,4431.282051,4218.974358,4246.153846,4500.000000,4222.564102,4671.794871,4016.410256,4107.692307
106,4405.128205,4583.589743,4541.538461,4293.846153,4522.051282,4227.692307,4431.794871,4219.487179,4247.692307,4508.205128,4229.743589,4675.384615,4024.102564,4109.743589
107,4401.538461,4589.230769,4542.051282,4297.435897,4512.307692,4222.564102,4431.794871,4215.897435,4238.461538,4506.153846,4226.153846,4668.205128,4013.846153,4109.743589
108,4397.948717,4583.076923,4538.461538,4302.564102,4498.461538,4215.384615,4429.743589,4212.820512,4233.333333,4504.615384,4215.384615,4657.948717,4009.743589,4105.641025
109,4397.435897,4583.589743,4535.384615,4300.000000,4502.051282,4215.897435,4427.692307,4214.871794,4240.512820,4497.948717,4218.461538,4658.461538,4021.025641,4103.076923
110,4400.000000,4587.692307,4537.435897,4301.538461,4524.615384,4226.153846,4430.256410,4224.102564,4251.794871,4506.153846,4233.333333,4665.641025,4025.128205,4106.153846
111,4404.615384,4586.666666,4540.512820,4305.128205,4525.128205,4232.307692,4434.358974,4234.871794,4253.333333,4526.153846,4237.435897,4668.205128,4018.461538,4110.256410
112,4398.974358,4581.538461,4537.948717,4298.974358,4496.410256,4223.076923,4431.794871,4229.230769,4250.769230,4518.461538,4227.179487,4663.589743,4015.897435,4105.128205
113,4390.769230,4582.564102,4535.897435,4292.307692,4487.692307,4213.846153,4427.179487,4217.948717,4247.692307,4501.538461,4226.153846,4657.948717,4014.871794,4101.025641
114,4392.307692,4585.128205,4535.897435,4293.333333,4508.205128,4217.948717,4428.717948,4217.948717,4241.025641,4506.153846,4231.282051,4654.871794,4010.256410,4097.435897
115,4394.871794,4574.871794,4535.384615,4295.384615,4511.794871,4220.512820,4427.179487,4217.948717,4236.923076,4512.307692,4224.615384,4654.358974,4005.128205,4092.307692
116,4393.846153,4569.743589,4534.871794,4297.435897,4497.948717,4214.871794,4420.000000,4210.256410,4235.384615,4503.589743,4216.410256,4653.846153,4001.538461,4092.307692
117,4397.435897,4582.051282,4538.461538,4300.512820,4504.102564,4213.846153,4421.025641,4205.128205,4232.307692,4502.051282,4219.487179,4655.384615,4006.153846,4098.974358
118,4402.051282,4588.205128,4541.025641,4297.948717,4508.717948,4216.410256,4423.076923,4203.076923,4228.205128,4504.102564,4218.461538,4658.461538,4013.333333,4100.512820
119,4401.025641,4583.589743,4537.948717,4298.974358,4495.897435,4215.897435,4418.974358,4198.974358,4229.230769,4494.358974,4212.820512,4660.000000,4010.769230,4096.410256
120,4405.641025,4587.692307,4544.102564,4311.282051,4494.358974,4215.384615,4418.974358,4200.512820,4232.820512,4490.256410,4224.615384,4662.051282,4006.153846,4102.051282
121,4411.794871,4589.743589,4554.358974,4313.846153,4502.051282,4215.897435,4424.615384,4207.179487,4231.282051,4502.564102,4231.794871,4665.641025,4009.743589,4107.179487
122,4408.205128,4583.589743,4552.307692,4303.076923,4501.538461,4218.461538,4427.692307,4212.820512,4233.846153,4509.743589,4222.051282,4664.615384,4018.461538,4104.615384
123,4407.179487,4587.179487,4550.256410,4302.564102,4505.641025,4219.487179,4429.743589,4216.410256,4244.615384,4508.205128,4223.589743,4662.051282,4022.051282,4102.564102
124,4412.307692,4589.230769,4554.358974,4308.205128,4512.307692,4220.512820,4431.282051,4217.435897,4245.641025,4509.230769,4229.743589,4667.692307,4015.897435,4106.666666
125,4407.179487,4576.923076,4548.717948,4303.076923,4498.974358,4218.974358,4426.666666,4216.923076,4235.384615,4505.641025,4221.025641,4670.256410,4005.641025,4109.743589
126,4393.846153,4568.205128,4537.435897,4291.282051,4484.102564,4213.333333,4423.076923,4213.846153,4231.794871,4490.769230,4211.794871,4658.461538,4002.051282,4100.000000
127,4391.282051,4571.282051,4537.435897,4292.820512,4494.871794,4214.871794,4427.179487,4215.384615,4237.435897,4487.692307,4215.897435,4655.384615,4005.641025,4092.820512
128,4394.358974,4573.333333,4538.461538,4296.923076,4495.384615,4217.435897,4427.179487,4217.435897,4237.948717,4501.538461,4218.461538,4664.615384,4005.641025,4094.358974
129,4388.717948,4568.205128,4536.410256,4286.666666,4477.435897,4206.666666,4421.538461,4208.717948,4227.692307,4503.589743,4213.333333,4661.025641,3998.974359,4091.794871
130,4385.128205,4565.641025,4534.871794,4278.461538,4478.461538,4201.025641,4420.000000,4199.487179,4220.000000,4488.205128,4209.743589,4650.769230,3995.384616,4085.128205
131,4391.282051,4572.307692,4535.384615,4287.179487,4493.333333,4212.820512,4423.589743,4203.076923,4225.641025,4488.205128,4211.794871,4657.948717,3998.461539,4088.717948
132,4399.487179,4583.076923,4542.564102,4296.410256,4498.461538,4217.948717,4425.641025,4213.333333,4232.307692,4507.179487,4216.410256,4667.692307,4006.153846,4098.461538
133,4403.589743,4587.692307,4553.333333,4297.435897,4504.102564,4215.384615,4424.615384,4221.025641,4237.948717,4510.769230,4222.564102,4666.153846,4014.871794,4105.128205
134,4403.589743,4580.000000,4554.871794,4298.461538,4504.102564,4213.846153,4422.051282,4218.461538,4243.589743,4500.512820,4227.179487,4664.102564,4016.410256,4106.666666
135,4397.948717,4571.282051,4545.128205,4296.923076,4489.743589,4206.153846,4418.974358,4207.692307,4238.461538,4502.051282,4223.076923,4661.025641,4011.794871,4096.410256
136,4393.333333,4574.358974,4540.000000,4292.307692,4487.692307,4203.589743,4418.461538,4205.641025,4229.230769,4504.615384,4216.923076,4662.051282,4011.282051,4092.820512
137,4397.435897,4583.076923,4545.641025,4292.820512,4492.820512,4213.333333,4420.000000,4206.153846,4230.256410,4498.974358,4215.384615,4666.666666,4010.769230,4100.512820
138,4404.615384,4590.769230,4549.743589,4301.025641,4490.769230,4216.410256,4424.102564,4206.666666,4231.282051,4495.384615,4216.410256,4664.615384,4007.179487,4104.102564
139,4410.769230,4593.846153,4552.820512,4305.641025,4501.538461,4214.871794,4431.282051,4213.846153,4231.282051,4490.769230,4219.487179,4664.615384,4014.871794,4105.128205
140,4407.692307,4588.717948,4552.307692,4299.487179,4508.205128,4217.435897,4430.769230,4213.333333,4233.846153,4485.128205,4226.153846,4667.692307,4025.641025,4104.615384
141,4400.000000,4583.076923,4544.615384,4295.897435,4495.384615,4215.384615,4424.615384,4201.538461,4232.307692,4498.461538,4226.666666,4667.179487,4016.923076,4100.000000
142,4397.948717,4582.051282,4538.461538,4300.512820,4485.641025,4212.820512,4422.564102,4198.461538,4230.769230,4508.205128,4221.025641,4665.128205,4008.717948,4100.512820
143,4400.000000,4582.564102,4541.538461,4298.974358,4494.358974,4215.897435,4427.692307,4206.666666,4232.307692,4493.846153,4223.076923,4666.666666,4021.538461,4108.205128
144,4402.051282,4582.564102,4542.564102,4291.282051,4507.692307,4218.461538,4430.769230,4212.307692,4238.974358,4495.384615,4230.769230,4668.717948,4032.820512,4110.769230
145,4400.512820,4584.102564,4539.487179,4290.769230,4498.974358,4217.948717,4427.692307,4217.948717,4247.692307,4511.794871,4235.384615,4670.769230,4026.666666,4106.153846
146,4399.487179,4583.076923,4540.000000,4297.435897,4475.384615,4215.384615,4426.666666,4219.487179,4250.769230,4512.307692,4236.923076,4672.820512,4021.538461,4104.102564
147,4402.564102,4585.128205,4541.538461,4304.615384,4473.846153,4215.897435,4428.717948,4219.487179,4248.205128,4505.641025,4232.820512,4671.794871,4025.128205,4106.153846
148,4401.538461,4588.717948,4542.051282,4302.564102,4495.897435,4217.948717,4428.205128,4218.974358,4248.205128,4502.051282,4222.051282,4668.205128,4026.666666,4108.717948
149,4395.384615,4583.076923,4540.000000,4293.846153,4504.615384,4216.410256,4425.641025,4216.410256,4249.230769,4500.512820,4220.000000,4663.589743,4025.128205,4107.179487
150,4394.871794,4578.461538,4538.974358,4292.307692,4494.358974,4212.307692,4424.615384,4217.948717,4246.666666,4505.641025,4234.358974,4661.538461,4024.615384,4103.589743
151,4396.410256,4585.641025,4540.512820,4296.410256,4489.230769,4211.794871,4426.666666,4218.461538,4247.692307,4510.256410,4235.384615,4664.615384,4024.615384,4102.564102
152,4396.923076,4591.794871,4540.512820,4296.923076,4500.512820,4217.948717,4430.769230,4218.974358,4247.179487,4508.205128,4223.076923,4668.205128,4024.615384,4103.076923
153,4398.974358,4587.179487,4540.000000,4293.333333,4503.589743,4218.461538,4431.282051,4218.461538,4240.000000,4504.102564,4215.897435,4667.179487,4022.051282,4104.102564
154,4397.435897,4582.564102,4540.000000,4290.256410,4479.487179,4204.102564,4420.512820,4206.153846,4227.692307,4489.743589,4211.282051,4659.487179,4015.384615,4102.051282
155,4398.461538,4582.564102,4541.025641,4294.871794,4470.769230,4200.512820,4414.358974,4193.333333,4217.948717,4472.820512,4210.256410,4653.333333,4011.282051,4098.461538
156,4401.025641,4581.025641,4541.538461,4297.435897,4489.230769,4214.871794,4423.076923,4201.025641,4222.051282,4475.897435,4217.948717,4656.923076,4015.384615,4098.974358
157,4399.487179,4583.589743,4540.000000,4294.358974,4496.923076,4220.512820,4430.769230,4217.435897,4236.410256,4490.256410,4221.025641,4662.051282,4018.461538,4101.538461
158,4400.000000,4589.743589,4540.512820,4295.384615,4494.871794,4215.897435,4429.743589,4222.564102,4246.666666,4499.487179,4216.923076,4665.128205,4013.846153,4103.589743
159,4398.974358,4585.128205,4541.025641,4296.410256,4491.794871,4215.897435,4425.641025,4218.974358,4244.102564,4495.384615,4212.307692,4663.076923,4006.666666,4101.025641
160,4394.871794,4578.974358,4539.487179,4294.358974,4490.256410,4216.410256,4424.102564,4218.974358,4236.410256,4488.205128,4211.282051,4658.974358,4013.846153,4100.000000
161,4403.589743,4587.692307,4541.025641,4296.410256,4500.000000,4218.461538,4428.205128,4225.128205,4242.051282,4491.282051,4224.615384,4667.692307,4028.205128,4108.205128
162,4410.769230,4589.230769,4542.564102,4296.410256,4499.487179,4220.512820,4430.256410,4224.102564,4247.692307,4491.794871,4229.743589,4674.871794,4021.025641,4107.179487
163,4397.435897,4575.897435,4538.461538,4291.794871,4483.589743,4216.923076,4425.128205,4213.333333,4237.948717,4491.794871,4208.205128,4662.051282,4006.153846,4094.871794
164,4390.769230,4573.846153,4535.384615,4294.871794,4485.128205,4216.923076,4426.666666,4214.358974,4231.794871,4500.000000,4201.025641,4653.846153,4009.743589,4097.948717
165,4397.435897,4584.102564,4535.384615,4297.435897,4491.282051,4217.948717,4429.230769,4214.871794,4234.871794,4492.820512,4217.435897,4661.538461,4016.923076,4104.615384
166,4398.461538,4590.769230,4535.384615,4291.282051,4488.205128,4215.897435,4424.615384,4202.564102,4229.743589,4474.358974,4217.435897,4659.487179,4010.769230,4095.897435
167,4401.025641,4591.794871,4538.461538,4292.820512,4498.461538,4218.974358,4426.666666,4200.512820,4225.641025,4474.358974,4209.743589,4657.435897,4006.153846,4096.923076
168,4406.666666,4590.256410,4542.051282,4300.000000,4510.256410,4220.000000,4430.769230,4212.820512,4234.871794,4487.179487,4215.897435,4666.153846,4014.358974,4111.282051
169,4406.666666,4586.666666,4543.076923,4298.974358,4508.717948,4223.076923,4429.743589,4222.564102,4243.076923,4498.461538,4220.000000,4669.743589,4022.051282,4111.794871
170,4403.076923,4586.153846,4542.564102,4295.384615,4503.076923,4228.717948,4434.358974,4225.641025,4244.615384,4500.000000,4218.461538,4669.230769,4020.000000,4102.051282
171,4400.000000,4586.666666,4540.512820,4294.358974,4497.435897,4225.128205,4437.948717,4227.692307,4247.692307,4488.205128,4217.948717,4670.256410,4013.333333,4098.974358
172,4398.461538,4584.102564,4537.435897,4294.358974,4490.256410,4216.410256,4431.282051,4226.666666,4246.153846,4485.128205,4215.897435,4666.666666,4012.307692,4100.000000
173,4399.487179,4583.076923,4536.923076,4293.333333,4486.666666,4216.923076,4424.615384,4222.051282,4237.948717,4496.923076,4212.307692,4660.512820,4015.384615,4098.974358
174,4397.435897,4582.564102,4535.897435,4292.820512,4495.384615,4219.487179,4426.153846,4221.538461,4238.461538,4493.846153,4215.897435,4655.897435,4012.307692,4093.846153
175,4396.410256,4584.615384,4534.358974,4291.282051,4502.564102,4218.974358,4428.717948,4221.025641,4244.102564,4487.692307,4219.487179,4651.794871,4006.666666,4092.307692
176,4396.923076,4584.615384,4533.846153,4289.230769,4494.358974,4217.435897,4425.128205,4216.410256,4237.948717,4491.794871,4209.230769,4648.205128,4007.179487,4092.820512
177,4398.461538,4581.538461,4534.871794,4295.384615,4490.256410,4215.384615,4421.538461,4213.846153,4227.692307,4491.282051,4204.102564,4652.820512,4014.358974,4092.820512
178,4407.179487,4589.743589,4544.615384,4302.564102,4507.179487,4215.384615,4424.615384,4212.820512,4232.307692,4488.717948,4217.948717,4666.153846,4021.538461,4101.538461
179,4416.923076,4602.051282,4552.820512,4301.538461,4514.871794,4216.410256,4426.153846,4207.179487,4234.358974,4487.692307,4224.615384,4673.846153,4021.538461,4110.256410
180,4410.769230,4595.897435,4547.179487,4296.923076,4501.025641,4215.897435,4424.102564,4207.179487,4225.641025,4482.051282,4217.435897,4666.666666,4016.410256,4105.128205
181,4395.897435,4583.076923,4535.384615,4291.794871,4490.769230,4215.897435,4425.128205,4215.897435,4224.615384,4477.435897,4213.333333,4655.384615,4010.256410,4094.871794
182,4391.282051,4582.564102,4530.769230,4288.717948,4487.179487,4215.384615,4427.692307,4217.435897,4230.256410,4478.461538,4209.743589,4650.769230,4004.102564,4090.769230
183,4391.794871,4576.923076,4526.666666,4284.615384,4481.538461,4214.358974,4430.256410,4217.948717,4235.384615,4484.615384,4199.487179,4647.692307,4001.025641,4085.128205
184,4391.282051,4570.769230,4522.564102,4280.512820,4484.615384,4217.948717,4430.769230,4225.641025,4241.025641,4494.871794,4200.000000,4646.666666,4006.666666,4085.641025
185,4392.820512,4574.871794,4531.282051,4282.051282,4497.948717,4223.076923,4432.820512,4233.333333,4247.179487,4501.025641,4214.871794,4652.820512,4015.384615,4097.948717
186,4394.871794,4576.923076,4537.435897,4282.564102,4502.564102,4223.076923,4438.974358,4234.358974,4248.205128,4500.000000,4222.051282,4657.948717,4010.769230,4102.051282
187,4393.333333,4573.333333,4528.717948,4278.974358,4492.820512,4218.974358,4436.410256,4230.256410,4242.051282,4494.871794,4207.692307,4652.820512,4006.666666,4092.307692
188,4392.307692,4572.307692,4521.025641,4278.461538,4486.666666,4216.923076,4430.769230,4227.692307,4234.871794,4483.589743,4194.871794,4644.615384,4008.205128,4085.128205
189,4393.333333,4578.461538,4525.641025,4285.128205,4492.307692,4217.948717,4438.974358,4231.282051,4238.461538,4481.538461,4200.000000,4645.641025,4003.076923,4089.743589
190,4393.846153,4583.076923,4528.717948,4286.666666,4497.948717,4219.487179,4443.076923,4233.333333,4245.128205,4486.153846,4203.589743,4649.743589,3999.487180,4092.820512
191,4390.769230,4577.948717,4521.538461,4282.051282,4489.230769,4217.948717,4431.282051,4223.589743,4238.461538,4482.564102,4199.487179,4647.692307,4004.615384,4085.128205
192,4389.743589,4574.871794,4522.564102,4277.948717,4483.076923,4215.897435,4426.153846,4213.846153,4230.256410,4484.615384,4200.000000,4646.666666,4004.615384,4087.179487
193,4396.410256,4587.692307,4533.333333,4281.025641,4491.794871,4216.923076,4430.769230,4216.923076,4232.307692,4489.743589,4199.487179,4652.307692,4000.000000,4101.025641
194,4392.820512,4587.692307,4530.256410,4283.076923,4489.743589,4215.897435,4426.666666,4217.948717,4231.282051,4472.307692,4187.692307,4652.820512,3998.974359,4097.435897
195,4382.051282,4569.230769,4517.948717,4277.435897,4479.487179,4212.307692,4421.538461,4210.769230,4225.128205,4462.051282,4178.461538,4646.153846,3998.461539,4080.000000
196,4390.256410,4573.333333,4526.153846,4277.435897,4491.794871,4215.384615,4426.153846,4214.871794,4230.256410,4488.717948,4190.256410,4648.205128,4005.128205,4088.717948
197,4404.102564,4589.743589,4540.512820,4281.025641,4504.102564,4221.025641,4430.256410,4229.230769,4240.512820,4512.307692,4203.589743,4657.948717,4017.948717,4106.666666
198,4401.025641,4590.769230,4536.410256,4280.512820,4494.358974,4220.000000,4430.256410,4234.871794,4247.692307,4510.256410,4201.025641,4662.564102,4029.743589,4108.717948
199,4397.435897,4580.000000,4536.410256,4281.538461,4482.051282,4216.410256,4431.282051,4233.333333,4251.794871,4499.487179,4199.487179,4663.589743,4028.717948,4106.666666
200,4397.435897,4570.769230,4540.000000,4282.051282,4473.333333,4215.384615,4431.794871,4234.358974,4247.692307,4488.205128,4202.051282,4661.538461,4009.743589,4101.025641
201,4392.820512,4567.692307,4529.230769,4275.384615,4477.435897,4215.897435,4430.769230,4231.794871,4241.538461,4487.692307,4192.307692,4655.384615,4000.512820,4091.282051
202,4390.256410,4570.769230,4522.564102,4270.769230,4490.769230,4217.948717,4431.794871,4221.025641,4232.820512,4492.307692,4174.358974,4650.256410,4007.692307,4091.282051
203,4385.641025,4572.307692,4522.051282,4270.256410,4492.820512,4216.410256,4430.256410,4210.256410,4220.000000,4478.461538,4165.128205,4642.051282,3995.384616,4088.205128
204,4376.410256,4568.205128,4513.333333,4271.282051,4490.256410,4214.871794,4425.128205,4210.256410,4218.974358,4460.512820,4170.256410,4633.333333,3980.000000,4076.410256
205,4376.410256,4567.179487,4505.641025,4276.923076,4492.820512,4215.897435,4427.179487,4216.410256,4231.282051,4471.282051,4178.461538,4630.256410,3996.410257,4072.820512
206,4380.000000,4567.692307,4506.153846,4278.974358,4491.282051,4215.897435,4430.256410,4219.487179,4235.384615,4495.897435,4173.333333,4628.205128,4006.666666,4073.846153
207,4380.000000,4568.717948,4509.743589,4275.897435,4489.230769,4214.871794,4426.666666,4218.974358,4232.820512,4498.461538,4171.282051,4627.692307,3993.333334,4073.333333
208,4383.076923,4573.333333,4520.000000,4275.897435,4488.205128,4215.384615,4426.153846,4218.461538,4233.333333,4488.205128,4185.128205,4635.384615,3991.282052,4079.487179
209,4385.128205,4571.794871,4524.102564,4277.948717,4476.923076,4211.794871,4425.128205,4218.461538,4225.641025,4488.717948,4189.230769,4636.923076,3995.384616,4081.538461
210,4384.615384,4566.666666,4521.025641,4280.512820,4470.256410,4209.743589,4416.410256,4214.871794,4219.487179,4488.717948,4180.512820,4630.769230,3994.358975,4077.948717
211,4392.820512,4575.384615,4531.282051,4285.641025,4483.076923,4215.384615,4418.974358,4220.000000,4230.769230,4486.666666,4183.076923,4638.974358,4001.025641,4087.179487
212,4402.051282,4589.743589,4542.564102,4285.641025,4492.820512,4219.487179,4429.743589,4230.769230,4239.487179,4496.923076,4188.717948,4650.769230,4006.153846,4096.923076
213,4397.948717,4584.102564,4539.487179,4282.051282,4492.820512,4216.410256,4426.666666,4227.692307,4234.358974,4502.051282,4185.128205,4645.128205,3994.871795,4092.307692
214,4390.256410,4570.256410,4535.897435,4279.487179,4489.230769,4214.871794,4421.538461,4216.410256,4231.282051,4493.333333,4183.589743,4639.487179,3987.692308,4088.205128
215,4392.307692,4569.743589,4536.923076,4269.230769,4478.461538,4213.846153,4426.153846,4215.384615,4232.307692,4485.641025,4191.282051,4646.666666,3995.897436,4090.769230
216,4395.897435,4569.743589,4539.487179,4262.564102,4472.820512,4213.333333,4429.230769,4218.974358,4232.307692,4486.153846,4200.000000,4656.410256,4004.615384,4092.307692
217,4389.743589,4560.000000,4535.384615,4267.179487,4478.461538,4216.923076,4426.666666,4218.461538,4235.897435,4499.487179,4193.333333,4651.794871,3999.487180,4088.717948
218,4377.948717,4551.794871,4521.538461,4265.128205,4469.743589,4211.282051,4423.076923,4217.435897,4235.384615,4507.179487,4179.487179,4637.948717,3987.179488,4081.025641
219,4375.897435,4553.846153,4521.538461,4260.000000,4456.410256,4204.102564,4421.538461,4215.897435,4230.769230,4492.820512,4183.076923,4636.410256,3986.666667,4079.487179
220,4388.717948,4564.102564,4538.461538,4264.102564,4469.230769,4211.794871,4425.128205,4224.102564,4237.435897,4490.256410,4200.512820,4648.717948,4001.025641,4089.230769
221,4397.435897,4570.256410,4542.051282,4268.205128,4481.538461,4218.461538,4428.205128,4232.307692,4245.128205,4504.615384,4204.102564,4655.897435,4010.256410,4097.435897
222,4392.820512,4566.666666,4533.846153,4265.641025,4478.974358,4213.333333,4425.128205,4226.153846,4239.487179,4503.076923,4193.846153,4652.307692,4008.205128,4095.897435
223,4389.743589,4563.076923,4535.384615,4264.615384,4477.435897,4211.282051,4423.076923,4218.974358,4233.333333,4496.923076,4190.769230,4650.769230,4008.717948,4092.307692
224,4393.846153,4566.153846,4538.974358,4265.128205,4476.410256,4213.333333,4425.641025,4221.025641,4236.410256,4503.589743,4197.435897,4651.282051,4010.769230,4089.743589
225,4396.923076,4569.230769,4537.435897,4266.153846,4481.025641,4216.410256,4428.717948,4225.641025,4241.538461,4506.153846,4203.589743,4653.333333,4009.230769,4094.871794
226,4396.410256,4571.282051,4540.512820,4267.179487,4488.717948,4215.897435,4428.205128,4223.076923,4240.000000,4507.692307,4201.025641,4653.846153,4011.282051,4100.000000
227,4392.307692,4572.307692,4538.974358,4265.641025,4473.333333,4205.641025,4422.564102,4215.384615,4233.333333,4503.589743,4190.769230,4648.717948,4008.717948,4092.307692
228,4389.230769,4566.666666,4529.230769,4264.615384,4460.512820,4201.538461,4420.512820,4213.846153,4229.230769,4487.692307,4183.076923,4643.076923,3998.461539,4081.538461
229,4388.717948,4564.615384,4522.564102,4263.589743,4476.923076,4211.282051,4423.589743,4220.000000,4234.358974,4483.076923,4183.589743,4638.974358,3993.846154,4081.025641
230,4384.615384,4568.717948,4522.051282,4259.487179,4490.256410,4216.923076,4428.205128,4223.076923,4238.461538,4495.384615,4184.615384,4636.410256,3995.384616,4079.487179
231,4378.974358,4565.641025,4522.051282,4258.974358,4481.025641,4211.794871,4429.230769,4218.974358,4233.333333,4502.051282,4182.051282,4631.794871,3994.358975,4074.358974
232,4379.487179,4556.923076,4520.512820,4262.564102,4471.794871,4205.128205,4425.641025,4215.384615,4229.230769,4498.461538,4182.051282,4631.282051,3990.769231,4071.794871
233,4386.666666,4563.076923,4525.128205,4263.076923,4483.589743,4205.641025,4423.589743,4214.358974,4228.717948,4490.256410,4185.641025,4640.000000,3991.794872,4079.487179
234,4394.871794,4574.871794,4536.923076,4263.589743,4495.384615,4208.717948,4427.179487,4216.410256,4231.282051,4484.102564,4189.743589,4651.282051,4001.538461,4089.230769
235,4391.282051,4570.256410,4537.948717,4263.589743,4473.846153,4202.051282,4422.051282,4214.871794,4229.743589,4484.615384,4189.230769,4648.205128,4008.205128,4084.102564
236,4377.948717,4562.564102,4525.128205,4259.487179,4456.923076,4195.384615,4413.333333,4212.307692,4228.205128,4488.717948,4189.743589,4636.923076,4003.076923,4070.256410
237,4381.025641,4567.692307,4518.461538,4260.512820,4482.564102,4209.743589,4420.000000,4216.923076,4232.820512,4495.384615,4195.384615,4640.512820,4002.051282,4076.410256
238,4394.358974,4576.923076,4524.615384,4265.641025,4502.564102,4221.538461,4428.717948,4222.564102,4240.000000,4506.153846,4202.564102,4650.256410,4014.358974,4091.794871
239,4394.358974,4583.589743,4528.717948,4264.615384,4492.307692,4216.923076,4427.179487,4215.897435,4235.897435,4506.666666,4203.076923,4648.717948,4021.025641,4090.769230
240,4389.230769,4584.102564,4526.666666,4263.589743,4489.230769,4213.333333,4422.051282,4207.692307,4223.589743,4487.179487,4191.794871,4645.641025,4012.820512,4084.615384
241,4390.769230,4579.487179,4528.205128,4265.128205,4492.820512,4215.384615,4417.948717,4210.769230,4221.538461,4470.256410,4185.128205,4647.692307,4001.025641,4081.538461
242,4394.358974,4581.025641,4534.358974,4264.102564,4490.769230,4216.410256,4418.974358,4215.897435,4229.743589,4481.538461,4196.923076,4650.256410,4003.589743,4082.051282
243,4396.410256,4586.666666,4538.461538,4268.205128,4492.307692,4215.897435,4426.666666,4222.051282,4235.384615,4504.615384,4207.179487,4654.358974,4019.487179,4089.743589
244,4397.435897,4586.666666,4537.435897,4276.923076,4488.717948,4216.410256,4427.692307,4226.153846,4233.333333,4506.666666,4202.051282,4658.461538,4024.615384,4092.307692
245,4399.487179,4586.153846,4536.923076,4280.512820,4488.717948,4216.410256,4424.102564,4225.128205,4232.307692,4490.769230,4197.948717,4654.358974,4016.923076,4086.153846
246,4396.923076,4587.692307,4538.461538,4277.948717,4498.974358,4217.948717,4428.717948,4226.153846,4235.384615,4489.230769,4200.000000,4649.743589,4008.205128,4086.153846
247,4390.256410,4584.615384,4535.384615,4269.743589,4500.512820,4217.435897,4430.256410,4231.794871,4238.461538,4500.512820,4196.923076,4647.692307,4000.512820,4088.717948
248,4389.743589,4581.538461,4535.897435,4265.641025,4493.846153,4217.435897,4426.153846,4234.358974,4240.000000,4497.435897,4199.487179,4649.230769,4006.153846,4086.153846
249,4392.307692,4578.461538,4536.410256,4265.641025,4490.256410,4215.897435,4421.538461,4226.666666,4235.384615,4485.641025,4206.666666,4651.794871,4017.435897,4083.076923
250,4389.743589,4574.871794,4535.384615,4262.051282,4489.743589,4212.820512,4418.461538,4217.435897,4231.794871,4490.769230,4206.666666,4650.769230,4014.871794,4084.615384
251,4391.794871,4580.000000,4539.487179,4265.128205,4494.358974,4215.384615,4422.051282,4216.410256,4233.846153,4499.487179,4205.641025,4654.358974,4011.794871,4090.256410
252,4391.794871,4576.410256,4535.897435,4272.307692,4489.230769,4211.794871,4418.974358,4213.333333,4232.820512,4494.358974,4197.435897,4655.897435,4017.435897,4089.230769
253,4385.641025,4569.743589,4524.615384,4267.179487,4475.384615,4204.615384,4412.820512,4209.230769,4231.282051,4488.717948,4188.717948,4647.179487,4019.487179,4080.000000
254,4388.717948,4576.410256,4527.179487,4260.512820,4475.384615,4211.282051,4420.512820,4218.974358,4237.435897,4488.205128,4200.512820,4646.666666,4015.897435,4076.410256
255,4392.307692,4577.948717,4531.282051,4263.076923,4483.589743,4218.974358,4429.743589,4227.692307,4241.538461,4492.307692,4211.794871,4651.794871,4014.358974,4080.000000
