,AF3,F7,F3,FC5,T7,P7,O1,O2,P8,T8,FC6,F4,F8,AF4
0,4424.615384,4496.923076,4562.564102,4322.051282,4475.897435,4137.435897,4444.615384,4212.820512,4254.871794,4490.769230,4200.000000,4653.333333,4026.666666,4116.410256
1,4427.179487,4496.923076,4558.461538,4321.538461,4477.948717,4136.923076,4438.461538,4213.846153,4253.333333,4490.256410,4200.000000,4647.692307,4024.615384,4115.897435
2,4427.692307,4505.128205,4556.410256,4323.589743,4477.948717,4136.410256,4433.333333,4207.692307,4247.692307,4487.179487,4199.487179,4645.128205,4015.897435,4118.461538
3,4422.051282,4503.076923,4555.384615,4326.153846,4473.846153,4134.358974,4432.307692,4201.538461,4247.179487,4486.153846,4189.230769,4642.564102,4007.692307,4116.410256
4,4420.000000,4498.461538,4556.923076,4318.461538,4470.769230,4132.820512,4433.846153,4204.102564,4252.307692,4485.128205,4183.589743,4640.000000,4013.846153,4114.358974
5,4426.666666,4505.641025,4562.564102,4318.461538,4475.897435,4137.435897,4442.051282,4214.358974,4258.461538,4488.717948,4196.410256,4648.205128,4030.256410,4121.025641
6,4429.743589,4509.230769,4558.974358,4324.615384,4476.410256,4141.538461,4448.205128,4219.487179,4261.538461,4494.358974,4214.358974,4654.871794,4031.794871,4125.641025
7,4421.538461,4500.512820,4550.769230,4317.948717,4471.794871,4136.923076,4445.128205,4215.384615,4254.871794,4491.794871,4213.333333,4649.743589,4017.435897,4122.051282
8,4418.974358,4500.000000,4553.333333,4309.230769,4471.794871,4134.871794,4443.076923,4214.871794,4253.333333,4489.230769,4202.051282,4646.153846,4018.461538,4118.461538
9,4428.717948,4507.179487,4561.538461,4321.025641,4477.435897,4141.538461,4446.153846,4223.589743,4269.230769,4500.000000,4202.564102,4654.358974,4035.384615,4120.512820
10,4433.333333,4506.666666,4564.102564,4332.820512,4478.461538,4144.102564,4446.666666,4227.692307,4277.435897,4509.230769,4208.205128,4663.589743,4040.000000,4125.128205
11,4430.769230,4508.717948,4561.538461,4329.743589,4477.435897,4141.025641,4446.666666,4226.666666,4269.743589,4511.282051,4216.410256,4662.051282,4036.410256,4128.205128
12,4424.102564,4508.205128,4553.846153,4321.025641,4476.923076,4138.974358,4445.128205,4224.102564,4266.153846,4502.564102,4211.794871,4652.307692,4028.717948,4123.076923
13,4415.897435,4493.846153,4545.641025,4315.897435,4476.410256,4138.461538,4441.538461,4219.487179,4268.717948,4494.358974,4196.923076,4644.102564,4019.487179,4113.333333
14,4417.948717,4493.333333,4550.769230,4318.974358,4476.923076,4137.435897,4440.000000,4216.923076,4263.589743,4502.564102,4200.512820,4645.128205,4020.512820,4113.846153
15,4422.564102,4504.615384,4555.384615,4330.256410,4469.743589,4132.820512,4438.974358,4209.230769,4255.384615,4502.564102,4207.692307,4646.153846,4026.153846,4119.487179
16,4418.974358,4502.051282,4549.230769,4333.333333,4464.615384,4130.769230,4436.410256,4206.153846,4250.769230,4487.692307,4196.923076,4640.512820,4026.153846,4120.000000
17,4419.487179,4500.512820,4547.692307,4320.000000,4467.692307,4133.846153,4434.358974,4210.256410,4251.794871,4486.153846,4192.307692,4638.461538,4019.487179,4116.923076
18,4421.025641,4502.051282,4549.230769,4313.333333,4471.794871,4135.384615,4433.333333,4209.230769,4258.461538,4494.358974,4206.666666,4638.461538,4010.769230,4111.282051
19,4414.358974,4494.871794,4545.641025,4315.897435,4472.307692,4133.333333,4430.256410,4205.641025,4258.974358,4490.769230,4206.666666,4632.820512,4016.923076,4110.769230
20,4411.282051,4496.410256,4544.102564,4317.948717,4467.692307,4128.717948,4426.153846,4208.205128,4252.820512,4488.205128,4197.948717,4628.205128,4031.794871,4116.410256
21,4420.000000,4509.743589,4555.897435,4322.564102,4469.230769,4130.769230,4427.692307,4212.820512,4257.948717,4497.435897,4201.538461,4634.358974,4031.794871,4122.564102
22,4422.564102,4508.717948,4563.076923,4325.128205,4474.871794,4134.871794,4431.282051,4211.794871,4260.512820,4494.871794,4200.512820,4641.025641,4016.923076,4118.974358
23,4414.358974,4496.923076,4552.820512,4316.923076,4468.205128,4131.794871,4428.717948,4205.128205,4245.128205,4477.435897,4191.794871,4635.897435,4012.307692,4109.743589
24,4414.871794,4497.948717,4548.717948,4311.794871,4463.076923,4129.743589,4432.820512,4201.538461,4242.564102,4474.871794,4193.333333,4627.692307,4018.461538,4111.794871
25,4420.512820,4502.051282,4557.948717,4320.512820,4474.358974,4137.948717,4443.076923,4211.794871,4260.512820,4491.794871,4203.076923,4629.230769,4025.128205,4116.410256
26,4416.923076,4497.948717,4557.435897,4328.205128,4478.974358,4140.512820,4444.102564,4218.974358,4265.641025,4496.410256,4203.076923,4633.846153,4023.589743,4114.358974
27,4415.897435,4501.025641,4550.256410,4321.538461,4472.820512,4135.384615,4443.076923,4214.358974,4256.923076,4491.282051,4197.948717,4632.307692,4018.461538,4114.871794
28,4417.435897,4505.128205,4547.692307,4310.256410,4471.282051,4136.410256,4445.641025,4212.820512,4252.820512,4490.769230,4194.871794,4626.666666,4016.410256,4119.487179
29,4408.717948,4494.358974,4543.589743,4308.717948,4466.153846,4133.846153,4440.000000,4206.153846,4246.153846,4481.025641,4193.333333,4623.076923,4011.282051,4110.769230
30,4402.051282,4485.128205,4541.025641,4313.333333,4457.948717,4126.666666,4430.256410,4195.384615,4237.948717,4469.743589,4196.410256,4623.076923,4008.205128,4097.948717
31,4404.102564,4486.153846,4543.076923,4309.743589,4462.564102,4124.615384,4432.307692,4197.948717,4240.512820,4475.897435,4195.384615,4622.564102,4006.153846,4096.923076
32,4402.564102,4482.564102,4541.025641,4304.102564,4468.717948,4126.666666,4431.282051,4202.051282,4246.153846,4485.128205,4186.666666,4622.051282,4002.051282,4101.025641
33,4404.102564,4486.666666,4542.051282,4305.128205,4468.205128,4131.282051,4429.230769,4200.512820,4247.179487,4484.102564,4184.615384,4623.076923,4006.666666,4104.102564
34,4410.769230,4504.615384,4546.153846,4310.769230,4469.230769,4135.897435,4438.461538,4207.179487,4248.205128,4486.666666,4195.384615,4624.102564,4021.025641,4105.128205
35,4410.769230,4506.153846,4547.692307,4318.974358,4474.358974,4139.487179,4448.205128,4217.948717,4254.358974,4492.820512,4202.051282,4626.153846,4022.564102,4106.153846
36,4406.666666,4494.871794,4545.128205,4323.589743,4476.410256,4141.025641,4444.615384,4215.384615,4255.384615,4488.205128,4194.358974,4622.051282,4004.102564,4105.641025
37,4405.641025,4497.948717,4543.076923,4318.461538,4475.384615,4139.487179,4438.461538,4202.564102,4244.615384,4479.487179,4189.230769,4614.871794,3997.435898,4101.025641
38,4410.256410,4501.538461,4545.641025,4312.820512,4475.897435,4136.923076,4441.025641,4198.974358,4241.025641,4480.000000,4197.435897,4616.923076,4007.179487,4102.564102
39,4415.897435,4497.948717,4548.717948,4318.461538,4475.897435,4137.948717,4442.564102,4208.205128,4248.717948,4488.205128,4205.641025,4621.538461,4010.256410,4106.153846
40,4413.333333,4500.000000,4549.743589,4321.538461,4473.333333,4136.410256,4438.461538,4211.282051,4250.769230,4489.743589,4198.974358,4619.487179,4009.230769,4107.692307
41,4409.230769,4500.000000,4544.615384,4311.794871,4472.307692,4127.692307,4431.794871,4203.589743,4243.589743,4481.538461,4186.666666,4613.846153,4012.307692,4107.179487
42,4407.179487,4490.769230,4539.487179,4305.128205,4471.282051,4125.128205,4426.153846,4198.461538,4237.948717,4476.410256,4183.589743,4612.307692,4005.128205,4102.051282
43,4409.230769,4491.282051,4541.025641,4309.743589,4465.641025,4129.230769,4430.769230,4200.512820,4242.051282,4485.641025,4196.410256,4616.410256,3996.410257,4100.512820
44,4413.333333,4498.974358,4544.102564,4314.358974,4464.615384,4132.307692,4441.025641,4205.641025,4250.256410,4494.358974,4205.641025,4621.538461,4003.589743,4105.641025
45,4411.794871,4496.923076,4544.615384,4316.923076,4467.692307,4133.846153,4444.102564,4206.153846,4252.820512,4490.769230,4196.410256,4620.512820,4017.948717,4107.692307
46,4411.282051,4494.358974,4545.128205,4317.948717,4466.666666,4134.871794,4441.025641,4204.615384,4250.769230,4489.743589,4193.333333,4621.025641,4026.153846,4107.692307
47,4413.846153,4497.948717,4544.615384,4310.769230,4467.692307,4134.358974,4444.102564,4207.179487,4248.717948,4490.256410,4205.128205,4623.589743,4015.897435,4108.717948
48,4411.794871,4498.461538,4542.051282,4306.666666,4469.230769,4132.820512,4444.102564,4206.153846,4246.666666,4491.282051,4202.564102,4616.410256,3996.923077,4104.102564
49,4408.717948,4496.410256,4543.076923,4311.282051,4468.205128,4133.333333,4440.000000,4205.128205,4247.179487,4492.307692,4185.128205,4609.230769,4003.076923,4101.538461
50,4407.692307,4498.974358,4544.615384,4313.846153,4469.230769,4132.820512,4440.512820,4209.230769,4245.641025,4489.230769,4182.051282,4609.230769,4025.641025,4104.615384
51,4409.743589,4502.564102,4544.102564,4317.948717,4475.384615,4135.384615,4442.564102,4208.717948,4245.128205,4485.641025,4196.410256,4610.256410,4022.564102,4102.051282
52,4421.025641,4506.153846,4550.256410,4326.153846,4480.512820,4145.128205,4444.615384,4210.256410,4257.948717,4492.307692,4210.769230,4618.974358,4009.230769,4108.717948
53,4425.641025,4509.743589,4554.871794,4327.179487,4481.025641,4149.230769,4447.179487,4215.897435,4263.589743,4498.974358,4212.307692,4628.205128,4016.410256,4120.512820
54,4415.384615,4500.000000,4550.256410,4320.512820,4476.923076,4139.487179,4446.666666,4212.820512,4252.307692,4495.384615,4204.102564,4622.564102,4024.102564,4114.358974
55,4414.871794,4488.205128,4551.282051,4320.000000,4473.846153,4138.461538,4443.589743,4207.692307,4251.794871,4490.256410,4197.948717,4618.461538,4016.923076,4106.666666
56,4429.230769,4501.538461,4562.564102,4327.179487,4478.974358,4148.717948,4448.717948,4217.435897,4261.025641,4490.769230,4202.051282,4630.256410,4012.820512,4116.410256
57,4431.282051,4515.897435,4563.076923,4330.769230,4481.025641,4151.282051,4455.384615,4222.564102,4261.025641,4497.948717,4208.717948,4632.820512,4022.051282,4125.641025
58,4425.128205,4508.717948,4553.333333,4324.615384,4476.923076,4144.102564,4451.282051,4215.897435,4256.410256,4500.512820,4199.487179,4621.538461,4027.692307,4119.487179
59,4424.102564,4504.102564,4553.333333,4322.564102,4476.923076,4143.076923,4446.666666,4214.871794,4252.307692,4493.846153,4188.717948,4623.076923,4025.641025,4109.230769
60,4424.615384,4509.230769,4561.025641,4330.769230,4478.974358,4144.102564,4445.641025,4215.897435,4250.256410,4490.256410,4195.897435,4635.384615,4022.051282,4111.282051
61,4425.128205,4501.025641,4562.051282,4330.769230,4477.948717,4139.487179,4443.589743,4208.205128,4250.769230,4487.692307,4202.564102,4641.538461,4020.000000,4117.435897
62,4425.128205,4494.871794,4557.948717,4320.000000,4475.897435,4140.000000,4448.205128,4204.615384,4252.820512,4485.641025,4196.923076,4641.538461,4024.102564,4115.384615
63,4425.128205,4502.051282,4559.487179,4315.897435,4476.410256,4145.641025,4457.948717,4218.461538,4255.384615,4489.743589,4191.282051,4644.615384,4026.153846,4110.769230
64,4425.128205,4500.000000,4563.589743,4321.025641,4477.435897,4149.743589,4458.461538,4230.769230,4262.564102,4498.461538,4193.846153,4653.333333,4025.128205,4111.794871
65,4429.230769,4494.871794,4566.153846,4329.230769,4477.435897,4150.256410,4457.948717,4229.743589,4269.743589,4504.615384,4200.000000,4664.615384,4034.871794,4115.384615
66,4436.410256,4503.589743,4566.153846,4333.846153,4475.897435,4154.358974,4466.153846,4231.282051,4268.205128,4504.615384,4206.153846,4670.256410,4040.000000,4123.589743
67,4435.384615,4515.897435,4564.102564,4330.769230,4479.487179,4157.435897,4468.205128,4234.358974,4266.153846,4502.564102,4210.769230,4670.256410,4028.717948,4128.205128
68,4428.717948,4513.846153,4563.589743,4324.615384,4483.589743,4154.871794,4463.589743,4231.282051,4271.794871,4506.666666,4212.307692,4670.256410,4028.205128,4120.512820
69,4429.230769,4506.666666,4565.128205,4319.487179,4481.538461,4154.871794,4466.666666,4229.230769,4274.871794,4506.666666,4208.205128,4671.794871,4048.205128,4120.512820
70,4431.282051,4505.641025,4565.641025,4320.512820,4484.102564,4156.410256,4468.717948,4234.358974,4272.820512,4502.051282,4201.538461,4670.256410,4051.794871,4128.205128
71,4426.666666,4502.564102,4561.025641,4324.102564,4485.128205,4153.846153,4460.000000,4232.820512,4267.692307,4495.897435,4198.461538,4665.128205,4030.256410,4121.538461
72,4424.615384,4499.487179,4557.948717,4326.666666,4479.487179,4149.230769,4456.923076,4225.641025,4261.025641,4494.358974,4197.948717,4662.564102,4022.051282,4112.307692
73,4429.230769,4505.128205,4562.051282,4331.282051,4485.128205,4152.307692,4463.076923,4229.230769,4264.102564,4498.461538,4207.692307,4669.743589,4034.871794,4117.948717
74,4429.230769,4506.153846,4565.641025,4329.743589,4492.820512,4155.897435,4463.076923,4230.256410,4272.820512,4502.051282,4211.282051,4673.846153,4042.564102,4124.102564
75,4424.615384,4498.461538,4563.076923,4321.025641,4479.487179,4150.769230,4456.923076,4223.589743,4269.230769,4498.974358,4193.846153,4668.717948,4034.358974,4121.538461
76,4424.615384,4496.923076,4561.025641,4317.435897,4469.743589,4145.641025,4457.948717,4221.538461,4261.025641,4499.487179,4190.256410,4668.717948,4030.769230,4120.000000
77,4422.564102,4498.461538,4560.512820,4318.461538,4476.923076,4142.564102,4452.820512,4222.051282,4256.923076,4498.974358,4203.589743,4671.282051,4025.641025,4112.307692
78,4417.948717,4489.230769,4557.948717,4318.461538,4473.333333,4138.461538,4443.589743,4216.410256,4254.358974,4489.743589,4204.615384,4670.256410,4017.435897,4106.666666
79,4423.076923,4484.102564,4562.051282,4322.051282,4469.230769,4137.435897,4448.205128,4215.384615,4256.923076,4486.666666,4196.923076,4675.897435,4027.179487,4116.410256
80,4431.794871,4491.794871,4567.692307,4325.128205,4476.410256,4143.076923,4454.871794,4225.128205,4262.564102,4492.820512,4198.974358,4682.051282,4033.333333,4122.564102
81,4429.743589,4502.564102,4565.641025,4328.205128,4477.435897,4146.153846,4452.307692,4230.769230,4268.205128,4500.000000,4205.128205,4683.076923,4024.615384,4117.435897
82,4427.179487,4505.128205,4560.512820,4329.743589,4473.333333,4146.666666,4453.333333,4230.769230,4273.846153,4504.102564,4206.666666,4684.102564,4028.717948,4116.923076
83,4430.769230,4494.358974,4561.538461,4325.128205,4475.897435,4146.153846,4454.871794,4225.128205,4266.153846,4496.923076,4204.102564,4681.025641,4035.384615,4120.000000
84,4424.615384,4484.102564,4559.487179,4324.615384,4474.358974,4143.076923,4445.641025,4220.000000,4251.282051,4486.153846,4197.948717,4672.820512,4024.615384,4115.897435
85,4414.871794,4482.051282,4550.256410,4320.000000,4465.641025,4137.948717,4438.974358,4215.384615,4247.692307,4484.615384,4185.641025,4666.153846,4016.923076,4105.641025
86,4415.897435,4484.615384,4548.205128,4308.717948,4466.153846,4136.923076,4444.102564,4212.820512,4251.794871,4483.589743,4183.076923,4666.153846,4012.307692,4100.000000
87,4421.025641,4489.743589,4555.384615,4314.358974,4473.846153,4141.025641,4449.230769,4215.384615,4253.846153,4483.076923,4199.487179,4669.230769,4005.128205,4105.128205
88,4424.615384,4496.923076,4560.000000,4330.769230,4474.871794,4145.641025,4447.692307,4215.384615,4253.846153,4487.179487,4205.128205,4670.769230,4017.435897,4116.410256
89,4427.692307,4499.487179,4563.076923,4333.846153,4474.871794,4146.153846,4450.769230,4214.871794,4250.769230,4489.230769,4193.333333,4675.384615,4034.871794,4118.461538
90,4427.179487,4496.410256,4564.102564,4326.666666,4476.923076,4144.102564,4455.384615,4216.923076,4249.230769,4492.307692,4191.794871,4678.974358,4029.743589,4112.307692
91,4423.076923,4495.384615,4560.512820,4321.538461,4475.384615,4142.051282,4454.871794,4216.923076,4255.384615,4495.384615,4194.358974,4673.333333,4016.410256,4109.230769
92,4426.153846,4502.051282,4560.000000,4326.666666,4472.820512,4142.564102,4454.871794,4216.923076,4261.538461,4491.282051,4193.333333,4671.282051,4018.974358,4112.820512
93,4430.769230,4508.205128,4563.589743,4337.948717,4480.512820,4145.641025,4453.333333,4223.589743,4260.000000,4493.333333,4205.641025,4677.435897,4025.641025,4119.487179
94,4428.717948,4503.076923,4563.589743,4340.512820,4483.589743,4147.179487,4448.717948,4226.666666,4260.512820,4501.025641,4213.846153,4675.384615,4022.564102,4116.410256
95,4425.128205,4495.897435,4561.538461,4336.410256,4480.512820,4148.205128,4451.282051,4220.512820,4264.615384,4499.487179,4204.615384,4667.692307,4024.615384,4111.794871
96,4423.076923,4496.923076,4561.025641,4332.820512,4483.589743,4148.717948,4454.358974,4220.512820,4267.179487,4498.974358,4201.025641,4666.666666,4032.307692,4115.384615
97,4425.128205,4502.051282,4561.025641,4331.282051,4483.589743,4147.179487,4450.769230,4230.769230,4265.641025,4503.076923,4203.589743,4669.230769,4027.179487,4120.512820
98,4429.230769,4498.974358,4562.051282,4335.384615,4476.923076,4145.641025,4454.358974,4233.846153,4262.564102,4497.435897,4202.051282,4673.333333,4017.435897,4117.948717
99,4429.743589,4497.948717,4563.076923,4337.948717,4475.384615,4147.179487,4459.487179,4230.256410,4266.153846,4496.923076,4204.102564,4672.307692,4025.128205,4115.384615
100,4430.256410,4508.205128,4563.589743,4338.461538,4480.000000,4153.846153,4458.974358,4233.846153,4274.871794,4508.717948,4216.410256,4668.205128,4034.358974,4123.589743
101,4429.743589,4507.692307,4561.025641,4339.487179,4481.025641,4153.333333,4455.897435,4234.871794,4274.871794,4510.769230,4217.948717,4667.692307,4037.435897,4124.615384
102,4427.692307,4498.974358,4558.974358,4332.820512,4476.923076,4143.589743,4451.794871,4229.230769,4265.128205,4501.538461,4200.000000,4666.153846,4036.410256,4120.000000
103,4430.769230,4504.102564,4561.538461,4330.769230,4480.000000,4143.589743,4450.256410,4232.307692,4266.666666,4508.717948,4197.435897,4665.128205,4028.205128,4121.025641
104,4429.230769,4506.666666,4563.076923,4341.538461,4483.076923,4149.743589,4449.743589,4237.435897,4275.384615,4515.384615,4208.717948,4668.717948,4024.615384,4120.000000
105,4428.205128,4501.538461,4564.102564,4345.128205,4479.487179,4147.179487,4446.153846,4235.384615,4271.794871,4503.076923,4206.153846,4670.769230,4032.820512,4121.538461
106,4438.974358,4504.615384,4566.153846,4343.076923,4481.538461,4144.102564,4446.666666,4231.794871,4263.076923,4496.410256,4208.205128,4668.717948,4032.820512,4127.692307
107,4438.974358,4506.666666,4564.615384,4340.000000,4487.179487,4151.282051,4450.769230,4225.128205,4260.512820,4505.641025,4212.307692,4669.743589,4022.051282,4125.641025
108,4427.692307,4500.512820,4561.538461,4329.230769,4481.538461,4153.846153,4454.358974,4221.025641,4263.076923,4504.102564,4197.435897,4669.230769,4022.564102,4117.948717
109,4433.846153,4503.076923,4566.153846,4333.846153,4477.435897,4149.743589,4458.974358,4232.307692,4264.615384,4497.948717,4197.435897,4668.717948,4035.897435,4124.102564
110,4443.076923,4506.153846,4571.794871,4349.743589,4482.051282,4152.820512,4460.000000,4243.589743,4270.256410,4509.230769,4222.564102,4673.333333,4041.538461,4131.794871
111,4431.794871,4500.000000,4569.230769,4347.179487,4476.923076,4153.846153,4453.333333,4236.923076,4273.846153,4515.384615,4222.564102,4672.307692,4031.794871,4126.153846
112,4423.076923,4499.487179,4565.128205,4336.923076,4472.307692,4146.666666,4446.666666,4225.128205,4268.205128,4501.025641,4207.692307,4666.666666,4028.205128,4117.435897
113,4430.256410,4502.051282,4563.589743,4335.897435,4476.923076,4146.153846,4447.179487,4227.692307,4264.102564,4494.358974,4207.692307,4663.076923,4031.794871,4117.948717
114,4428.205128,4500.512820,4560.000000,4332.820512,4474.871794,4148.717948,4449.230769,4230.256410,4262.564102,4497.435897,4202.051282,4658.461538,4020.000000,4117.948717
115,4417.435897,4494.358974,4560.512820,4326.666666,4471.794871,4142.564102,4445.641025,4222.051282,4256.923076,4493.333333,4194.358974,4654.871794,4005.641025,4109.743589
116,4418.974358,4488.205128,4565.128205,4330.256410,4474.871794,4141.538461,4443.076923,4220.000000,4257.435897,4492.307692,4207.179487,4658.974358,4014.358974,4108.717948
117,4428.205128,4489.230769,4569.230769,4342.051282,4476.410256,4150.256410,4451.794871,4228.717948,4264.102564,4498.974358,4216.923076,4665.128205,4030.769230,4120.000000
118,4425.641025,4499.487179,4568.717948,4341.538461,4476.410256,4152.307692,4455.897435,4230.769230,4262.564102,4497.435897,4205.641025,4663.076923,4031.282051,4121.025641
119,4422.051282,4506.153846,4567.692307,4331.794871,4478.974358,4149.230769,4451.282051,4226.666666,4266.153846,4497.435897,4202.564102,4660.000000,4021.025641,4115.897435
120,4426.666666,4501.025641,4567.179487,4334.871794,4478.974358,4147.179487,4451.282051,4225.641025,4272.820512,4499.487179,4212.820512,4658.974358,4015.384615,4117.435897
121,4428.205128,4497.435897,4566.666666,4341.025641,4476.923076,4146.666666,4452.307692,4223.589743,4263.589743,4494.871794,4214.358974,4656.923076,4022.564102,4117.435897
122,4425.128205,4496.410256,4568.717948,4341.538461,4477.948717,4146.153846,4450.256410,4228.205128,4262.051282,4493.846153,4208.205128,4655.384615,4036.923076,4117.948717
123,4424.102564,4494.358974,4566.666666,4341.025641,4478.461538,4146.666666,4451.794871,4235.897435,4275.897435,4502.564102,4208.717948,4653.846153,4037.948717,4122.564102
124,4422.564102,4497.435897,4560.512820,4333.846153,4475.384615,4147.179487,4454.358974,4232.820512,4273.846153,4502.051282,4210.769230,4651.794871,4021.538461,4116.923076
125,4420.000000,4501.538461,4560.000000,4328.205128,4473.846153,4147.179487,4454.358974,4230.256410,4261.538461,4493.333333,4204.615384,4651.794871,4013.333333,4109.743589
126,4422.564102,4499.487179,4566.666666,4333.333333,4475.897435,4143.589743,4452.307692,4233.333333,4266.153846,4498.461538,4205.641025,4653.333333,4024.102564,4117.948717
127,4430.256410,4502.051282,4574.358974,4337.948717,4477.435897,4146.666666,4451.794871,4231.282051,4275.384615,4510.769230,4218.974358,4655.384615,4039.487179,4129.743589
128,4432.820512,4510.256410,4576.410256,4338.461538,4478.974358,4153.846153,4452.820512,4233.333333,4279.487179,4514.871794,4227.179487,4658.974358,4040.512820,4126.666666
129,4432.307692,4509.230769,4576.410256,4338.461538,4484.102564,4153.846153,4457.435897,4243.076923,4284.615384,4514.871794,4223.076923,4661.025641,4034.358974,4125.128205
130,4434.871794,4505.128205,4577.435897,4336.923076,4485.128205,4152.820512,4457.948717,4244.102564,4282.051282,4515.897435,4214.358974,4661.025641,4037.435897,4131.794871
131,4435.384615,4503.076923,4577.948717,4341.538461,4477.948717,4151.794871,4455.897435,4234.358974,4275.384615,4511.794871,4210.769230,4659.487179,4044.615384,4129.743589
132,4427.692307,4499.487179,4575.384615,4345.641025,4474.358974,4144.102564,4455.897435,4230.769230,4273.846153,4507.179487,4212.820512,4655.897435,4042.564102,4122.564102
133,4425.641025,4504.102564,4572.307692,4342.564102,4476.410256,4143.076923,4455.897435,4234.358974,4274.871794,4511.282051,4218.974358,4652.820512,4029.230769,4123.589743
134,4429.230769,4508.205128,4571.794871,4337.948717,4476.410256,4149.230769,4458.461538,4232.820512,4272.820512,4509.743589,4220.512820,4650.256410,4025.641025,4124.102564
135,4427.179487,4505.641025,4572.307692,4334.358974,4475.384615,4151.794871,4458.461538,4230.256410,4265.641025,4500.000000,4213.333333,4648.717948,4036.923076,4123.589743
136,4427.692307,4505.641025,4574.871794,4340.512820,4477.435897,4150.769230,4456.923076,4230.769230,4263.076923,4501.538461,4208.205128,4651.282051,4037.948717,4126.666666
137,4428.717948,4506.153846,4575.897435,4348.205128,4481.538461,4151.794871,4457.435897,4231.794871,4267.179487,4504.102564,4213.333333,4653.333333,4023.076923,4123.589743
138,4425.641025,4504.615384,4572.820512,4343.589743,4482.051282,4154.358974,4457.948717,4232.820512,4269.743589,4496.410256,4215.384615,4650.256410,4015.384615,4118.461538
139,4427.179487,4509.230769,4570.256410,4341.025641,4482.051282,4154.871794,4458.974358,4234.358974,4263.589743,4495.897435,4211.282051,4650.256410,4024.615384,4121.538461
140,4429.743589,4513.846153,4569.230769,4338.461538,4483.076923,4153.846153,4460.512820,4230.769230,4259.487179,4503.076923,4208.205128,4652.307692,4034.358974,4124.615384
141,4425.641025,4511.282051,4565.641025,4328.717948,4481.025641,4152.307692,4457.435897,4222.564102,4264.615384,4498.461538,4204.615384,4645.128205,4030.256410,4121.025641
142,4423.589743,4507.692307,4561.538461,4337.435897,4481.538461,4151.282051,4450.769230,4222.051282,4265.641025,4494.358974,4204.615384,4641.025641,4016.410256,4115.384615
143,4427.692307,4506.666666,4568.205128,4353.333333,4488.717948,4153.846153,4450.256410,4230.769230,4265.641025,4506.666666,4209.743589,4648.205128,4018.461538,4117.435897
144,4432.307692,4512.820512,4577.435897,4351.282051,4493.846153,4157.948717,4456.410256,4233.846153,4270.769230,4509.743589,4211.282051,4655.897435,4037.435897,4129.743589
145,4436.923076,4522.051282,4576.923076,4345.641025,4488.205128,4157.948717,4460.512820,4230.256410,4275.384615,4504.102564,4211.794871,4655.897435,4042.564102,4135.897435
146,4434.358974,4518.974358,4572.820512,4344.615384,4483.076923,4153.846153,4454.358974,4230.769230,4271.794871,4508.717948,4218.461538,4652.820512,4030.769230,4127.692307
147,4427.179487,4506.666666,4572.307692,4339.487179,4480.000000,4151.282051,4444.102564,4229.743589,4264.102564,4506.666666,4221.025641,4652.307692,4026.153846,4120.512820
148,4426.153846,4501.025641,4573.333333,4337.435897,4475.897435,4148.205128,4446.666666,4226.666666,4260.512820,4502.051282,4218.461538,4653.333333,4030.769230,4120.512820
149,4429.743589,4501.538461,4575.384615,4344.102564,4474.871794,4147.179487,4455.897435,4230.769230,4265.641025,4508.205128,4218.974358,4654.871794,4030.769230,4127.179487
150,4431.794871,4503.076923,4581.025641,4345.641025,4476.923076,4147.179487,4454.358974,4235.897435,4271.282051,4506.666666,4214.358974,4656.410256,4028.717948,4131.794871
151,4430.256410,4503.589743,4579.487179,4332.307692,4476.923076,4141.538461,4445.128205,4229.743589,4265.128205,4495.897435,4204.615384,4651.282051,4023.589743,4123.076923
152,4425.128205,4500.512820,4572.307692,4323.589743,4472.820512,4136.923076,4441.538461,4222.051282,4256.923076,4494.358974,4202.564102,4642.051282,4014.871794,4112.820512
153,4424.615384,4501.025641,4574.358974,4335.897435,4472.820512,4139.487179,4446.666666,4226.153846,4257.948717,4496.923076,4210.769230,4644.102564,4016.923076,4120.000000
154,4432.307692,4506.153846,4580.000000,4346.153846,4477.435897,4147.179487,4453.846153,4233.333333,4264.102564,4494.871794,4216.923076,4650.256410,4028.205128,4129.743589
155,4436.923076,4508.717948,4579.487179,4344.615384,4478.974358,4152.307692,4460.000000,4234.358974,4268.205128,4501.538461,4224.102564,4649.743589,4029.230769,4125.128205
156,4432.307692,4506.153846,4574.871794,4340.000000,4476.923076,4147.179487,4456.923076,4230.769230,4267.179487,4507.692307,4229.743589,4647.692307,4024.615384,4122.564102
157,4425.641025,4494.358974,4568.717948,4331.282051,4474.358974,4140.512820,4446.153846,4226.153846,4266.153846,4500.512820,4214.358974,4643.076923,4024.615384,4122.564102
158,4425.641025,4486.666666,4570.769230,4332.820512,4473.846153,4146.153846,4445.641025,4226.153846,4268.717948,4497.435897,4195.384615,4639.487179,4023.589743,4119.487179
159,4433.333333,4505.641025,4577.948717,4346.153846,4477.435897,4156.410256,4460.000000,4232.307692,4271.794871,4508.205128,4207.692307,4644.102564,4026.666666,4124.615384
160,4433.333333,4523.589743,4573.846153,4346.153846,4480.512820,4152.307692,4461.025641,4233.846153,4271.794871,4509.743589,4224.615384,4648.205128,4027.692307,4125.128205
161,4422.051282,4507.692307,4562.564102,4329.230769,4478.974358,4140.000000,4443.589743,4223.589743,4262.564102,4494.871794,4220.000000,4638.974358,4012.307692,4109.743589
162,4420.000000,4490.256410,4564.102564,4323.589743,4475.384615,4141.025641,4440.000000,4213.846153,4255.384615,4489.743589,4216.410256,4631.794871,4011.282051,4108.717948
163,4427.179487,4497.435897,4574.358974,4333.846153,4475.897435,4147.179487,4451.794871,4214.358974,4257.948717,4495.897435,4211.794871,4635.384615,4025.641025,4122.051282
164,4424.102564,4503.076923,4572.307692,4338.974358,4476.410256,4142.564102,4452.307692,4219.487179,4260.512820,4497.948717,4201.538461,4637.948717,4020.512820,4116.410256
165,4414.871794,4494.358974,4564.102564,4332.820512,4475.897435,4139.487179,4444.615384,4216.410256,4257.435897,4495.897435,4202.051282,4634.358974,4001.025641,4103.076923
166,4411.794871,4485.641025,4562.564102,4324.102564,4474.871794,4145.128205,4442.564102,4206.666666,4251.282051,4489.230769,4207.692307,4629.230769,3998.461539,4101.538461
167,4408.205128,4483.076923,4561.025641,4320.000000,4472.307692,4142.564102,4443.076923,4205.641025,4246.666666,4481.538461,4202.051282,4628.205128,4010.769230,4103.076923
168,4412.307692,4487.179487,4561.025641,4326.153846,4471.794871,4134.358974,4444.102564,4213.333333,4248.717948,4483.076923,4196.923076,4632.820512,4010.769230,4104.102564
169,4426.666666,4492.820512,4569.230769,4335.384615,4475.384615,4141.025641,4447.179487,4218.974358,4261.025641,4495.384615,4202.051282,4640.512820,4009.743589,4109.230769
170,4430.769230,4490.769230,4573.333333,4338.461538,4475.384615,4151.282051,4448.205128,4223.589743,4271.794871,4503.589743,4209.230769,4641.025641,4018.974358,4115.897435
171,4425.128205,4488.205128,4570.256410,4336.410256,4473.846153,4148.717948,4451.794871,4223.076923,4268.205128,4502.564102,4217.948717,4637.435897,4026.153846,4120.512820
172,4425.128205,4497.435897,4571.794871,4333.333333,4476.923076,4145.641025,4456.410256,4218.974358,4261.538461,4500.512820,4218.974358,4636.923076,4021.025641,4119.487179
173,4427.179487,4499.487179,4576.923076,4333.333333,4478.461538,4150.769230,4453.333333,4222.564102,4265.641025,4503.076923,4213.333333,4640.512820,4016.410256,4117.435897
174,4431.794871,4492.820512,4580.512820,4341.025641,4476.923076,4156.410256,4451.282051,4232.307692,4273.333333,4510.256410,4216.410256,4644.615384,4022.564102,4123.076923
175,4436.410256,4495.384615,4582.564102,4344.102564,4480.000000,4154.358974,4457.948717,4233.846153,4273.333333,4509.743589,4220.512820,4645.128205,4027.692307,4128.205128
176,4431.794871,4498.974358,4581.025641,4342.564102,4479.487179,4152.307692,4462.051282,4232.307692,4274.358974,4501.538461,4217.435897,4643.076923,4024.615384,4124.102564
177,4428.205128,4495.897435,4580.000000,4343.076923,4477.435897,4152.820512,4455.897435,4233.846153,4273.846153,4500.000000,4218.974358,4640.000000,4016.923076,4116.410256
178,4432.307692,4495.897435,4579.487179,4343.076923,4480.512820,4152.307692,4447.692307,4229.743589,4264.615384,4503.076923,4221.025641,4635.897435,4012.307692,4115.384615
179,4430.256410,4491.794871,4573.333333,4341.025641,4481.025641,4146.666666,4445.128205,4222.051282,4258.461538,4497.948717,4210.769230,4633.846153,4012.307692,4117.435897
180,4422.564102,4482.564102,4567.692307,4343.076923,4474.871794,4145.128205,4446.666666,4217.948717,4258.974358,4489.230769,4198.461538,4631.794871,4009.230769,4110.256410
181,4420.000000,4485.128205,4567.692307,4343.589743,4474.358974,4147.179487,4447.692307,4218.461538,4260.000000,4488.205128,4199.487179,4626.666666,4006.153846,4103.589743
182,4418.461538,4494.358974,4567.179487,4341.025641,4477.948717,4146.666666,4449.743589,4218.974358,4261.025641,4493.333333,4204.615384,4624.615384,4007.692307,4104.615384
183,4418.461538,4490.769230,4566.666666,4338.461538,4477.435897,4148.717948,4452.820512,4222.051282,4264.102564,4496.410256,4203.076923,4627.692307,4010.256410,4107.692307
184,4417.435897,4481.538461,4563.589743,4338.461538,4476.923076,4150.769230,4449.743589,4220.000000,4262.564102,4491.282051,4200.000000,4624.615384,4007.692307,4105.128205
185,4414.358974,4482.564102,4554.871794,4335.897435,4477.435897,4144.102564,4444.102564,4213.846153,4252.820512,4484.102564,4194.358974,4614.871794,4003.076923,4102.564102
186,4413.846153,4484.615384,4551.282051,4330.256410,4473.846153,4136.923076,4443.076923,4212.307692,4249.743589,4486.153846,4194.358974,4613.333333,4004.102564,4101.538461
187,4417.435897,4481.025641,4556.410256,4333.846153,4473.846153,4138.974358,4442.051282,4215.897435,4258.974358,4494.358974,4209.743589,4622.051282,4011.282051,4102.051282
188,4423.076923,4482.051282,4562.051282,4340.000000,4476.923076,4145.128205,4443.589743,4222.051282,4269.230769,4501.538461,4222.051282,4629.230769,4020.512820,4106.666666
189,4424.615384,4485.128205,4565.128205,4338.974358,4476.923076,4151.282051,4454.358974,4225.128205,4271.282051,4505.128205,4213.846153,4629.230769,4024.102564,4109.230769
190,4422.564102,4481.538461,4567.692307,4341.538461,4480.000000,4152.820512,4458.974358,4220.000000,4267.179487,4500.000000,4200.512820,4628.717948,4013.333333,4105.641025
191,4420.000000,4481.025641,4571.794871,4345.641025,4484.615384,4150.769230,4452.307692,4216.410256,4260.512820,4489.743589,4197.948717,4631.282051,4003.589743,4102.051282
192,4418.974358,4484.102564,4573.333333,4341.538461,4480.512820,4152.307692,4454.358974,4220.512820,4258.974358,4488.717948,4200.000000,4634.358974,4015.897435,4106.666666
193,4417.435897,4482.564102,4570.256410,4337.948717,4476.410256,4151.794871,4458.461538,4220.512820,4259.487179,4492.307692,4201.025641,4637.435897,4023.076923,4109.230769
194,4415.384615,4481.538461,4567.179487,4337.948717,4475.897435,4145.641025,4453.846153,4215.384615,4258.974358,4487.179487,4196.410256,4646.153846,4006.666666,4102.564102
195,4418.461538,4478.974358,4567.692307,4333.333333,4476.410256,4146.153846,4453.333333,4218.461538,4262.564102,4483.589743,4194.871794,4654.871794,4000.512820,4098.461538
196,4420.512820,4470.256410,4565.641025,4331.282051,4480.000000,4149.230769,4454.358974,4221.025641,4261.538461,4485.641025,4194.871794,4655.897435,4007.692307,4096.923076
197,4417.435897,4467.692307,4562.564102,4334.358974,4482.564102,4144.615384,4447.179487,4219.487179,4257.948717,4486.666666,4187.692307,4656.410256,4003.076923,4096.410256
198,4417.435897,4480.000000,4569.743589,4339.487179,4481.538461,4143.076923,4445.641025,4222.564102,4261.538461,4486.153846,4191.794871,4666.666666,4006.666666,4102.051282
199,4424.615384,4487.179487,4576.923076,4336.923076,4477.948717,4145.128205,4447.692307,4223.076923,4262.051282,4488.205128,4208.205128,4674.871794,4020.000000,4105.128205
200,4427.179487,4479.487179,4576.410256,4331.794871,4474.871794,4144.102564,4443.589743,4222.051282,4258.974358,4493.846153,4209.230769,4671.794871,4015.384615,4103.589743
201,4427.692307,4477.948717,4576.923076,4339.487179,4472.820512,4146.153846,4448.205128,4227.179487,4264.615384,4496.410256,4195.897435,4673.846153,4013.333333,4112.307692
202,4431.282051,4487.179487,4577.948717,4346.666666,4476.410256,4153.333333,4458.974358,4233.333333,4271.794871,4498.974358,4198.974358,4681.538461,4025.641025,4121.538461
203,4431.794871,4488.205128,4576.410256,4348.717948,4482.051282,4154.358974,4457.948717,4236.923076,4271.794871,4505.128205,4213.846153,4685.128205,4029.230769,4117.435897
204,4431.794871,4485.128205,4576.410256,4349.743589,4487.179487,4151.794871,4450.769230,4238.461538,4272.307692,4508.205128,4217.948717,4688.205128,4029.230769,4116.923076
205,4434.358974,4485.641025,4581.025641,4346.153846,4491.794871,4154.358974,4447.179487,4235.897435,4274.871794,4505.641025,4217.435897,4691.794871,4038.461538,4124.615384
206,4434.358974,4487.179487,4581.025641,4345.128205,4486.153846,4150.769230,4447.179487,4230.769230,4273.846153,4508.205128,4217.948717,4688.205128,4038.974358,4126.666666
207,4431.282051,4488.205128,4575.897435,4347.692307,4475.897435,4143.589743,4446.153846,4230.769230,4272.820512,4507.692307,4214.358974,4681.538461,4026.666666,4118.461538
208,4424.102564,4478.461538,4568.717948,4340.000000,4472.307692,4137.948717,4443.076923,4227.692307,4265.641025,4493.846153,4211.282051,4677.435897,4021.538461,4107.692307
209,4421.025641,4469.743589,4568.205128,4337.435897,4475.897435,4137.948717,4441.025641,4225.641025,4258.974358,4492.307692,4214.358974,4678.974358,4027.692307,4107.692307
210,4428.205128,4477.948717,4574.358974,4347.179487,4477.435897,4141.538461,4443.589743,4230.769230,4264.102564,4506.153846,4210.256410,4681.025641,4030.256410,4115.384615
211,4429.743589,4480.512820,4575.384615,4342.564102,4476.410256,4141.025641,4445.128205,4232.820512,4270.769230,4501.025641,4202.564102,4677.435897,4019.487179,4112.820512
212,4425.641025,4475.384615,4572.820512,4332.307692,4477.435897,4137.435897,4443.076923,4228.717948,4268.205128,4488.717948,4209.230769,4675.384615,4013.333333,4102.564102
213,4429.743589,4483.589743,4575.897435,4341.025641,4476.923076,4142.051282,4444.102564,4229.230769,4267.692307,4498.461538,4219.487179,4680.000000,4025.128205,4107.692307
214,4431.282051,4490.769230,4580.512820,4352.820512,4477.948717,4151.282051,4447.179487,4232.820512,4271.794871,4506.153846,4217.948717,4684.102564,4041.025641,4120.000000
215,4427.179487,4482.564102,4577.435897,4347.179487,4478.974358,4147.179487,4445.128205,4226.153846,4268.717948,4496.923076,4208.205128,4681.538461,4035.897435,4115.897435
216,4424.615384,4477.948717,4570.769230,4336.410256,4474.871794,4136.923076,4442.051282,4214.358974,4260.512820,4491.282051,4200.000000,4675.897435,4018.461538,4105.641025
217,4427.692307,4484.102564,4574.358974,4340.512820,4474.358974,4139.487179,4445.128205,4215.897435,4261.538461,4493.846153,4205.641025,4677.435897,4021.538461,4106.666666
218,4429.743589,4490.256410,4577.948717,4349.743589,4478.974358,4148.205128,4448.205128,4220.512820,4258.974358,4490.769230,4213.846153,4678.974358,4031.282051,4113.333333
219,4426.153846,4488.205128,4569.230769,4346.153846,4477.948717,4145.641025,4444.102564,4214.358974,4250.256410,4484.615384,4201.025641,4671.794871,4019.487179,4108.205128
220,4425.641025,4481.538461,4562.564102,4337.948717,4474.871794,4140.512820,4442.564102,4212.307692,4259.487179,4491.282051,4198.461538,4670.256410,4013.333333,4105.128205
221,4428.205128,4481.538461,4566.666666,4337.435897,4473.846153,4140.512820,4444.102564,4220.512820,4269.230769,4494.871794,4211.282051,4676.410256,4025.641025,4112.820512
222,4426.153846,4482.051282,4567.692307,4338.974358,4472.307692,4139.487179,4444.615384,4219.487179,4261.025641,4489.743589,4207.179487,4674.871794,4025.641025,4113.846153
223,4425.641025,4479.487179,4563.076923,4336.923076,4472.820512,4143.076923,4446.666666,4219.487179,4260.000000,4492.307692,4204.102564,4671.282051,4017.948717,4109.743589
224,4429.743589,4482.051282,4564.102564,4334.358974,4474.358974,4146.666666,4447.692307,4226.666666,4266.153846,4494.358974,4217.435897,4674.358974,4024.615384,4113.846153
225,4427.179487,4484.102564,4565.128205,4333.846153,4471.794871,4141.538461,4443.589743,4223.589743,4256.410256,4483.076923,4211.794871,4674.358974,4028.205128,4115.384615
226,4426.153846,4481.025641,4565.641025,4336.923076,4470.769230,4135.897435,4442.051282,4215.384615,4253.846153,4486.666666,4202.564102,4671.794871,4018.974358,4110.769230
227,4433.846153,4481.538461,4571.282051,4344.615384,4475.384615,4139.487179,4444.102564,4215.384615,4261.538461,4501.025641,4211.282051,4676.410256,4017.948717,4115.384615
228,4434.871794,4484.615384,4575.384615,4350.769230,4476.923076,4140.512820,4443.076923,4217.435897,4263.589743,4500.000000,4212.307692,4680.000000,4029.743589,4124.615384
229,4433.333333,4484.102564,4576.410256,4349.230769,4473.333333,4138.974358,4442.051282,4220.512820,4268.717948,4500.512820,4206.666666,4677.948717,4032.820512,4124.102564
230,4430.256410,4481.538461,4571.794871,4341.538461,4473.846153,4139.487179,4442.564102,4222.564102,4265.641025,4498.461538,4208.717948,4673.846153,4025.641025,4113.333333
231,4424.102564,4477.435897,4563.589743,4336.410256,4474.871794,4137.948717,4443.076923,4218.974358,4251.794871,4486.153846,4207.692307,4669.743589,4024.102564,4107.692307
232,4423.076923,4474.358974,4561.025641,4332.820512,4468.205128,4135.384615,4443.589743,4214.871794,4252.307692,4483.076923,4200.512820,4666.153846,4017.435897,4110.256410
233,4425.641025,4475.384615,4567.692307,4333.846153,4464.102564,4137.435897,4443.076923,4216.410256,4257.948717,4489.230769,4200.000000,4668.717948,4009.743589,4111.794871
234,4426.153846,4480.512820,4574.358974,4341.025641,4472.307692,4144.615384,4445.128205,4221.538461,4255.897435,4490.256410,4210.256410,4676.410256,4019.487179,4112.820512
235,4427.179487,4483.076923,4575.384615,4344.102564,4479.487179,4147.692307,4451.282051,4225.128205,4261.025641,4490.256410,4213.333333,4676.923076,4030.256410,4115.897435
236,4431.794871,4483.076923,4578.461538,4344.102564,4478.461538,4150.256410,4455.897435,4223.589743,4270.769230,4495.384615,4211.794871,4675.897435,4026.666666,4122.051282
237,4432.820512,4484.102564,4577.435897,4342.564102,4476.923076,4150.769230,4452.307692,4219.487179,4264.615384,4495.384615,4212.307692,4675.897435,4019.487179,4121.025641
238,4425.128205,4480.000000,4568.717948,4340.512820,4476.410256,4143.589743,4445.641025,4217.435897,4253.846153,4487.179487,4198.461538,4669.230769,4015.897435,4109.230769
239,4420.512820,4471.794871,4564.102564,4338.461538,4474.871794,4141.538461,4445.641025,4217.948717,4255.897435,4482.564102,4193.333333,4663.076923,4013.846153,4102.564102
240,4420.000000,4473.333333,4567.179487,4339.487179,4476.410256,4143.076923,4449.230769,4218.461538,4261.025641,4486.666666,4211.794871,4663.589743,4010.769230,4106.666666
241,4417.435897,4477.948717,4565.641025,4340.512820,4474.871794,4141.538461,4446.153846,4218.974358,4261.538461,4487.179487,4212.820512,4663.589743,4008.205128,4108.717948
242,4419.487179,4475.897435,4564.615384,4337.948717,4472.820512,4142.051282,4443.589743,4221.025641,4258.974358,4485.128205,4200.000000,4662.051282,4010.769230,4108.717948
243,4422.051282,4472.820512,4567.179487,4332.820512,4474.871794,4144.102564,4445.128205,4222.051282,4256.923076,4490.256410,4205.128205,4658.974358,4014.358974,4107.692307
244,4413.333333,4470.256410,4562.051282,4330.256410,4474.871794,4139.487179,4443.076923,4217.435897,4255.897435,4491.794871,4203.589743,4652.820512,4018.461538,4101.025641
245,4413.846153,4468.717948,4560.512820,4336.410256,4472.307692,4138.974358,4441.538461,4217.435897,4259.487179,4489.230769,4200.512820,4654.358974,4017.948717,4103.589743
246,4426.153846,4480.000000,4568.717948,4340.000000,4473.333333,4144.615384,4445.128205,4222.051282,4267.692307,4495.897435,4216.923076,4663.076923,4013.846153,4114.871794
247,4426.153846,4487.692307,4570.256410,4335.384615,4474.871794,4144.102564,4446.153846,4219.487179,4263.589743,4498.974358,4221.538461,4661.538461,4015.384615,4111.282051
248,4421.538461,4481.538461,4565.128205,4333.846153,4472.307692,4142.051282,4443.589743,4215.897435,4252.820512,4493.333333,4210.256410,4656.923076,4022.051282,4103.589743
249,4427.692307,4481.538461,4567.179487,4336.410256,4472.820512,4141.538461,4444.102564,4218.974358,4255.384615,4491.794871,4209.230769,4660.512820,4025.641025,4111.794871
250,4428.717948,4485.641025,4569.230769,4335.897435,4476.410256,4137.948717,4443.076923,4216.923076,4261.538461,4493.333333,4217.435897,4663.589743,4024.102564,4118.461538
251,4424.615384,4484.615384,4564.615384,4336.923076,4475.897435,4138.461538,4442.051282,4214.871794,4262.051282,4492.820512,4215.384615,4657.948717,4016.410256,4111.794871
252,4424.615384,4485.128205,4568.205128,4338.974358,4474.358974,4142.051282,4444.615384,4221.538461,4268.205128,4493.846153,4205.641025,4654.871794,4013.333333,4111.282051
253,4425.641025,4487.692307,4573.846153,4336.923076,4477.435897,4141.538461,4446.666666,4225.641025,4271.794871,4494.871794,4208.205128,4657.435897,4020.512820,4117.948717
254,4428.717948,4487.692307,4570.256410,4338.461538,4477.435897,4142.051282,4446.153846,4226.153846,4264.615384,4494.871794,4218.974358,4658.461538,4024.102564,4121.025641
255,4428.205128,4487.179487,4565.641025,4341.538461,4472.820512,4144.102564,4444.102564,4224.102564,4257.948717,4490.256410,4214.871794,4655.384615,4018.461538,4115.384615
256,4424.102564,4485.128205,4568.205128,4338.461538,4471.794871,4143.076923,4443.076923,4218.974358,4252.820512,4481.025641,4205.128205,4654.358974,4015.384615,4109.743589
257,4422.564102,4474.871794,4569.743589,4333.333333,4474.358974,4137.435897,4444.615384,4214.358974,4251.282051,4480.000000,4209.743589,4656.410256,4014.871794,4112.307692
258,4423.589743,4470.769230,4567.692307,4331.794871,4471.794871,4135.897435,4444.615384,4211.282051,4256.410256,4488.717948,4214.871794,4656.410256,4011.794871,4113.333333
259,4423.076923,4480.512820,4569.743589,4334.358974,4472.307692,4142.564102,4441.538461,4210.769230,4256.410256,4489.230769,4209.743589,4656.410256,4013.333333,4112.820512
260,4423.589743,4485.641025,4573.333333,4334.871794,4481.025641,4148.717948,4449.743589,4214.871794,4255.897435,4487.692307,4202.051282,4655.897435,4015.897435,4113.333333
261,4427.692307,4482.051282,4574.871794,4335.897435,4483.076923,4146.666666,4461.538461,4223.076923,4265.128205,4494.358974,4206.666666,4654.358974,4014.358974,4113.333333
262,4428.717948,4483.076923,4574.358974,4338.974358,4476.923076,4140.000000,4453.846153,4226.153846,4264.102564,4493.846153,4213.846153,4653.333333,4010.256410,4113.846153
263,4427.179487,4489.230769,4576.410256,4335.897435,4470.256410,4141.538461,4446.666666,4231.794871,4258.974358,4489.743589,4217.435897,4655.384615,4012.307692,4118.974358
