,AF3,F7,F3,FC5,T7,P7,O1,O2,P8,T8,FC6,F4,F8,AF4
0,4436.923076,4552.820512,4535.384615,4300.512820,4512.820512,4215.384615,4449.743589,4246.153846,4248.717948,4538.974358,4242.051282,4668.717948,4004.615384,4109.743589
1,4424.102564,4545.641025,4526.153846,4290.769230,4497.435897,4204.615384,4445.641025,4240.000000,4248.717948,4520.000000,4225.641025,4656.923076,3994.358975,4093.333333
2,4409.230769,4537.435897,4517.435897,4275.897435,4500.512820,4197.435897,4442.051282,4232.307692,4242.564102,4503.076923,4207.692307,4646.153846,3981.025642,4077.435897
3,4408.205128,4536.410256,4513.333333,4278.974358,4487.692307,4200.512820,4443.589743,4230.256410,4233.333333,4503.076923,4209.743589,4646.153846,3976.410257,4081.025641
4,4414.871794,4536.410256,4516.410256,4283.076923,4480.000000,4198.974358,4443.076923,4234.871794,4236.923076,4505.128205,4224.102564,4647.692307,3984.102565,4090.256410
5,4420.000000,4536.923076,4520.000000,4274.871794,4511.282051,4198.461538,4444.102564,4244.102564,4248.717948,4506.153846,4232.307692,4654.871794,3996.410257,4093.846153
6,4428.205128,4538.461538,4521.025641,4281.025641,4517.948717,4203.076923,4445.641025,4246.666666,4250.769230,4520.512820,4234.871794,4664.615384,4000.512820,4096.923076
7,4429.230769,4543.589743,4522.564102,4294.358974,4484.102564,4201.538461,4444.615384,4238.461538,4247.692307,4543.076923,4230.769230,4660.512820,3995.384616,4094.358974
8,4421.025641,4545.641025,4522.051282,4289.743589,4487.179487,4199.487179,4443.076923,4231.794871,4245.641025,4536.923076,4221.025641,4653.333333,3992.307693,4088.205128
9,4417.435897,4538.974358,4518.461538,4283.076923,4510.769230,4200.000000,4442.051282,4233.846153,4241.538461,4498.974358,4220.512820,4655.897435,3995.384616,4085.128205
10,4423.589743,4542.051282,4523.589743,4287.179487,4501.025641,4198.974358,4442.051282,4239.487179,4244.615384,4487.692307,4231.282051,4660.000000,4002.564102,4086.153846
11,4428.717948,4554.358974,4531.282051,4292.307692,4501.538461,4205.641025,4444.615384,4244.615384,4251.282051,4521.538461,4234.871794,4660.000000,4004.615384,4089.230769
12,4429.230769,4557.435897,4530.769230,4295.384615,4527.692307,4216.923076,4450.256410,4245.128205,4251.282051,4544.102564,4232.307692,4663.589743,4004.102564,4095.384615
13,4427.179487,4556.410256,4533.846153,4295.384615,4518.974358,4210.769230,4449.230769,4244.615384,4248.205128,4531.794871,4234.358974,4668.205128,4004.615384,4096.410256
14,4426.153846,4558.974358,4536.410256,4294.358974,4490.769230,4200.512820,4442.051282,4244.615384,4247.179487,4521.538461,4234.871794,4668.717948,4003.076923,4095.897435
15,4436.410256,4555.897435,4537.948717,4304.102564,4507.692307,4209.743589,4447.179487,4246.153846,4252.820512,4525.128205,4242.564102,4674.871794,4011.794871,4104.102564
16,4450.256410,4553.333333,4545.128205,4314.358974,4532.307692,4223.589743,4460.512820,4255.897435,4264.102564,4528.717948,4255.384615,4684.615384,4024.615384,4112.307692
17,4446.666666,4560.000000,4546.153846,4309.230769,4520.512820,4223.076923,4462.564102,4262.564102,4265.641025,4536.410256,4251.282051,4683.076923,4023.076923,4110.769230
18,4440.512820,4570.256410,4538.974358,4304.615384,4521.538461,4221.538461,4458.974358,4256.410256,4262.564102,4545.128205,4246.666666,4676.410256,4017.948717,4109.230769
19,4445.128205,4573.333333,4536.923076,4307.692307,4532.307692,4224.615384,4461.025641,4250.769230,4264.102564,4540.512820,4247.692307,4673.846153,4012.820512,4109.743589
20,4443.589743,4566.666666,4537.948717,4309.230769,4510.256410,4221.025641,4459.487179,4248.205128,4261.538461,4528.717948,4237.948717,4671.282051,4004.102564,4107.692307
21,4444.102564,4566.153846,4543.589743,4311.282051,4505.641025,4220.512820,4455.897435,4251.282051,4261.025641,4523.589743,4237.435897,4673.333333,4008.205128,4112.820512
22,4449.743589,4570.769230,4554.358974,4312.820512,4531.794871,4225.641025,4459.487179,4260.000000,4266.666666,4526.153846,4251.282051,4682.051282,4024.102564,4121.538461
23,4438.974358,4561.025641,4548.205128,4303.589743,4530.256410,4222.564102,4457.948717,4259.487179,4263.589743,4534.871794,4251.282051,4680.512820,4022.051282,4114.358974
24,4431.282051,4550.256410,4538.461538,4298.461538,4518.461538,4214.358974,4447.692307,4248.717948,4257.435897,4541.025641,4246.153846,4674.358974,4009.230769,4105.641025
25,4437.435897,4552.820512,4541.538461,4303.076923,4523.589743,4213.333333,4444.102564,4242.564102,4255.384615,4536.410256,4243.589743,4673.333333,4005.128205,4108.717948
26,4432.820512,4555.384615,4541.538461,4298.461538,4514.871794,4216.410256,4445.641025,4236.923076,4249.230769,4525.128205,4232.820512,4673.333333,3998.461539,4104.102564
27,4426.666666,4553.333333,4536.410256,4291.282051,4499.487179,4214.358974,4445.128205,4232.820512,4244.615384,4512.307692,4226.666666,4671.282051,3992.820513,4097.948717
28,4429.743589,4553.333333,4537.948717,4296.923076,4504.615384,4211.794871,4445.128205,4234.871794,4245.641025,4500.000000,4233.333333,4669.743589,3999.487180,4102.564102
29,4430.256410,4552.820512,4539.487179,4306.666666,4512.820512,4212.820512,4446.666666,4240.512820,4247.179487,4509.743589,4236.410256,4673.333333,4006.666666,4105.128205
30,4433.846153,4551.282051,4542.051282,4308.717948,4514.358974,4215.897435,4446.153846,4245.128205,4251.794871,4534.871794,4240.512820,4681.025641,4003.076923,4104.102564
31,4441.025641,4553.333333,4545.128205,4300.512820,4514.358974,4216.410256,4444.102564,4240.000000,4253.846153,4530.256410,4245.641025,4680.512820,4001.538461,4106.666666
32,4432.820512,4554.871794,4541.538461,4291.794871,4510.769230,4214.358974,4443.076923,4231.794871,4248.205128,4507.692307,4242.564102,4672.820512,4007.692307,4107.179487
33,4424.615384,4550.256410,4539.487179,4294.871794,4507.179487,4210.769230,4442.564102,4234.358974,4244.102564,4514.358974,4234.358974,4669.743589,4004.102564,4101.538461
34,4427.179487,4544.615384,4540.000000,4297.435897,4502.051282,4206.666666,4444.102564,4244.102564,4250.769230,4533.846153,4234.871794,4671.282051,3993.333334,4095.384615
35,4427.692307,4547.692307,4538.974358,4293.846153,4502.564102,4210.769230,4444.102564,4247.179487,4256.410256,4523.589743,4241.025641,4673.846153,3993.846154,4094.871794
36,4432.307692,4554.871794,4542.564102,4296.923076,4512.307692,4219.487179,4445.128205,4249.230769,4252.820512,4509.230769,4241.538461,4678.974358,4007.179487,4104.102564
37,4436.923076,4560.000000,4546.153846,4300.512820,4511.794871,4219.487179,4447.692307,4249.230769,4247.692307,4518.461538,4240.512820,4680.512820,4012.307692,4107.692307
38,4429.743589,4554.871794,4540.000000,4295.897435,4504.102564,4215.897435,4445.641025,4247.692307,4247.179487,4528.717948,4237.435897,4674.358974,4001.538461,4095.897435
39,4423.589743,4540.512820,4534.358974,4293.846153,4502.051282,4215.897435,4443.076923,4246.666666,4249.743589,4527.179487,4232.307692,4670.769230,3998.974359,4088.205128
40,4424.615384,4538.974358,4534.871794,4294.871794,4510.256410,4213.846153,4442.051282,4242.564102,4248.205128,4521.025641,4234.871794,4671.794871,4008.205128,4092.820512
41,4428.205128,4555.384615,4535.897435,4295.384615,4523.076923,4214.871794,4444.102564,4242.564102,4249.743589,4518.461538,4243.076923,4671.794871,4014.358974,4096.410256
42,4426.153846,4558.974358,4536.923076,4298.461538,4517.948717,4215.897435,4444.615384,4244.615384,4256.410256,4521.538461,4244.102564,4669.743589,4014.871794,4087.692307
43,4424.102564,4549.230769,4537.948717,4301.538461,4502.051282,4211.794871,4444.102564,4245.641025,4261.025641,4524.615384,4243.589743,4668.717948,4016.410256,4082.564102
44,4433.846153,4552.307692,4538.974358,4301.538461,4506.666666,4211.794871,4446.153846,4247.692307,4263.589743,4526.153846,4249.230769,4674.871794,4019.487179,4092.820512
45,4442.564102,4558.461538,4540.512820,4297.948717,4521.025641,4213.846153,4448.717948,4248.205128,4261.025641,4533.846153,4249.743589,4681.025641,4020.512820,4096.410256
46,4431.282051,4552.307692,4538.461538,4293.846153,4512.820512,4205.641025,4443.589743,4244.615384,4252.307692,4539.487179,4243.076923,4677.948717,4016.923076,4087.179487
47,4422.564102,4549.230769,4540.512820,4297.948717,4505.128205,4202.051282,4441.538461,4242.564102,4247.692307,4528.205128,4240.512820,4675.897435,4013.333333,4085.641025
48,4436.410256,4560.000000,4551.282051,4309.743589,4520.512820,4215.384615,4453.846153,4247.179487,4257.948717,4520.512820,4247.179487,4685.641025,4018.461538,4093.333333
49,4444.615384,4566.666666,4557.435897,4313.333333,4527.692307,4222.564102,4461.025641,4250.769230,4264.615384,4522.564102,4253.846153,4694.358974,4025.641025,4092.820512
50,4431.794871,4555.384615,4551.282051,4300.000000,4508.205128,4217.435897,4454.871794,4249.743589,4257.948717,4525.128205,4250.769230,4689.743589,4023.076923,4088.717948
51,4425.641025,4547.692307,4547.692307,4291.794871,4501.025641,4216.923076,4454.358974,4248.205128,4257.948717,4528.717948,4247.179487,4683.076923,4019.487179,4089.743589
52,4430.769230,4556.410256,4552.820512,4300.000000,4518.461538,4220.512820,4461.538461,4252.307692,4264.615384,4529.743589,4249.230769,4688.717948,4024.102564,4089.743589
53,4430.769230,4553.333333,4551.282051,4303.589743,4523.076923,4218.974358,4460.512820,4255.897435,4264.615384,4524.615384,4248.205128,4692.820512,4021.538461,4082.564102
54,4421.025641,4539.487179,4543.076923,4294.358974,4512.307692,4216.410256,4458.461538,4255.897435,4262.564102,4521.025641,4242.564102,4685.128205,4006.666666,4075.897435
55,4411.794871,4540.512820,4539.487179,4289.743589,4503.076923,4214.871794,4461.025641,4258.461538,4264.102564,4520.000000,4240.512820,4676.923076,4001.538461,4075.897435
56,4415.897435,4545.641025,4540.512820,4295.384615,4504.615384,4216.923076,4461.538461,4262.564102,4265.128205,4530.769230,4237.948717,4674.358974,4012.307692,4076.923076
57,4425.641025,4542.051282,4539.487179,4299.487179,4522.564102,4224.102564,4462.051282,4265.128205,4266.153846,4541.538461,4232.307692,4672.820512,4017.435897,4073.333333
58,4420.000000,4538.974358,4537.948717,4302.051282,4531.794871,4225.128205,4461.538461,4262.051282,4266.666666,4531.282051,4230.769230,4672.307692,4011.282051,4068.717948
59,4408.717948,4541.538461,4535.897435,4304.102564,4503.076923,4215.384615,4454.358974,4253.333333,4258.461538,4514.871794,4234.871794,4673.846153,4009.743589,4065.641025
60,4411.794871,4538.461538,4534.358974,4302.564102,4469.230769,4201.025641,4444.615384,4246.666666,4249.230769,4523.589743,4234.871794,4670.256410,4009.230769,4066.153846
61,4414.871794,4535.897435,4536.923076,4305.641025,4475.384615,4196.923076,4441.025641,4241.538461,4246.153846,4535.897435,4231.794871,4666.153846,4002.564102,4070.769230
62,4409.230769,4537.435897,4538.461538,4310.769230,4500.512820,4207.179487,4443.589743,4240.000000,4246.666666,4529.230769,4231.794871,4672.307692,4002.564102,4072.820512
63,4415.897435,4539.487179,4537.948717,4312.307692,4523.589743,4216.923076,4450.769230,4247.179487,4251.282051,4526.153846,4231.794871,4679.487179,4018.461538,4073.846153
64,4428.205128,4547.179487,4545.641025,4312.820512,4540.512820,4220.000000,4460.512820,4255.897435,4262.564102,4533.846153,4236.410256,4681.025641,4032.307692,4077.435897
65,4424.615384,4551.794871,4551.794871,4312.307692,4528.717948,4219.487179,4458.974358,4253.333333,4265.641025,4545.128205,4242.051282,4681.538461,4027.179487,4079.487179
66,4410.256410,4542.564102,4545.641025,4312.820512,4491.794871,4210.769230,4447.179487,4248.717948,4252.820512,4554.871794,4237.948717,4677.435897,4017.948717,4075.897435
67,4409.743589,4535.897435,4537.435897,4314.358974,4487.179487,4201.025641,4441.538461,4246.153846,4243.589743,4544.102564,4231.282051,4670.769230,4013.846153,4071.282051
68,4420.000000,4545.128205,4540.000000,4312.307692,4520.512820,4210.769230,4443.589743,4243.589743,4246.153846,4520.000000,4231.794871,4672.307692,4012.307692,4071.794871
69,4420.000000,4547.179487,4544.102564,4307.179487,4528.205128,4219.487179,4445.641025,4247.179487,4248.205128,4520.000000,4233.333333,4676.923076,4014.358974,4075.897435
70,4412.307692,4537.948717,4537.948717,4303.589743,4500.000000,4204.615384,4444.102564,4248.205128,4246.153846,4529.743589,4229.230769,4670.256410,4012.820512,4068.717948
71,4406.666666,4537.948717,4531.282051,4297.435897,4492.307692,4197.948717,4440.512820,4243.076923,4246.666666,4518.461538,4227.179487,4661.025641,4007.179487,4058.974358
72,4409.230769,4543.589743,4534.871794,4293.846153,4517.435897,4216.410256,4449.230769,4246.666666,4250.769230,4525.128205,4230.769230,4665.128205,4011.282051,4067.179487
73,4412.820512,4541.538461,4539.487179,4295.384615,4516.923076,4223.589743,4457.435897,4251.282051,4250.256410,4536.923076,4233.846153,4673.333333,4015.897435,4077.435897
74,4411.282051,4538.461538,4536.923076,4293.333333,4492.820512,4207.179487,4449.230769,4239.487179,4245.641025,4523.589743,4234.358974,4673.846153,4007.692307,4073.333333
75,4412.307692,4538.461538,4534.871794,4294.871794,4495.384615,4199.487179,4440.000000,4230.769230,4244.615384,4528.205128,4231.794871,4670.256410,4007.179487,4071.794871
76,4414.358974,4538.974358,4537.435897,4297.435897,4512.307692,4203.589743,4442.564102,4237.435897,4246.666666,4548.717948,4229.230769,4667.179487,4014.871794,4080.000000
77,4412.820512,4549.230769,4539.487179,4292.307692,4510.769230,4201.538461,4443.589743,4241.025641,4246.666666,4537.435897,4230.769230,4666.666666,4012.820512,4079.487179
78,4412.307692,4552.820512,4539.487179,4290.256410,4502.051282,4202.564102,4440.512820,4234.871794,4246.153846,4516.410256,4231.282051,4668.717948,4011.282051,4073.333333
79,4414.358974,4540.000000,4540.000000,4294.358974,4510.256410,4212.820512,4441.025641,4232.307692,4244.615384,4522.051282,4228.205128,4670.769230,4015.897435,4070.769230
80,4419.487179,4543.076923,4544.102564,4297.948717,4520.000000,4218.974358,4444.615384,4239.487179,4248.717948,4535.384615,4232.307692,4671.282051,4018.461538,4073.846153
81,4422.051282,4555.384615,4544.615384,4298.461538,4495.897435,4214.871794,4446.153846,4246.666666,4256.923076,4542.051282,4235.897435,4676.410256,4017.435897,4076.923076
82,4414.871794,4544.615384,4543.076923,4293.333333,4475.384615,4209.230769,4444.615384,4245.128205,4253.846153,4537.435897,4229.230769,4678.461538,4016.923076,4079.487179
83,4415.384615,4536.410256,4541.538461,4290.256410,4511.282051,4213.333333,4451.282051,4248.717948,4253.333333,4537.435897,4235.897435,4677.948717,4024.102564,4087.179487
84,4427.179487,4555.384615,4543.589743,4296.923076,4546.153846,4225.641025,4462.051282,4259.487179,4264.615384,4561.025641,4252.307692,4681.538461,4034.871794,4094.358974
85,4430.256410,4557.435897,4547.179487,4297.948717,4530.256410,4226.666666,4461.538461,4258.461538,4268.205128,4567.692307,4252.307692,4682.051282,4035.897435,4090.769230
86,4424.615384,4539.487179,4546.153846,4294.358974,4507.179487,4218.461538,4461.025641,4253.846153,4263.076923,4543.589743,4246.666666,4678.974358,4028.717948,4085.128205
87,4422.051282,4539.487179,4543.076923,4294.358974,4493.846153,4215.897435,4459.487179,4254.871794,4261.538461,4530.769230,4246.153846,4680.000000,4026.666666,4086.153846
88,4420.512820,4552.820512,4545.641025,4295.897435,4492.307692,4214.358974,4450.769230,4250.769230,4261.538461,4546.666666,4242.051282,4678.461538,4028.717948,4089.230769
89,4423.076923,4560.512820,4551.794871,4303.076923,4516.410256,4214.871794,4452.307692,4252.820512,4261.025641,4557.435897,4243.076923,4676.410256,4033.333333,4092.307692
90,4431.282051,4566.666666,4553.333333,4311.282051,4532.820512,4219.487179,4461.025641,4263.076923,4265.128205,4544.615384,4251.282051,4685.641025,4037.948717,4092.307692
91,4432.820512,4566.666666,4554.871794,4313.846153,4519.487179,4219.487179,4459.487179,4260.000000,4266.153846,4538.461538,4252.307692,4690.256410,4034.871794,4092.820512
92,4429.743589,4559.487179,4553.846153,4308.717948,4510.769230,4216.923076,4457.435897,4248.205128,4256.410256,4551.794871,4245.641025,4680.000000,4029.743589,4091.282051
93,4427.179487,4554.358974,4548.717948,4298.461538,4516.923076,4216.923076,4456.923076,4248.205128,4248.205128,4552.820512,4240.000000,4673.333333,4025.641025,4084.615384
94,4428.205128,4554.871794,4549.230769,4297.435897,4517.948717,4217.948717,4454.871794,4255.384615,4254.358974,4535.384615,4243.589743,4681.025641,4030.256410,4086.153846
95,4435.384615,4556.923076,4555.897435,4311.282051,4516.410256,4220.000000,4461.025641,4257.435897,4260.512820,4535.384615,4254.358974,4691.282051,4038.974358,4095.897435
96,4432.820512,4552.820512,4552.820512,4309.230769,4506.153846,4218.461538,4459.487179,4248.717948,4252.307692,4544.102564,4249.743589,4684.615384,4030.769230,4092.307692
97,4420.512820,4545.128205,4540.000000,4292.307692,4490.769230,4213.846153,4444.615384,4240.512820,4243.589743,4536.923076,4233.846153,4667.692307,4018.974358,4083.076923
98,4418.974358,4550.256410,4537.948717,4297.435897,4498.461538,4213.846153,4448.205128,4249.230769,4253.333333,4545.128205,4235.897435,4669.230769,4027.179487,4087.179487
99,4426.666666,4556.923076,4544.102564,4306.666666,4518.461538,4217.948717,4461.025641,4260.000000,4265.128205,4563.076923,4247.179487,4681.025641,4033.333333,4090.256410
100,4423.589743,4544.615384,4541.538461,4296.410256,4518.461538,4218.974358,4452.820512,4255.897435,4259.487179,4538.974358,4249.743589,4676.923076,4025.128205,4083.076923
101,4415.897435,4533.333333,4538.974358,4292.820512,4503.076923,4211.794871,4441.538461,4248.205128,4248.205128,4502.564102,4243.589743,4668.717948,4025.128205,4083.076923
102,4421.025641,4544.102564,4542.564102,4303.589743,4495.897435,4202.564102,4442.051282,4241.025641,4243.076923,4509.743589,4235.897435,4669.230769,4027.179487,4088.205128
103,4428.717948,4555.897435,4539.487179,4309.230769,4491.794871,4198.974358,4438.974358,4233.846153,4241.025641,4531.794871,4231.794871,4666.666666,4016.410256,4082.564102
104,4427.179487,4556.923076,4535.384615,4306.666666,4498.461538,4203.076923,4436.923076,4234.358974,4242.564102,4531.282051,4230.769230,4662.051282,4010.256410,4076.923076
105,4426.153846,4552.307692,4544.615384,4303.589743,4518.461538,4208.717948,4443.076923,4246.153846,4247.179487,4523.589743,4232.307692,4670.256410,4018.974358,4084.102564
106,4427.692307,4544.102564,4551.794871,4296.410256,4526.153846,4214.871794,4447.179487,4255.384615,4248.717948,4524.102564,4234.358974,4680.000000,4024.102564,4088.717948
107,4424.615384,4538.461538,4544.615384,4293.846153,4505.641025,4215.384615,4446.666666,4255.897435,4248.205128,4526.666666,4235.384615,4676.923076,4013.846153,4088.205128
108,4415.384615,4535.897435,4534.871794,4302.051282,4486.666666,4206.153846,4440.512820,4246.666666,4241.538461,4515.897435,4230.256410,4663.076923,4006.153846,4085.641025
109,4413.333333,4541.538461,4537.435897,4307.179487,4499.487179,4199.487179,4431.282051,4235.384615,4230.256410,4503.076923,4225.641025,4654.871794,4011.794871,4078.461538
110,4416.410256,4554.358974,4538.974358,4304.615384,4509.230769,4199.487179,4428.717948,4234.358974,4231.282051,4517.948717,4222.564102,4658.974358,4012.307692,4068.205128
111,4409.230769,4555.384615,4527.692307,4301.538461,4492.820512,4202.564102,4429.743589,4235.897435,4233.333333,4534.358974,4217.948717,4655.384615,4004.615384,4062.564102
112,4404.615384,4542.564102,4522.051282,4299.487179,4491.794871,4200.000000,4427.692307,4237.435897,4229.230769,4518.974358,4217.435897,4647.692307,4003.589743,4066.153846
113,4409.743589,4535.897435,4525.641025,4295.897435,4490.256410,4188.717948,4425.641025,4243.076923,4229.743589,4503.589743,4218.461538,4649.743589,4001.025641,4068.205128
114,4412.820512,4541.025641,4527.179487,4295.897435,4474.358974,4187.179487,4427.692307,4245.128205,4232.820512,4505.128205,4219.487179,4655.897435,3996.923077,4064.102564
115,4413.846153,4538.974358,4528.205128,4297.435897,4483.589743,4198.461538,4429.743589,4245.641025,4233.846153,4505.641025,4220.512820,4660.000000,4005.128205,4065.128205
116,4412.820512,4526.153846,4527.692307,4292.820512,4498.461538,4201.538461,4428.717948,4246.153846,4234.871794,4508.205128,4217.435897,4662.564102,4011.282051,4069.743589
117,4405.641025,4518.974358,4524.102564,4289.230769,4490.256410,4194.358974,4427.179487,4245.641025,4232.820512,4506.153846,4210.769230,4658.461538,4001.025641,4065.641025
118,4401.538461,4529.230769,4526.153846,4294.358974,4498.461538,4195.897435,4431.794871,4246.153846,4229.743589,4493.846153,4212.820512,4654.871794,3991.282052,4060.000000
119,4406.153846,4537.948717,4528.717948,4298.974358,4516.410256,4201.538461,4437.435897,4246.666666,4230.256410,4492.307692,4219.487179,4656.923076,3990.769231,4058.974358
120,4404.615384,4533.333333,4522.564102,4296.410256,4492.820512,4194.871794,4429.743589,4237.435897,4228.205128,4503.589743,4216.410256,4649.743589,3987.692308,4051.794871
121,4406.153846,4534.871794,4524.102564,4296.410256,4469.230769,4188.717948,4426.666666,4237.435897,4227.179487,4517.948717,4213.333333,4649.743589,3989.743590,4048.717948
122,4419.487179,4536.410256,4537.435897,4303.589743,4485.641025,4195.384615,4434.871794,4249.743589,4232.820512,4522.051282,4222.051282,4665.641025,4005.128205,4061.538461
123,4421.538461,4528.717948,4541.025641,4303.589743,4496.923076,4201.025641,4436.410256,4252.307692,4234.871794,4511.282051,4230.256410,4670.769230,4016.410256,4071.794871
124,4413.846153,4530.256410,4538.461538,4297.435897,4486.666666,4199.487179,4437.435897,4252.820512,4237.435897,4511.282051,4235.384615,4667.692307,4014.358974,4070.769230
125,4413.846153,4541.538461,4540.512820,4295.384615,4493.846153,4199.487179,4440.512820,4254.358974,4241.538461,4524.102564,4234.358974,4672.307692,4009.230769,4063.589743
126,4416.923076,4542.051282,4537.435897,4295.897435,4510.769230,4199.487179,4433.846153,4251.282051,4237.948717,4516.410256,4223.589743,4669.230769,4008.205128,4059.487179
127,4412.820512,4536.923076,4527.692307,4296.923076,4500.000000,4190.256410,4424.102564,4245.128205,4228.717948,4498.974358,4214.871794,4656.923076,4007.179487,4060.512820
128,4409.743589,4537.435897,4522.564102,4299.487179,4482.564102,4182.564102,4425.641025,4240.000000,4224.615384,4500.000000,4216.923076,4653.333333,4003.589743,4059.487179
129,4412.820512,4536.923076,4524.102564,4297.948717,4490.769230,4190.256410,4429.230769,4235.384615,4226.153846,4507.179487,4221.025641,4653.846153,4000.000000,4055.384615
130,4415.384615,4533.846153,4530.769230,4294.358974,4494.871794,4198.974358,4428.205128,4238.974358,4229.743589,4504.615384,4218.461538,4654.871794,4001.025641,4054.358974
131,4414.358974,4535.384615,4534.871794,4300.000000,4488.717948,4199.487179,4429.743589,4247.179487,4233.333333,4497.435897,4218.974358,4656.410256,4007.692307,4052.820512
132,4412.307692,4538.974358,4530.256410,4309.230769,4500.000000,4200.000000,4431.794871,4245.641025,4230.256410,4494.871794,4221.025641,4653.333333,4005.641025,4046.666666
133,4410.769230,4541.538461,4525.128205,4305.128205,4504.615384,4199.487179,4433.333333,4241.025641,4228.717948,4511.282051,4212.307692,4649.230769,3995.897436,4045.641025
134,4406.666666,4536.923076,4522.564102,4294.358974,4485.641025,4191.794871,4428.717948,4240.512820,4229.230769,4524.102564,4202.564102,4645.641025,3993.846154,4049.743589
135,4408.205128,4536.410256,4526.666666,4294.358974,4486.666666,4191.794871,4424.615384,4246.666666,4230.256410,4516.410256,4208.717948,4650.256410,4003.076923,4051.794871
136,4414.358974,4535.897435,4535.897435,4297.948717,4501.538461,4199.487179,4433.846153,4252.820512,4234.358974,4504.615384,4219.487179,4656.410256,4009.230769,4054.358974
137,4411.282051,4527.179487,4536.410256,4294.358974,4493.846153,4202.051282,4440.512820,4249.230769,4234.871794,4489.743589,4224.102564,4656.410256,4002.564102,4054.871794
138,4409.230769,4523.589743,4534.871794,4295.384615,4491.282051,4201.025641,4433.846153,4249.230769,4234.871794,4485.641025,4228.717948,4660.000000,3998.974359,4055.384615
139,4412.307692,4525.128205,4533.846153,4299.487179,4485.641025,4195.897435,4426.153846,4250.256410,4234.358974,4502.564102,4223.076923,4658.974358,4000.000000,4053.333333
140,4411.282051,4522.051282,4527.179487,4291.794871,4456.923076,4183.589743,4424.615384,4238.461538,4229.230769,4514.871794,4209.743589,4646.153846,3993.333334,4049.230769
141,4409.743589,4528.205128,4527.179487,4292.307692,4462.564102,4183.589743,4428.205128,4234.358974,4229.230769,4510.256410,4213.333333,4645.641025,3990.769231,4051.282051
142,4412.820512,4538.461538,4530.256410,4302.564102,4498.974358,4194.871794,4430.256410,4244.615384,4232.820512,4503.076923,4218.974358,4657.948717,3990.256411,4052.307692
143,4410.769230,4528.717948,4526.153846,4298.974358,4506.666666,4197.948717,4431.282051,4248.205128,4231.282051,4505.128205,4213.333333,4653.846153,3985.128206,4045.641025
144,4410.256410,4522.564102,4527.179487,4290.769230,4495.897435,4200.000000,4433.846153,4247.179487,4232.307692,4504.102564,4221.538461,4650.769230,3993.846154,4051.794871
145,4414.358974,4534.358974,4532.307692,4295.384615,4497.435897,4200.512820,4432.820512,4250.769230,4236.923076,4497.435897,4228.717948,4661.538461,4006.666666,4062.051282
146,4411.282051,4532.820512,4524.615384,4297.435897,4484.102564,4191.282051,4424.102564,4245.128205,4230.256410,4488.717948,4215.384615,4657.435897,3997.435898,4052.820512
147,4403.076923,4521.025641,4519.487179,4288.717948,4455.897435,4183.589743,4418.974358,4233.333333,4220.512820,4489.230769,4207.692307,4643.589743,3986.153847,4042.564102
148,4395.897435,4523.076923,4522.564102,4289.743589,4461.025641,4183.076923,4422.051282,4230.256410,4223.589743,4500.000000,4216.410256,4642.051282,3991.282052,4045.128205
149,4401.025641,4528.205128,4524.102564,4299.487179,4496.410256,4188.205128,4425.128205,4236.410256,4229.230769,4510.256410,4221.538461,4646.666666,3998.461539,4047.692307
150,4410.256410,4524.615384,4522.564102,4297.948717,4496.923076,4192.307692,4425.641025,4242.564102,4230.769230,4507.692307,4218.974358,4648.717948,3998.461539,4047.179487
151,4407.692307,4523.076923,4525.641025,4287.692307,4467.692307,4188.717948,4425.641025,4238.974358,4227.692307,4487.692307,4215.384615,4649.230769,3993.333334,4048.717948
152,4408.205128,4531.282051,4533.333333,4290.256410,4481.025641,4190.256410,4427.692307,4240.000000,4229.230769,4477.948717,4214.871794,4653.846153,3992.820513,4052.307692
153,4415.897435,4541.025641,4532.820512,4301.025641,4500.512820,4200.000000,4430.769230,4246.153846,4233.333333,4487.692307,4218.974358,4659.487179,3999.487180,4056.410256
154,4412.820512,4538.461538,4522.051282,4298.461538,4476.923076,4195.384615,4430.256410,4240.512820,4226.153846,4495.384615,4212.820512,4653.333333,3996.923077,4052.307692
155,4403.076923,4528.205128,4519.487179,4293.333333,4467.692307,4184.102564,4426.666666,4230.769230,4220.512820,4497.435897,4205.641025,4642.564102,3986.153847,4041.538461
156,4403.076923,4523.076923,4523.076923,4296.410256,4489.743589,4187.179487,4426.153846,4231.794871,4225.641025,4494.871794,4211.794871,4643.076923,3983.589744,4041.538461
157,4407.692307,4523.589743,4521.538461,4298.974358,4492.820512,4192.307692,4428.205128,4235.897435,4225.641025,4490.256410,4213.333333,4648.717948,3989.230770,4049.230769
158,4402.564102,4525.128205,4517.435897,4288.717948,4471.282051,4187.179487,4426.153846,4230.769230,4216.923076,4485.641025,4201.025641,4642.564102,3986.666667,4045.641025
159,4386.666666,4523.589743,4514.358974,4278.974358,4469.230769,4183.589743,4416.923076,4222.564102,4214.358974,4489.743589,4195.897435,4631.282051,3978.974359,4030.769230
160,4384.102564,4521.025641,4514.358974,4286.666666,4486.666666,4184.615384,4414.871794,4220.512820,4216.410256,4493.846153,4204.102564,4634.871794,3981.025642,4030.256410
161,4396.923076,4523.589743,4517.435897,4290.769230,4484.102564,4187.179487,4418.461538,4222.051282,4215.384615,4477.435897,4204.102564,4641.538461,3981.025642,4038.461538
162,4398.974358,4523.589743,4514.871794,4284.615384,4465.128205,4185.641025,4414.871794,4221.025641,4213.333333,4461.538461,4195.897435,4637.948717,3971.794872,4032.307692
163,4394.871794,4520.512820,4515.384615,4282.564102,4466.153846,4183.589743,4414.871794,4226.153846,4213.846153,4468.717948,4201.538461,4639.487179,3976.923077,4030.769230
164,4402.051282,4521.538461,4521.538461,4288.205128,4484.102564,4187.179487,4424.615384,4235.897435,4225.641025,4489.743589,4215.897435,4653.333333,3992.307693,4039.487179
165,4405.128205,4526.666666,4522.564102,4290.769230,4488.717948,4187.692307,4428.205128,4235.897435,4231.794871,4504.615384,4216.923076,4658.461538,3991.282052,4040.512820
166,4399.487179,4526.666666,4523.589743,4288.717948,4481.538461,4184.615384,4421.025641,4233.333333,4222.564102,4499.487179,4214.871794,4652.307692,3989.230770,4040.512820
167,4397.435897,4523.589743,4521.025641,4283.589743,4474.871794,4183.076923,4413.333333,4232.820512,4214.871794,4480.512820,4218.461538,4649.230769,3990.769231,4045.128205
168,4394.871794,4517.435897,4511.282051,4278.461538,4471.794871,4180.512820,4409.743589,4226.153846,4213.846153,4468.205128,4207.692307,4644.102564,3976.410257,4037.948717
169,4393.846153,4513.846153,4511.282051,4280.512820,4475.897435,4180.000000,4413.846153,4227.179487,4212.820512,4478.974358,4195.897435,4642.564102,3970.256411,4030.256410
170,4396.923076,4518.974358,4520.512820,4284.102564,4478.461538,4185.641025,4417.435897,4232.820512,4217.948717,4495.897435,4205.641025,4645.641025,3983.589744,4034.358974
171,4396.410256,4522.564102,4523.076923,4284.615384,4472.820512,4185.641025,4414.358974,4232.820512,4228.205128,4491.794871,4216.923076,4646.153846,3991.794872,4037.948717
172,4398.974358,4521.538461,4521.025641,4281.025641,4470.256410,4186.153846,4417.948717,4236.410256,4230.769230,4478.461538,4216.410256,4645.641025,3988.205129,4038.461538
173,4406.153846,4524.615384,4523.076923,4281.025641,4482.051282,4194.871794,4426.666666,4246.153846,4230.769230,4482.051282,4217.948717,4648.205128,3988.717949,4042.051282
174,4407.179487,4527.179487,4521.025641,4288.717948,4485.641025,4193.846153,4429.743589,4245.641025,4233.846153,4496.410256,4218.461538,4649.230769,3990.256411,4039.487179
175,4405.641025,4524.615384,4521.025641,4293.846153,4474.358974,4188.205128,4427.692307,4243.076923,4234.358974,4496.923076,4213.333333,4647.692307,3986.153847,4034.871794
176,4408.205128,4523.076923,4525.128205,4291.794871,4471.794871,4193.333333,4426.153846,4246.153846,4232.820512,4491.282051,4214.358974,4649.230769,3985.641026,4043.076923
177,4408.205128,4524.615384,4523.589743,4285.128205,4483.589743,4195.897435,4427.692307,4241.025641,4231.794871,4489.743589,4217.435897,4649.230769,3990.256411,4049.230769
178,4402.564102,4524.102564,4521.025641,4280.000000,4485.641025,4188.717948,4427.179487,4233.846153,4231.282051,4497.948717,4213.333333,4646.666666,3990.769231,4041.025641
179,4400.512820,4522.564102,4521.025641,4285.641025,4474.358974,4185.641025,4425.128205,4234.871794,4230.769230,4509.743589,4211.282051,4645.128205,3985.641026,4035.897435
180,4407.692307,4524.615384,4523.076923,4295.384615,4483.076923,4188.717948,4426.153846,4236.923076,4229.743589,4495.897435,4218.461538,4646.153846,3987.179488,4042.051282
181,4410.256410,4529.230769,4527.179487,4297.948717,4491.282051,4189.230769,4426.153846,4233.846153,4223.076923,4470.256410,4220.512820,4649.230769,3990.256411,4044.615384
182,4398.974358,4523.589743,4521.538461,4294.358974,4460.000000,4185.641025,4418.974358,4230.769230,4215.897435,4471.282051,4210.769230,4644.615384,3978.974359,4033.846153
183,4390.256410,4512.307692,4510.769230,4295.384615,4444.102564,4182.051282,4416.923076,4227.179487,4212.820512,4487.692307,4201.538461,4632.307692,3967.179488,4027.692307
184,4402.051282,4515.897435,4515.384615,4300.512820,4488.205128,4190.769230,4428.205128,4229.230769,4216.410256,4498.974358,4200.000000,4634.358974,3969.230770,4036.410256
185,4412.820512,4528.205128,4525.128205,4310.256410,4513.846153,4206.153846,4434.358974,4240.512820,4226.666666,4508.205128,4203.589743,4643.589743,3977.948718,4044.615384
186,4403.076923,4520.000000,4521.025641,4317.948717,4475.384615,4199.487179,4429.230769,4244.615384,4231.282051,4505.128205,4204.102564,4637.948717,3982.051283,4037.948717
187,4393.333333,4505.128205,4517.948717,4315.384615,4452.820512,4184.102564,4427.692307,4238.974358,4229.230769,4489.230769,4200.000000,4631.794871,3981.025642,4033.333333
188,4397.948717,4515.384615,4518.461538,4308.205128,4474.871794,4191.794871,4431.282051,4237.948717,4230.256410,4486.153846,4200.512820,4640.512820,3982.564103,4038.461538
189,4402.564102,4526.666666,4513.333333,4303.589743,4482.564102,4201.025641,4431.282051,4239.487179,4225.641025,4491.794871,4203.589743,4644.615384,3983.076924,4040.000000
190,4395.897435,4516.410256,4506.666666,4297.435897,4467.692307,4188.717948,4426.666666,4233.846153,4213.846153,4489.230769,4202.051282,4638.461538,3974.358975,4036.923076
191,4395.384615,4511.794871,4509.743589,4291.794871,4478.974358,4188.205128,4427.692307,4231.794871,4221.025641,4494.358974,4199.487179,4637.948717,3971.282052,4038.461538
192,4405.641025,4524.615384,4517.435897,4297.435897,4496.410256,4199.487179,4431.282051,4236.923076,4233.333333,4506.666666,4202.564102,4643.589743,3982.051283,4041.538461
193,4404.615384,4525.128205,4516.923076,4302.051282,4469.743589,4190.769230,4424.615384,4234.358974,4222.564102,4506.666666,4201.538461,4640.000000,3984.615385,4039.487179
194,4398.461538,4516.923076,4514.358974,4296.923076,4449.743589,4180.512820,4420.000000,4228.717948,4213.333333,4500.000000,4197.948717,4635.897435,3980.512821,4039.487179
195,4404.102564,4521.538461,4519.487179,4295.384615,4472.307692,4191.282051,4427.179487,4229.230769,4220.000000,4496.410256,4200.000000,4642.051282,3983.589744,4045.641025
196,4407.692307,4524.615384,4517.435897,4294.358974,4483.076923,4197.948717,4429.743589,4227.692307,4217.435897,4488.717948,4201.025641,4644.615384,3985.128206,4047.692307
197,4405.641025,4518.461538,4513.333333,4294.358974,4476.410256,4194.871794,4426.153846,4226.153846,4209.743589,4487.692307,4201.025641,4640.000000,3986.666667,4048.205128
198,4415.897435,4525.641025,4521.538461,4302.051282,4491.282051,4198.461538,4430.256410,4231.794871,4221.538461,4503.076923,4210.769230,4646.666666,3989.230770,4053.846153
199,4423.589743,4538.974358,4528.205128,4307.179487,4492.307692,4201.538461,4433.333333,4235.897435,4234.358974,4510.769230,4217.435897,4653.846153,3990.769231,4057.948717
200,4416.923076,4532.820512,4522.564102,4297.948717,4468.205128,4199.487179,4428.205128,4232.820512,4227.179487,4508.205128,4213.333333,4647.692307,3994.358975,4056.923076
201,4413.846153,4524.615384,4524.102564,4294.871794,4467.692307,4197.948717,4431.794871,4233.846153,4223.076923,4508.205128,4218.461538,4647.692307,4001.538461,4061.538461
202,4416.923076,4521.538461,4525.641025,4300.000000,4470.769230,4192.820512,4429.230769,4231.794871,4225.128205,4497.948717,4222.564102,4652.307692,3996.410257,4063.589743
203,4411.282051,4510.769230,4518.974358,4287.179487,4454.871794,4184.102564,4414.871794,4218.461538,4216.923076,4489.743589,4207.692307,4644.615384,3979.487180,4054.358974
204,4408.205128,4513.846153,4518.974358,4276.923076,4467.179487,4182.564102,4415.384615,4216.923076,4212.307692,4502.564102,4197.435897,4641.538461,3974.358975,4048.717948
205,4412.820512,4528.205128,4521.538461,4290.256410,4496.923076,4187.692307,4428.717948,4227.692307,4220.000000,4511.794871,4204.615384,4647.692307,3976.410257,4053.333333
206,4411.282051,4522.564102,4521.025641,4297.435897,4484.102564,4185.128205,4424.102564,4228.205128,4220.000000,4502.051282,4205.641025,4647.692307,3970.256411,4055.897435
207,4407.692307,4513.846153,4520.000000,4288.717948,4461.538461,4184.102564,4414.358974,4223.076923,4215.384615,4495.897435,4198.974358,4644.102564,3971.794872,4053.846153
208,4414.358974,4525.128205,4522.051282,4291.282051,4471.282051,4189.743589,4423.589743,4228.205128,4220.000000,4490.769230,4204.615384,4648.717948,3986.666667,4057.948717
209,4414.871794,4524.615384,4523.076923,4296.410256,4466.153846,4187.179487,4427.692307,4228.717948,4217.948717,4484.102564,4204.615384,4647.692307,3975.897436,4052.307692
210,4409.230769,4514.358974,4520.512820,4290.769230,4456.410256,4183.076923,4420.000000,4218.461538,4212.307692,4494.871794,4195.897435,4642.051282,3958.974359,4044.615384
211,4421.025641,4518.974358,4522.564102,4291.282051,4483.076923,4194.358974,4423.589743,4216.410256,4218.974358,4511.794871,4203.076923,4647.179487,3978.974359,4054.871794
212,4427.692307,4527.179487,4525.641025,4293.846153,4500.512820,4200.512820,4432.820512,4220.512820,4224.102564,4510.256410,4212.820512,4649.743589,3993.333334,4067.179487
213,4413.846153,4526.153846,4516.410256,4288.205128,4473.333333,4188.205128,4425.128205,4218.974358,4217.435897,4496.923076,4204.102564,4641.538461,3981.025642,4060.000000
214,4406.153846,4514.871794,4503.076923,4278.461538,4453.846153,4180.000000,4409.743589,4214.358974,4211.282051,4486.153846,4195.897435,4636.923076,3975.384616,4048.717948
215,4411.282051,4509.230769,4508.717948,4275.897435,4471.794871,4186.153846,4413.846153,4221.538461,4217.435897,4487.692307,4208.717948,4643.589743,3983.589744,4050.256410
216,4414.871794,4520.512820,4522.051282,4291.282051,4486.666666,4190.256410,4428.205128,4235.897435,4228.205128,4503.589743,4221.538461,4651.282051,3993.333334,4060.000000
217,4415.384615,4525.128205,4518.461538,4293.846153,4470.769230,4187.179487,4425.128205,4232.820512,4227.179487,4515.897435,4213.846153,4650.769230,3996.410257,4063.589743
218,4406.153846,4508.205128,4505.641025,4267.692307,4451.282051,4181.025641,4410.256410,4212.307692,4213.333333,4503.076923,4198.974358,4638.974358,3980.512821,4055.897435
219,4400.000000,4503.589743,4506.666666,4265.128205,4470.256410,4180.512820,4407.179487,4202.564102,4205.641025,4484.615384,4194.358974,4630.256410,3967.179488,4051.794871
220,4412.307692,4523.076923,4519.487179,4298.974358,4496.410256,4189.743589,4421.025641,4213.846153,4214.358974,4485.641025,4201.025641,4641.025641,3980.000000,4057.435897
221,4419.487179,4528.717948,4524.102564,4304.102564,4484.615384,4192.307692,4427.179487,4220.000000,4225.641025,4492.820512,4207.179487,4648.717948,3990.256411,4060.512820
222,4411.794871,4518.461538,4518.461538,4280.000000,4468.205128,4186.666666,4425.128205,4218.461538,4228.205128,4490.256410,4209.743589,4642.564102,3988.205129,4060.000000
223,4412.307692,4517.948717,4518.461538,4284.102564,4476.923076,4186.666666,4427.179487,4219.487179,4223.589743,4490.256410,4208.205128,4644.102564,3986.666667,4061.538461
224,4417.435897,4522.051282,4522.051282,4296.923076,4476.410256,4188.205128,4425.128205,4218.974358,4217.948717,4492.307692,4204.102564,4649.230769,3981.025642,4060.000000
225,4412.307692,4520.000000,4519.487179,4290.769230,4460.512820,4184.102564,4418.974358,4215.384615,4214.358974,4478.974358,4198.974358,4642.051282,3972.820513,4052.307692
226,4412.820512,4518.461538,4518.461538,4287.179487,4467.692307,4187.179487,4423.076923,4217.435897,4215.384615,4472.307692,4205.128205,4638.461538,3976.923077,4053.333333
227,4423.589743,4521.025641,4524.615384,4293.333333,4489.743589,4200.000000,4431.282051,4220.512820,4223.076923,4496.923076,4216.923076,4647.692307,3991.282052,4066.666666
228,4424.615384,4520.512820,4522.564102,4297.435897,4493.333333,4201.025641,4428.717948,4218.461538,4224.615384,4512.820512,4213.846153,4649.743589,3991.282052,4068.717948
229,4414.358974,4517.948717,4511.282051,4292.307692,4476.923076,4187.692307,4424.102564,4216.410256,4216.923076,4487.179487,4202.051282,4637.435897,3973.846154,4056.410256
230,4408.717948,4518.461538,4505.128205,4287.179487,4455.384615,4182.051282,4424.615384,4214.358974,4214.871794,4469.743589,4194.871794,4633.846153,3963.589744,4051.282051
231,4412.307692,4520.000000,4507.179487,4291.282051,4454.358974,4192.307692,4427.692307,4217.435897,4220.000000,4486.153846,4192.820512,4643.589743,3973.846154,4056.923076
232,4420.000000,4519.487179,4508.205128,4295.384615,4480.000000,4197.435897,4428.205128,4226.666666,4218.461538,4495.897435,4200.512820,4649.230769,3983.076924,4064.102564
233,4429.230769,4522.051282,4509.743589,4289.743589,4502.051282,4188.205128,4426.153846,4231.282051,4217.435897,4494.358974,4216.923076,4649.743589,3983.589744,4070.256410
234,4430.769230,4525.128205,4512.820512,4289.230769,4487.692307,4183.589743,4426.666666,4225.641025,4220.512820,4493.333333,4221.538461,4655.384615,3984.615385,4074.871794
235,4423.076923,4519.487179,4507.692307,4295.897435,4461.538461,4186.666666,4421.538461,4216.410256,4219.487179,4480.000000,4211.282051,4650.769230,3984.102565,4071.282051
236,4415.897435,4510.769230,4495.897435,4288.717948,4460.512820,4183.589743,4412.307692,4211.794871,4215.897435,4471.794871,4203.076923,4633.846153,3977.435898,4060.000000
237,4408.717948,4506.666666,4488.717948,4276.410256,4459.487179,4178.974358,4414.871794,4205.641025,4210.769230,4480.512820,4193.333333,4626.153846,3963.589744,4051.794871
238,4406.666666,4508.717948,4486.666666,4282.564102,4450.769230,4182.564102,4424.615384,4197.948717,4204.615384,4485.128205,4188.717948,4628.717948,3952.307693,4051.282051
239,4417.435897,4516.410256,4493.846153,4298.461538,4465.641025,4190.769230,4429.743589,4204.102564,4207.692307,4488.205128,4197.435897,4636.923076,3963.589744,4060.000000
240,4427.179487,4523.589743,4506.666666,4295.897435,4483.076923,4191.282051,4428.205128,4217.435897,4217.948717,4489.743589,4206.153846,4649.230769,3984.615385,4071.794871
241,4422.564102,4522.051282,4504.102564,4286.153846,4475.897435,4185.641025,4420.512820,4218.974358,4219.487179,4475.384615,4204.102564,4650.769230,3981.538462,4069.230769
242,4414.358974,4522.564102,4490.769230,4287.179487,4471.794871,4183.076923,4415.384615,4212.820512,4214.358974,4464.615384,4198.461538,4639.487179,3968.205129,4060.512820
243,4413.333333,4523.589743,4487.692307,4286.666666,4476.923076,4181.538461,4417.435897,4216.923076,4215.897435,4481.538461,4198.461538,4633.333333,3971.282052,4061.025641
244,4407.179487,4511.282051,4489.230769,4284.615384,4462.051282,4176.923076,4416.410256,4218.461538,4215.384615,4492.820512,4198.974358,4631.794871,3970.256411,4060.000000
245,4404.615384,4505.641025,4487.692307,4284.615384,4447.179487,4178.461538,4413.846153,4205.641025,4212.820512,4478.461538,4198.461538,4632.307692,3964.102565,4058.974358
246,4417.948717,4514.871794,4490.256410,4282.051282,4456.410256,4183.589743,4419.487179,4200.000000,4215.384615,4478.461538,4200.512820,4641.538461,3970.769231,4064.615384
247,4429.743589,4518.461538,4492.820512,4284.615384,4473.846153,4182.051282,4423.076923,4206.666666,4217.435897,4491.794871,4201.025641,4651.282051,3977.435898,4067.692307
248,4425.641025,4516.410256,4492.820512,4293.333333,4480.512820,4181.538461,4416.410256,4208.205128,4216.410256,4483.589743,4198.461538,4649.743589,3973.333334,4069.743589
249,4415.384615,4520.512820,4491.282051,4290.769230,4474.358974,4182.564102,4411.282051,4201.025641,4213.333333,4465.128205,4198.461538,4639.487179,3971.794872,4072.307692
250,4411.282051,4520.512820,4486.153846,4282.051282,4471.282051,4182.564102,4418.461538,4198.974358,4214.358974,4470.256410,4200.000000,4634.358974,3972.820513,4063.076923
251,4412.307692,4509.743589,4484.102564,4280.512820,4469.743589,4185.128205,4422.564102,4204.102564,4215.384615,4479.487179,4190.256410,4632.820512,3970.769231,4055.384615
252,4412.820512,4506.153846,4487.179487,4283.589743,4453.333333,4183.076923,4415.384615,4201.538461,4209.743589,4475.384615,4185.641025,4634.358974,3970.256411,4060.512820
253,4412.820512,4508.205128,4489.743589,4283.589743,4434.358974,4173.846153,4409.743589,4189.743589,4200.000000,4474.358974,4196.923076,4636.923076,3973.333334,4063.076923
254,4412.307692,4507.692307,4488.205128,4277.435897,4443.589743,4172.307692,4410.256410,4185.641025,4200.512820,4476.923076,4202.564102,4640.000000,3974.358975,4063.589743
255,4414.358974,4513.846153,4495.384615,4284.102564,4480.512820,4182.051282,4418.974358,4195.897435,4208.717948,4476.410256,4198.974358,4648.717948,3977.435898,4069.743589
256,4417.435897,4526.153846,4507.692307,4297.948717,4496.410256,4189.230769,4429.230769,4206.153846,4215.897435,4474.871794,4202.564102,4652.820512,3985.641026,4075.897435
