,AF3,F7,F3,FC5,T7,P7,O1,O2,P8,T8,FC6,F4,F8,AF4
0,4417.948717,4527.692307,4522.051282,4253.333333,4487.179487,4197.435897,4433.333333,4215.384615,4221.025641,4472.307692,4204.102564,4651.282051,3994.358975,4065.128205
1,4414.871794,4519.487179,4519.487179,4257.948717,4484.615384,4199.487179,4429.230769,4214.871794,4217.948717,4470.256410,4196.923076,4645.128205,3987.179488,4061.025641
2,4419.487179,4527.692307,4522.564102,4270.256410,4490.769230,4204.102564,4443.076923,4215.897435,4226.153846,4489.743589,4202.051282,4652.307692,3986.153847,4058.461538
3,4424.615384,4541.538461,4528.717948,4282.051282,4495.384615,4211.794871,4452.307692,4221.538461,4236.923076,4509.743589,4206.153846,4660.000000,3995.897436,4068.717948
4,4428.205128,4547.692307,4526.666666,4281.025641,4503.076923,4214.871794,4447.179487,4221.538461,4232.820512,4511.282051,4205.128205,4655.897435,3993.333334,4075.384615
5,4426.666666,4545.128205,4522.051282,4272.307692,4502.051282,4207.179487,4441.025641,4213.846153,4224.102564,4494.871794,4201.538461,4649.230769,3985.641026,4064.102564
6,4423.076923,4537.948717,4519.487179,4266.666666,4491.794871,4201.538461,4439.487179,4208.717948,4217.948717,4470.256410,4192.307692,4646.666666,3984.102565,4054.358974
7,4420.000000,4530.256410,4514.358974,4260.000000,4490.769230,4200.512820,4437.948717,4210.256410,4211.282051,4455.384615,4187.179487,4642.564102,3978.974359,4054.871794
8,4424.615384,4529.230769,4517.435897,4261.538461,4494.871794,4203.076923,4443.076923,4215.897435,4216.923076,4475.384615,4201.538461,4646.153846,3973.333334,4060.000000
9,4431.794871,4534.871794,4528.717948,4277.435897,4490.769230,4213.846153,4456.410256,4226.666666,4234.871794,4507.179487,4216.923076,4660.000000,3984.102565,4070.256410
10,4429.230769,4535.897435,4530.769230,4275.897435,4489.743589,4217.435897,4457.948717,4228.717948,4234.871794,4496.410256,4210.256410,4661.538461,3997.948718,4074.358974
11,4423.076923,4528.205128,4520.512820,4254.871794,4490.256410,4205.641025,4445.641025,4218.461538,4220.512820,4477.948717,4193.333333,4648.205128,3991.282052,4061.538461
12,4422.051282,4524.102564,4522.051282,4254.358974,4487.692307,4197.435897,4440.512820,4211.794871,4224.615384,4486.666666,4192.307692,4649.230769,3982.564103,4054.358974
13,4425.128205,4529.743589,4533.333333,4267.179487,4489.230769,4205.128205,4447.692307,4221.025641,4236.923076,4490.256410,4210.256410,4661.025641,3991.794872,4064.615384
14,4428.717948,4527.179487,4534.871794,4264.102564,4489.230769,4214.871794,4451.282051,4230.256410,4235.897435,4489.743589,4218.974358,4660.000000,3997.435898,4070.769230
15,4429.743589,4518.461538,4527.179487,4262.051282,4487.179487,4212.307692,4447.692307,4223.076923,4232.307692,4496.923076,4211.794871,4655.897435,3985.128206,4064.102564
16,4421.538461,4516.923076,4524.102564,4267.179487,4492.307692,4201.025641,4440.000000,4213.846153,4226.153846,4486.666666,4201.025641,4653.333333,3973.333334,4054.871794
17,4412.820512,4521.538461,4523.589743,4262.051282,4495.384615,4196.410256,4435.384615,4210.769230,4212.820512,4468.205128,4191.794871,4646.153846,3976.923077,4049.743589
18,4418.974358,4530.256410,4521.538461,4262.051282,4486.153846,4201.025641,4439.487179,4207.692307,4210.769230,4470.256410,4192.307692,4641.538461,3990.256411,4050.256410
19,4430.256410,4540.512820,4523.076923,4271.282051,4481.025641,4203.589743,4443.076923,4207.692307,4222.051282,4483.589743,4200.000000,4647.179487,3997.435898,4052.820512
20,4428.717948,4537.435897,4524.102564,4271.794871,4487.692307,4201.025641,4442.564102,4214.358974,4228.205128,4495.384615,4213.846153,4649.230769,3992.307693,4059.487179
21,4422.564102,4530.769230,4522.051282,4264.615384,4493.333333,4204.102564,4444.615384,4224.615384,4229.743589,4501.025641,4222.051282,4646.153846,3990.256411,4063.589743
22,4421.538461,4530.256410,4522.564102,4261.025641,4489.743589,4207.692307,4446.666666,4229.743589,4232.307692,4491.282051,4212.307692,4647.692307,3993.846154,4061.538461
23,4424.615384,4531.282051,4523.076923,4264.102564,4490.256410,4203.076923,4444.615384,4226.153846,4234.358974,4484.102564,4198.461538,4650.256410,3996.923077,4060.000000
24,4428.205128,4534.358974,4521.538461,4266.666666,4492.307692,4204.615384,4445.128205,4223.589743,4233.846153,4488.205128,4200.512820,4650.769230,3996.923077,4059.487179
25,4430.256410,4535.897435,4526.153846,4264.102564,4485.128205,4209.743589,4446.153846,4225.641025,4230.769230,4491.794871,4212.307692,4652.307692,3993.333334,4059.487179
26,4428.205128,4529.743589,4532.820512,4264.615384,4484.102564,4206.153846,4443.589743,4222.564102,4232.820512,4493.846153,4218.461538,4653.846153,3988.717949,4060.000000
27,4423.589743,4523.589743,4531.282051,4270.769230,4491.794871,4206.153846,4446.153846,4218.974358,4234.358974,4490.769230,4220.000000,4651.282051,3986.153847,4058.974358
28,4416.923076,4519.487179,4523.076923,4270.256410,4487.692307,4208.717948,4447.179487,4215.897435,4221.025641,4474.871794,4200.512820,4647.179487,3990.256411,4052.307692
29,4412.307692,4521.025641,4521.025641,4262.564102,4483.076923,4202.564102,4445.128205,4206.666666,4208.205128,4461.538461,4180.512820,4644.615384,3990.769231,4049.230769
30,4420.000000,4532.307692,4531.282051,4268.717948,4482.051282,4201.538461,4452.820512,4209.230769,4217.948717,4466.666666,4201.538461,4649.743589,3984.102565,4055.897435
31,4430.769230,4535.897435,4540.512820,4278.461538,4482.051282,4212.307692,4462.051282,4227.179487,4234.358974,4482.051282,4221.025641,4657.435897,3984.102565,4065.128205
32,4427.179487,4526.153846,4537.435897,4275.897435,4491.282051,4211.282051,4455.384615,4232.307692,4238.974358,4492.307692,4202.051282,4655.897435,3991.794872,4062.051282
33,4422.051282,4526.666666,4535.897435,4270.256410,4499.487179,4203.076923,4445.641025,4224.615384,4233.333333,4488.717948,4191.794871,4651.794871,3991.794872,4053.333333
34,4428.205128,4528.717948,4536.923076,4268.717948,4491.794871,4207.179487,4444.102564,4217.948717,4224.102564,4479.487179,4204.615384,4651.794871,3987.692308,4054.871794
35,4431.794871,4522.051282,4528.205128,4268.717948,4486.153846,4209.230769,4446.153846,4214.871794,4220.512820,4482.564102,4207.179487,4650.256410,3993.333334,4060.000000
36,4423.076923,4523.076923,4519.487179,4268.205128,4490.769230,4204.615384,4445.641025,4216.410256,4222.564102,4486.666666,4202.051282,4646.666666,3995.897436,4055.897435
37,4415.384615,4531.794871,4525.128205,4268.205128,4490.769230,4206.153846,4445.128205,4215.897435,4219.487179,4476.923076,4201.538461,4647.179487,3992.820513,4047.179487
38,4418.974358,4529.230769,4534.358974,4267.692307,4489.743589,4211.282051,4451.282051,4213.846153,4214.358974,4472.307692,4197.435897,4651.794871,3989.743590,4043.076923
39,4428.205128,4525.128205,4537.948717,4269.230769,4491.282051,4211.282051,4460.512820,4215.897435,4218.461538,4480.000000,4197.435897,4658.974358,3989.743590,4050.769230
40,4428.205128,4530.256410,4534.871794,4266.666666,4491.282051,4209.743589,4460.000000,4220.000000,4226.153846,4490.769230,4200.512820,4660.512820,3995.897436,4062.051282
41,4411.794871,4519.487179,4525.128205,4256.410256,4491.282051,4203.076923,4446.666666,4215.384615,4220.512820,4490.256410,4192.820512,4648.205128,3995.897436,4055.897435
42,4401.538461,4502.051282,4518.461538,4254.358974,4488.205128,4195.897435,4444.615384,4216.923076,4215.384615,4484.615384,4187.179487,4642.051282,3988.717949,4040.000000
43,4412.307692,4514.871794,4523.589743,4260.000000,4490.256410,4207.179487,4458.974358,4230.256410,4226.666666,4491.794871,4194.871794,4654.358974,3991.794872,4043.589743
44,4416.923076,4530.256410,4526.153846,4263.076923,4493.846153,4220.512820,4462.051282,4228.205128,4231.794871,4489.743589,4197.435897,4658.974358,4000.000000,4052.307692
45,4408.205128,4519.487179,4523.076923,4268.717948,4492.820512,4215.897435,4454.871794,4215.897435,4221.025641,4474.358974,4195.897435,4652.307692,3995.384616,4046.666666
46,4416.410256,4520.512820,4527.179487,4275.897435,4494.871794,4208.205128,4457.435897,4217.435897,4216.923076,4484.102564,4203.076923,4656.923076,3990.769231,4041.538461
47,4428.205128,4533.333333,4528.717948,4271.282051,4494.358974,4203.589743,4453.846153,4222.564102,4223.589743,4504.615384,4203.076923,4658.974358,3996.923077,4044.615384
48,4418.974358,4526.153846,4524.615384,4263.076923,4488.717948,4201.538461,4444.102564,4217.948717,4225.641025,4502.051282,4194.358974,4649.743589,3994.871795,4047.179487
49,4410.256410,4514.871794,4523.589743,4264.615384,4488.205128,4203.076923,4452.307692,4217.948717,4225.128205,4493.846153,4194.358974,4651.794871,3991.794872,4041.538461
50,4414.871794,4517.948717,4525.641025,4264.102564,4493.333333,4206.153846,4461.025641,4224.102564,4221.025641,4489.743589,4193.333333,4659.487179,3995.897436,4033.333333
51,4418.974358,4526.153846,4527.692307,4264.102564,4487.692307,4207.179487,4457.948717,4229.743589,4218.461538,4483.589743,4196.923076,4661.025641,3995.384616,4042.564102
52,4418.974358,4526.666666,4530.769230,4266.666666,4482.051282,4204.615384,4458.974358,4234.358974,4229.743589,4496.923076,4208.717948,4663.076923,3994.358975,4055.384615
53,4413.333333,4515.897435,4527.692307,4263.076923,4483.589743,4200.000000,4462.051282,4231.282051,4232.820512,4507.179487,4208.717948,4661.025641,3994.871795,4045.128205
54,4409.230769,4512.820512,4521.025641,4259.487179,4483.589743,4204.102564,4458.461538,4227.179487,4218.974358,4489.230769,4197.435897,4656.410256,3991.794872,4033.333333
55,4414.358974,4523.589743,4521.025641,4266.666666,4484.615384,4214.871794,4458.974358,4230.769230,4218.461538,4479.487179,4186.666666,4657.948717,3991.282052,4043.589743
56,4413.846153,4524.102564,4523.589743,4270.769230,4491.282051,4212.820512,4461.538461,4228.717948,4230.769230,4491.282051,4181.025641,4656.410256,3996.410257,4047.692307
57,4401.538461,4510.256410,4515.897435,4256.410256,4494.871794,4202.564102,4454.358974,4218.461538,4220.512820,4489.230769,4183.076923,4645.128205,3981.025642,4030.256410
58,4389.743589,4498.461538,4506.153846,4244.615384,4486.666666,4196.923076,4445.128205,4210.769230,4196.923076,4464.102564,4184.102564,4637.948717,3953.333334,4014.871794
59,4388.717948,4496.923076,4508.717948,4253.846153,4478.461538,4197.435897,4444.615384,4210.256410,4197.435897,4453.333333,4180.000000,4644.615384,3954.358975,4017.435897
60,4403.589743,4508.205128,4518.974358,4263.589743,4481.025641,4203.076923,4458.461538,4223.589743,4220.512820,4479.487179,4186.153846,4655.384615,3982.564103,4034.358974
61,4420.512820,4525.128205,4527.179487,4264.102564,4487.179487,4214.358974,4473.846153,4242.564102,4238.974358,4508.205128,4199.487179,4664.102564,4001.025641,4052.820512
62,4422.051282,4529.230769,4532.820512,4267.179487,4493.846153,4219.487179,4472.820512,4245.641025,4241.538461,4507.692307,4203.589743,4667.692307,3999.487180,4058.974358
63,4407.692307,4515.897435,4524.102564,4264.615384,4490.769230,4210.769230,4461.538461,4233.333333,4230.256410,4488.205128,4194.358974,4660.512820,3988.717949,4043.589743
64,4395.384615,4502.564102,4509.743589,4254.358974,4480.000000,4200.512820,4455.897435,4221.538461,4220.000000,4474.871794,4184.615384,4648.717948,3978.974359,4023.589743
65,4400.000000,4512.307692,4515.897435,4256.410256,4482.564102,4204.102564,4459.487179,4221.538461,4224.102564,4483.589743,4190.256410,4651.282051,3975.897436,4028.717948
66,4410.769230,4531.794871,4527.692307,4268.717948,4494.358974,4216.410256,4462.564102,4231.282051,4234.358974,4503.076923,4201.538461,4662.051282,3983.076924,4045.641025
67,4413.846153,4531.794871,4524.615384,4271.282051,4495.384615,4221.025641,4462.051282,4231.794871,4235.897435,4505.641025,4202.051282,4663.076923,3994.358975,4045.641025
68,4406.666666,4517.435897,4520.512820,4264.102564,4494.871794,4210.769230,4456.410256,4218.461538,4226.153846,4486.666666,4197.435897,4654.871794,3991.794872,4033.333333
69,4404.102564,4511.794871,4521.538461,4264.102564,4497.435897,4199.487179,4450.769230,4211.282051,4214.871794,4479.487179,4195.897435,4649.230769,3978.974359,4026.666666
70,4409.230769,4515.897435,4520.000000,4267.692307,4491.794871,4203.589743,4453.333333,4219.487179,4212.307692,4491.282051,4194.358974,4650.769230,3977.948718,4033.333333
71,4413.333333,4523.589743,4524.102564,4261.025641,4484.615384,4207.179487,4460.000000,4227.179487,4218.974358,4494.871794,4197.948717,4659.487179,3986.153847,4044.102564
72,4412.820512,4530.769230,4532.820512,4262.564102,4488.205128,4207.179487,4464.615384,4229.743589,4224.615384,4482.564102,4205.128205,4666.666666,3995.384616,4048.205128
73,4407.179487,4522.051282,4528.717948,4271.794871,4497.948717,4210.256410,4459.487179,4225.641025,4217.435897,4481.025641,4202.564102,4660.000000,3997.948718,4042.051282
74,4406.153846,4509.743589,4519.487179,4269.743589,4500.512820,4211.282051,4457.435897,4227.179487,4223.076923,4504.615384,4196.410256,4652.820512,3993.846154,4037.948717
75,4411.794871,4522.564102,4524.102564,4271.282051,4493.846153,4210.769230,4470.769230,4242.564102,4246.153846,4517.435897,4206.666666,4660.512820,3991.282052,4044.102564
76,4413.846153,4538.974358,4527.692307,4276.923076,4490.769230,4215.384615,4473.333333,4245.128205,4245.128205,4501.025641,4214.358974,4664.615384,3994.358975,4048.205128
77,4410.256410,4533.333333,4521.538461,4267.179487,4493.846153,4217.948717,4461.538461,4234.871794,4226.153846,4492.307692,4204.615384,4655.897435,3994.358975,4046.153846
78,4409.230769,4523.076923,4520.000000,4259.487179,4491.282051,4212.820512,4456.923076,4229.743589,4224.615384,4496.410256,4200.000000,4652.307692,3989.743590,4042.051282
79,4405.128205,4520.512820,4524.615384,4263.589743,4490.769230,4207.692307,4456.923076,4224.615384,4227.692307,4491.794871,4197.435897,4654.871794,3983.076924,4036.410256
80,4400.512820,4514.358974,4522.051282,4265.641025,4493.333333,4202.051282,4454.358974,4218.974358,4222.564102,4484.615384,4195.897435,4654.358974,3975.897436,4036.410256
81,4407.179487,4516.410256,4525.641025,4268.717948,4490.256410,4198.461538,4455.384615,4225.641025,4223.076923,4482.051282,4207.692307,4659.487179,3975.897436,4044.102564
82,4411.794871,4525.641025,4536.410256,4273.333333,4488.717948,4203.076923,4463.076923,4235.384615,4226.666666,4491.282051,4214.358974,4666.666666,3983.589744,4047.692307
83,4413.333333,4527.692307,4537.948717,4266.666666,4492.307692,4212.820512,4470.769230,4236.923076,4232.820512,4509.230769,4203.589743,4670.769230,3991.282052,4043.589743
84,4415.384615,4524.102564,4531.282051,4261.025641,4489.743589,4213.333333,4468.717948,4237.948717,4235.897435,4508.205128,4193.333333,4666.666666,3986.666667,4040.512820
85,4403.076923,4516.923076,4520.512820,4261.025641,4484.102564,4203.076923,4457.435897,4232.307692,4222.051282,4482.051282,4191.794871,4651.794871,3968.205129,4030.769230
86,4392.820512,4508.717948,4514.358974,4261.025641,4485.641025,4202.564102,4456.410256,4227.179487,4215.384615,4472.820512,4194.358974,4645.641025,3960.000000,4026.153846
87,4408.205128,4508.205128,4523.076923,4265.641025,4491.282051,4212.307692,4467.179487,4234.358974,4227.179487,4486.666666,4205.641025,4656.410256,3976.410257,4037.435897
88,4417.948717,4515.384615,4524.615384,4267.179487,4495.897435,4212.820512,4465.641025,4232.820512,4223.589743,4478.461538,4204.102564,4655.897435,3984.102565,4036.410256
89,4398.974358,4515.897435,4511.794871,4257.435897,4490.256410,4201.025641,4449.230769,4215.384615,4210.256410,4462.051282,4178.974358,4637.948717,3965.641026,4017.948717
90,4391.282051,4515.897435,4510.256410,4256.410256,4480.512820,4197.948717,4444.615384,4211.794871,4212.820512,4478.461538,4177.435897,4635.384615,3957.948718,4016.923076
91,4401.538461,4515.897435,4515.897435,4262.564102,4481.025641,4205.128205,4455.384615,4220.512820,4216.410256,4495.384615,4196.410256,4645.128205,3967.692308,4028.717948
92,4403.076923,4512.307692,4511.794871,4263.076923,4484.102564,4206.666666,4460.000000,4219.487179,4211.282051,4478.974358,4194.358974,4643.076923,3967.692308,4024.102564
93,4401.538461,4516.410256,4516.923076,4269.230769,4487.692307,4209.230769,4457.435897,4221.025641,4219.487179,4469.230769,4185.641025,4643.076923,3964.102565,4022.051282
94,4403.076923,4525.128205,4526.153846,4273.846153,4497.435897,4213.333333,4461.025641,4232.307692,4230.769230,4482.051282,4200.000000,4651.282051,3967.692308,4026.153846
95,4403.589743,4527.179487,4522.051282,4266.153846,4497.435897,4210.769230,4462.564102,4235.897435,4227.179487,4492.820512,4207.179487,4651.794871,3973.333334,4025.128205
96,4408.717948,4519.487179,4521.538461,4266.153846,4486.666666,4208.717948,4460.512820,4231.794871,4221.538461,4488.205128,4195.384615,4651.282051,3981.025642,4033.846153
97,4411.794871,4511.282051,4525.128205,4274.871794,4487.692307,4208.205128,4460.000000,4231.282051,4221.025641,4479.487179,4196.410256,4655.384615,3982.051283,4046.153846
98,4404.102564,4513.333333,4521.538461,4268.205128,4495.384615,4207.179487,4457.435897,4230.769230,4221.538461,4480.512820,4210.769230,4653.846153,3975.384616,4041.025641
99,4404.102564,4523.076923,4525.641025,4256.410256,4494.358974,4210.256410,4456.410256,4229.230769,4226.153846,4487.692307,4217.948717,4653.333333,3976.410257,4034.871794
100,4409.743589,4525.128205,4529.230769,4260.512820,4490.256410,4207.179487,4453.846153,4228.205128,4232.820512,4490.769230,4211.282051,4656.410256,3978.461539,4035.897435
101,4412.820512,4526.153846,4526.666666,4272.820512,4487.179487,4200.000000,4450.769230,4227.179487,4235.384615,4499.487179,4197.948717,4658.461538,3977.435898,4038.974358
102,4419.487179,4531.794871,4534.871794,4283.076923,4488.205128,4208.717948,4455.897435,4231.794871,4238.461538,4506.666666,4199.487179,4664.615384,3986.666667,4047.692307
103,4421.025641,4529.743589,4538.974358,4288.205128,4493.333333,4218.974358,4461.025641,4234.358974,4235.384615,4490.769230,4214.871794,4667.692307,3991.282052,4048.205128
104,4414.358974,4533.333333,4531.282051,4286.153846,4501.025641,4215.384615,4461.025641,4232.820512,4229.230769,4480.512820,4225.641025,4663.589743,3984.102565,4042.564102
105,4411.282051,4532.820512,4526.666666,4276.923076,4509.743589,4208.717948,4457.435897,4228.205128,4232.307692,4494.358974,4219.487179,4659.487179,3978.974359,4041.025641
106,4410.769230,4517.435897,4524.615384,4270.256410,4506.666666,4205.641025,4453.333333,4223.076923,4230.769230,4501.025641,4212.820512,4655.897435,3976.410257,4041.025641
107,4414.871794,4522.564102,4525.128205,4275.897435,4492.820512,4210.769230,4452.307692,4225.641025,4229.743589,4502.564102,4217.435897,4656.410256,3982.564103,4046.153846
108,4424.615384,4543.076923,4533.333333,4283.589743,4492.307692,4219.487179,4458.461538,4239.487179,4244.615384,4506.666666,4220.512820,4668.205128,3995.384616,4051.794871
109,4427.179487,4543.076923,4536.923076,4283.076923,4501.025641,4220.512820,4468.717948,4249.230769,4253.333333,4504.102564,4221.025641,4676.923076,3993.846154,4051.794871
110,4423.076923,4535.897435,4534.871794,4275.897435,4503.589743,4216.923076,4472.307692,4246.153846,4245.128205,4503.076923,4230.256410,4672.307692,3980.512821,4048.205128
111,4422.564102,4530.769230,4535.897435,4270.256410,4504.102564,4214.871794,4465.641025,4240.000000,4240.512820,4506.153846,4233.846153,4667.179487,3981.538462,4048.205128
112,4425.128205,4522.051282,4536.410256,4274.358974,4501.025641,4213.333333,4459.487179,4237.948717,4241.538461,4503.076923,4223.589743,4669.743589,3990.769231,4049.743589
113,4421.538461,4525.641025,4532.820512,4281.538461,4493.333333,4215.384615,4458.974358,4235.384615,4234.871794,4492.820512,4216.923076,4667.692307,3981.538462,4047.692307
114,4414.358974,4531.282051,4528.205128,4279.487179,4487.692307,4211.794871,4457.948717,4230.256410,4228.717948,4486.666666,4211.282051,4660.000000,3969.230770,4040.512820
115,4417.948717,4525.641025,4524.615384,4276.923076,4490.769230,4205.128205,4456.923076,4229.743589,4230.256410,4489.230769,4202.564102,4656.410256,3977.435898,4042.564102
116,4421.025641,4525.641025,4523.076923,4278.461538,4495.897435,4203.589743,4454.871794,4230.769230,4233.333333,4492.307692,4207.692307,4653.333333,3980.512821,4047.692307
117,4413.846153,4534.358974,4525.128205,4271.282051,4493.846153,4202.564102,4451.282051,4228.205128,4230.256410,4489.230769,4214.358974,4651.794871,3966.153847,4040.000000
118,4411.794871,4538.974358,4532.820512,4265.128205,4489.230769,4209.743589,4457.435897,4230.256410,4234.871794,4493.846153,4214.358974,4659.487179,3967.179488,4036.923076
119,4419.487179,4536.923076,4537.435897,4271.794871,4488.717948,4218.461538,4464.102564,4233.846153,4243.589743,4502.051282,4213.846153,4663.589743,3984.615385,4047.692307
120,4418.974358,4528.205128,4534.358974,4273.846153,4490.769230,4209.743589,4458.974358,4234.871794,4240.000000,4492.820512,4207.179487,4658.974358,3988.205129,4052.820512
121,4412.307692,4522.564102,4530.256410,4269.230769,4490.256410,4200.512820,4456.410256,4232.820512,4236.923076,4491.282051,4207.179487,4657.435897,3982.051283,4048.717948
122,4418.974358,4531.282051,4532.820512,4272.820512,4489.230769,4206.666666,4460.000000,4232.820512,4243.076923,4505.641025,4225.128205,4664.102564,3980.000000,4052.820512
123,4430.256410,4545.641025,4538.461538,4283.076923,4491.282051,4211.794871,4459.487179,4235.384615,4243.076923,4504.615384,4228.717948,4667.179487,3983.589744,4056.923076
124,4423.076923,4538.974358,4531.794871,4277.435897,4497.948717,4203.589743,4456.410256,4231.794871,4232.307692,4490.256410,4211.282051,4656.923076,3985.641026,4042.564102
125,4413.846153,4524.102564,4524.615384,4265.128205,4496.410256,4200.512820,4455.897435,4229.230769,4230.769230,4490.256410,4208.717948,4652.307692,3986.153847,4035.897435
126,4423.589743,4527.179487,4533.846153,4269.230769,4489.230769,4209.230769,4459.487179,4234.358974,4239.487179,4501.025641,4221.025641,4663.589743,3987.179488,4052.307692
127,4428.205128,4536.923076,4540.512820,4280.000000,4490.256410,4216.923076,4460.000000,4234.871794,4247.179487,4504.615384,4231.794871,4666.666666,3988.717949,4061.025641
128,4422.051282,4537.948717,4534.871794,4283.076923,4491.282051,4216.410256,4463.589743,4234.871794,4250.256410,4505.128205,4233.333333,4661.538461,3988.717949,4051.282051
129,4425.641025,4535.384615,4537.948717,4278.974358,4493.846153,4211.794871,4468.717948,4243.589743,4247.692307,4504.102564,4228.205128,4667.692307,3989.230770,4049.743589
130,4432.307692,4537.948717,4543.589743,4280.000000,4502.051282,4215.384615,4470.256410,4246.153846,4247.692307,4508.205128,4235.384615,4674.871794,3997.435898,4060.512820
131,4428.205128,4541.538461,4538.974358,4280.000000,4498.461538,4220.000000,4469.230769,4243.589743,4250.256410,4511.794871,4234.871794,4668.205128,4000.512820,4064.102564
132,4422.051282,4538.974358,4536.410256,4275.384615,4484.615384,4213.333333,4462.564102,4241.538461,4247.692307,4504.615384,4214.358974,4659.487179,3986.666667,4054.358974
133,4422.051282,4533.846153,4535.897435,4279.487179,4488.717948,4207.692307,4455.897435,4236.410256,4244.102564,4503.076923,4217.948717,4660.512820,3981.025642,4047.692307
134,4429.230769,4540.512820,4538.461538,4293.333333,4506.153846,4218.461538,4461.025641,4239.487179,4251.282051,4510.256410,4248.205128,4668.205128,3997.948718,4058.461538
135,4441.025641,4552.820512,4549.230769,4300.512820,4506.153846,4230.256410,4468.205128,4249.743589,4258.461538,4511.794871,4249.230769,4675.384615,4014.358974,4071.282051
136,4442.564102,4550.769230,4553.846153,4290.769230,4493.846153,4223.589743,4463.076923,4248.205128,4252.307692,4507.692307,4234.358974,4677.435897,4013.333333,4067.692307
137,4430.256410,4537.948717,4544.102564,4278.461538,4500.000000,4215.384615,4458.461538,4241.538461,4244.615384,4505.128205,4238.461538,4673.846153,4007.692307,4060.000000
138,4420.512820,4531.794871,4536.923076,4278.461538,4508.205128,4216.410256,4461.025641,4243.589743,4245.641025,4504.615384,4238.461538,4667.692307,4004.615384,4061.538461
139,4426.666666,4536.923076,4541.025641,4286.666666,4498.461538,4218.461538,4464.102564,4249.230769,4254.358974,4516.410256,4233.333333,4667.179487,4004.102564,4063.589743
140,4432.820512,4537.948717,4544.615384,4285.128205,4492.820512,4217.435897,4463.076923,4248.205128,4262.564102,4524.102564,4231.794871,4669.230769,4002.564102,4058.974358
141,4421.025641,4532.820512,4538.461538,4277.948717,4497.435897,4210.769230,4459.487179,4240.512820,4257.435897,4507.179487,4222.564102,4664.102564,4000.000000,4051.794871
142,4411.794871,4530.256410,4531.282051,4277.948717,4493.333333,4203.589743,4456.923076,4229.230769,4237.948717,4489.230769,4216.410256,4655.897435,3997.435898,4046.666666
143,4410.256410,4527.692307,4524.615384,4271.794871,4488.205128,4202.564102,4447.179487,4217.948717,4218.974358,4483.076923,4212.307692,4647.692307,3990.256411,4038.461538
144,4406.666666,4521.538461,4520.000000,4266.153846,4496.410256,4202.564102,4440.512820,4216.923076,4219.487179,4487.179487,4202.051282,4641.025641,3987.179488,4031.794871
145,4405.128205,4517.435897,4526.666666,4278.461538,4496.410256,4198.974358,4448.717948,4226.666666,4231.282051,4494.871794,4204.615384,4642.564102,3988.205129,4035.897435
146,4412.307692,4523.589743,4538.461538,4290.256410,4493.333333,4205.641025,4459.487179,4233.333333,4236.410256,4500.512820,4224.102564,4649.743589,3991.282052,4047.179487
147,4418.461538,4535.897435,4542.051282,4282.564102,4499.487179,4216.923076,4461.025641,4237.948717,4241.538461,4508.717948,4226.153846,4655.897435,4002.564102,4052.307692
148,4416.410256,4538.461538,4540.512820,4273.846153,4497.435897,4211.282051,4459.487179,4242.051282,4248.717948,4512.820512,4209.743589,4655.897435,4009.743589,4050.769230
149,4415.897435,4532.307692,4537.948717,4273.846153,4491.794871,4203.589743,4459.487179,4238.461538,4249.743589,4510.256410,4205.128205,4652.820512,4006.666666,4053.846153
150,4415.384615,4530.256410,4531.794871,4275.384615,4495.897435,4206.153846,4458.974358,4231.282051,4241.025641,4506.666666,4214.358974,4650.769230,4002.051282,4049.230769
151,4408.717948,4529.230769,4525.128205,4276.923076,4502.564102,4207.179487,4456.923076,4232.820512,4233.846153,4498.461538,4220.000000,4644.615384,3995.384616,4038.461538
152,4406.666666,4520.512820,4523.589743,4280.512820,4505.641025,4206.666666,4456.410256,4233.333333,4234.358974,4491.282051,4215.384615,4640.000000,3989.743590,4039.487179
153,4413.333333,4521.538461,4532.307692,4282.051282,4506.153846,4211.794871,4459.487179,4231.794871,4239.487179,4505.128205,4213.333333,4647.179487,3997.435898,4046.153846
154,4413.333333,4533.333333,4535.897435,4277.435897,4494.871794,4214.358974,4461.025641,4236.923076,4244.615384,4515.384615,4217.435897,4651.794871,4005.128205,4046.666666
155,4405.641025,4535.897435,4529.743589,4272.820512,4484.102564,4209.743589,4458.974358,4241.025641,4247.692307,4505.641025,4214.358974,4643.589743,4001.025641,4042.564102
156,4406.666666,4527.179487,4531.794871,4275.384615,4492.820512,4206.666666,4458.974358,4239.487179,4244.615384,4507.179487,4213.846153,4640.000000,3995.897436,4036.923076
157,4413.333333,4520.000000,4534.358974,4281.538461,4496.410256,4203.076923,4458.461538,4234.358974,4232.307692,4508.717948,4222.051282,4647.692307,3992.820513,4036.410256
158,4414.358974,4520.512820,4529.230769,4274.358974,4487.179487,4199.487179,4457.435897,4232.820512,4232.820512,4501.538461,4223.589743,4648.717948,3996.410257,4044.102564
159,4413.333333,4529.230769,4529.743589,4260.512820,4487.692307,4200.000000,4458.974358,4236.410256,4248.717948,4508.205128,4220.000000,4646.153846,4008.205128,4047.692307
160,4413.333333,4535.384615,4532.307692,4265.641025,4497.948717,4203.589743,4458.461538,4234.871794,4245.641025,4511.282051,4216.410256,4645.641025,4006.153846,4043.589743
161,4413.333333,4531.794871,4523.076923,4279.487179,4498.974358,4206.666666,4456.923076,4229.230769,4229.743589,4492.307692,4209.230769,4642.564102,3993.333334,4040.000000
162,4410.256410,4523.076923,4521.538461,4283.076923,4493.333333,4203.589743,4456.923076,4230.256410,4234.358974,4490.769230,4207.692307,4640.000000,3993.333334,4036.410256
163,4403.076923,4517.948717,4526.666666,4277.435897,4488.205128,4199.487179,4452.307692,4229.743589,4240.000000,4507.692307,4212.307692,4636.923076,3996.410257,4035.384615
164,4401.025641,4523.589743,4520.512820,4266.666666,4483.076923,4200.000000,4442.051282,4216.923076,4220.000000,4501.025641,4206.666666,4632.307692,3986.666667,4034.358974
165,4408.717948,4531.794871,4517.948717,4261.025641,4482.051282,4198.461538,4440.512820,4215.384615,4212.820512,4490.769230,4207.179487,4637.948717,3983.076924,4033.333333
166,4419.487179,4528.717948,4532.307692,4273.333333,4490.769230,4201.025641,4454.358974,4232.307692,4241.538461,4509.230769,4221.025641,4651.794871,3998.974359,4041.025641
167,4420.512820,4525.128205,4542.564102,4283.589743,4501.538461,4210.256410,4463.589743,4240.000000,4253.846153,4517.435897,4218.974358,4656.923076,4009.230769,4049.743589
168,4416.410256,4532.307692,4538.461538,4277.435897,4496.923076,4208.717948,4458.461538,4233.333333,4241.538461,4504.102564,4215.384615,4657.435897,4005.641025,4049.743589
169,4422.564102,4539.487179,4542.051282,4277.948717,4488.205128,4204.615384,4455.897435,4235.897435,4245.128205,4512.307692,4229.743589,4664.102564,4010.769230,4054.358974
170,4431.794871,4540.000000,4553.846153,4284.102564,4494.358974,4212.820512,4461.025641,4244.615384,4254.871794,4524.102564,4241.025641,4670.769230,4009.230769,4056.923076
171,4425.641025,4536.923076,4547.692307,4279.487179,4501.025641,4216.410256,4461.025641,4240.512820,4247.179487,4512.307692,4236.410256,4666.666666,3991.794872,4047.692307
172,4410.769230,4528.717948,4534.871794,4276.410256,4493.333333,4205.641025,4452.820512,4232.307692,4235.384615,4504.615384,4220.000000,4655.897435,3985.128206,4041.538461
173,4415.384615,4523.076923,4537.435897,4282.564102,4488.717948,4200.000000,4444.102564,4227.179487,4231.282051,4503.589743,4208.717948,4650.256410,3994.358975,4044.615384
174,4423.076923,4522.564102,4538.974358,4283.076923,4494.871794,4202.564102,4441.025641,4221.025641,4230.256410,4493.333333,4212.307692,4650.769230,3992.820513,4043.589743
175,4415.897435,4526.666666,4528.205128,4278.461538,4492.307692,4204.615384,4449.230769,4221.538461,4234.358974,4492.820512,4219.487179,4654.358974,3981.025642,4043.589743
176,4417.435897,4532.307692,4529.743589,4272.820512,4486.666666,4209.230769,4458.974358,4232.820512,4245.128205,4507.692307,4227.179487,4661.025641,3984.615385,4049.230769
177,4427.692307,4528.205128,4536.410256,4264.615384,4490.256410,4212.820512,4461.538461,4239.487179,4253.333333,4517.948717,4235.897435,4661.025641,4002.564102,4055.897435
178,4423.076923,4521.025641,4531.794871,4266.153846,4493.846153,4210.256410,4456.923076,4234.871794,4245.641025,4509.230769,4230.769230,4654.871794,4009.230769,4053.846153
179,4411.282051,4519.487179,4527.692307,4277.435897,4486.666666,4204.615384,4447.692307,4230.256410,4232.307692,4491.282051,4212.820512,4651.794871,3996.410257,4044.615384
180,4411.282051,4523.589743,4528.717948,4282.051282,4480.512820,4200.512820,4443.589743,4231.794871,4230.256410,4495.384615,4215.897435,4652.307692,3992.820513,4045.641025
181,4421.538461,4532.820512,4526.666666,4277.435897,4489.230769,4202.564102,4445.641025,4230.256410,4233.333333,4512.820512,4227.692307,4650.769230,4002.051282,4053.333333
182,4425.641025,4538.461538,4521.025641,4274.358974,4496.410256,4204.102564,4443.076923,4218.461538,4231.794871,4509.743589,4226.666666,4647.692307,3996.410257,4047.692307
183,4421.025641,4537.948717,4524.102564,4276.410256,4491.794871,4200.000000,4437.435897,4212.820512,4233.333333,4501.025641,4222.051282,4647.692307,3986.153847,4041.538461
184,4421.025641,4536.410256,4533.846153,4284.102564,4487.692307,4198.461538,4439.487179,4227.692307,4236.923076,4503.076923,4221.025641,4650.769230,3990.256411,4050.256410
185,4429.743589,4535.384615,4536.923076,4287.692307,4495.384615,4207.692307,4446.666666,4237.435897,4238.461538,4504.102564,4223.076923,4653.846153,4000.000000,4055.897435
186,4430.256410,4528.205128,4532.820512,4277.948717,4501.025641,4213.846153,4453.846153,4230.256410,4244.102564,4503.076923,4224.615384,4653.846153,4006.153846,4052.820512
187,4421.538461,4526.153846,4531.282051,4271.794871,4500.000000,4211.282051,4458.974358,4233.333333,4249.743589,4505.128205,4225.641025,4655.384615,4009.743589,4052.307692
188,4424.102564,4535.384615,4538.974358,4277.948717,4501.025641,4214.358974,4461.025641,4249.230769,4255.384615,4518.461538,4233.333333,4662.051282,4008.205128,4052.820512
189,4426.153846,4535.384615,4538.974358,4281.538461,4497.435897,4214.871794,4460.000000,4243.589743,4256.923076,4528.205128,4238.461538,4663.589743,3999.487180,4051.282051
190,4418.974358,4526.666666,4534.358974,4277.435897,4489.743589,4208.205128,4457.435897,4229.230769,4249.230769,4516.410256,4224.102564,4657.948717,3991.794872,4049.230769
191,4415.384615,4529.230769,4536.923076,4275.384615,4491.282051,4206.666666,4456.923076,4234.358974,4241.025641,4496.923076,4214.871794,4656.923076,3992.307693,4051.794871
192,4418.461538,4533.333333,4541.538461,4277.435897,4498.974358,4210.256410,4458.974358,4242.564102,4240.000000,4495.897435,4229.743589,4662.564102,3996.410257,4053.846153
193,4414.871794,4522.564102,4540.512820,4274.871794,4500.512820,4208.205128,4460.512820,4238.974358,4242.564102,4510.769230,4228.205128,4661.538461,3991.282052,4046.666666
194,4407.179487,4514.871794,4536.923076,4271.282051,4495.384615,4202.564102,4458.461538,4238.974358,4245.128205,4510.769230,4214.358974,4658.974358,3981.538462,4038.461538
195,4414.871794,4522.051282,4538.974358,4279.487179,4494.358974,4205.641025,4462.051282,4245.641025,4248.205128,4500.000000,4227.179487,4664.615384,3989.230770,4044.615384
196,4430.256410,4527.179487,4543.589743,4286.153846,4495.384615,4214.358974,4473.333333,4251.282051,4254.358974,4509.230769,4237.948717,4670.769230,4006.153846,4059.487179
197,4430.769230,4531.794871,4544.102564,4281.025641,4495.897435,4218.974358,4475.897435,4254.358974,4265.641025,4531.282051,4232.820512,4669.743589,4009.230769,4062.564102
198,4423.076923,4535.897435,4540.000000,4277.948717,4500.512820,4213.846153,4463.076923,4251.282051,4267.179487,4528.205128,4238.461538,4668.205128,3999.487180,4053.846153
199,4424.615384,4535.384615,4542.564102,4283.076923,4500.512820,4212.307692,4456.410256,4248.205128,4256.410256,4511.282051,4240.512820,4671.282051,3997.435898,4053.333333
200,4430.256410,4536.923076,4549.743589,4289.230769,4492.307692,4217.948717,4469.230769,4251.794871,4259.487179,4515.897435,4238.974358,4675.384615,4006.153846,4062.051282
201,4430.769230,4540.000000,4549.230769,4290.769230,4496.923076,4218.974358,4475.897435,4250.256410,4267.179487,4523.076923,4244.615384,4676.923076,4012.307692,4064.615384
202,4429.230769,4543.076923,4549.230769,4292.307692,4510.769230,4218.461538,4465.128205,4246.666666,4258.974358,4514.871794,4235.897435,4674.871794,4011.282051,4063.076923
203,4424.102564,4543.589743,4549.230769,4293.333333,4509.743589,4217.948717,4456.923076,4247.692307,4251.794871,4506.153846,4221.538461,4671.794871,3999.487180,4061.025641
204,4419.487179,4535.897435,4541.538461,4287.692307,4499.487179,4210.769230,4457.948717,4239.487179,4252.307692,4503.076923,4230.256410,4667.179487,3981.025642,4049.743589
205,4422.564102,4527.692307,4537.435897,4282.051282,4493.333333,4204.102564,4458.461538,4232.820512,4249.230769,4503.076923,4238.461538,4665.128205,3986.153847,4045.128205
206,4428.205128,4529.230769,4541.538461,4282.564102,4488.717948,4205.641025,4456.923076,4238.974358,4248.717948,4507.179487,4230.256410,4667.692307,4007.692307,4053.333333
207,4426.666666,4536.410256,4540.000000,4282.564102,4490.256410,4204.615384,4458.461538,4244.102564,4252.820512,4513.333333,4231.282051,4665.128205,4004.615384,4057.948717
208,4421.538461,4539.487179,4535.897435,4283.589743,4491.282051,4206.153846,4459.487179,4243.076923,4255.384615,4513.846153,4235.384615,4660.512820,3989.230770,4052.307692
209,4416.923076,4535.384615,4539.487179,4282.564102,4490.256410,4211.794871,4460.512820,4241.538461,4252.307692,4501.538461,4231.794871,4664.615384,3986.153847,4040.512820
210,4412.307692,4526.153846,4534.871794,4270.256410,4494.358974,4207.179487,4454.871794,4233.846153,4241.538461,4490.769230,4224.615384,4662.564102,3981.025642,4035.897435
211,4408.717948,4525.128205,4527.692307,4269.230769,4495.384615,4201.538461,4444.615384,4226.666666,4234.871794,4498.974358,4221.025641,4650.769230,3981.025642,4041.025641
212,4412.820512,4534.358974,4532.820512,4282.564102,4488.205128,4205.641025,4447.692307,4230.256410,4243.589743,4507.179487,4227.692307,4653.333333,3993.846154,4044.102564
213,4424.615384,4543.076923,4540.000000,4285.128205,4490.769230,4207.692307,4455.897435,4236.410256,4250.769230,4497.435897,4234.871794,4665.128205,3993.846154,4048.717948
214,4427.692307,4541.025641,4539.487179,4281.538461,4500.000000,4202.564102,4449.743589,4232.307692,4244.615384,4490.769230,4232.307692,4665.128205,3986.666667,4052.820512
215,4415.897435,4531.282051,4535.897435,4283.076923,4498.461538,4201.025641,4440.000000,4220.512820,4235.384615,4499.487179,4227.179487,4661.538461,3990.769231,4047.179487
216,4409.743589,4528.717948,4538.974358,4287.692307,4489.230769,4206.153846,4447.692307,4215.384615,4233.333333,4503.076923,4233.846153,4665.641025,3992.307693,4045.641025
217,4423.076923,4537.948717,4548.205128,4292.820512,4487.179487,4212.307692,4460.000000,4228.205128,4242.051282,4501.538461,4245.641025,4671.794871,3992.307693,4058.974358
218,4431.794871,4545.641025,4550.769230,4288.717948,4489.230769,4208.717948,4456.923076,4240.000000,4253.846153,4506.153846,4248.205128,4671.282051,3997.435898,4062.051282
219,4415.384615,4538.974358,4541.025641,4274.358974,4489.230769,4198.461538,4444.102564,4233.846153,4248.205128,4503.076923,4229.743589,4663.589743,3992.307693,4045.641025
220,4396.923076,4526.153846,4532.307692,4272.820512,4493.333333,4199.487179,4442.051282,4227.692307,4236.923076,4489.743589,4212.820512,4656.410256,3981.025642,4036.923076
221,4403.589743,4520.512820,4535.897435,4281.538461,4493.846153,4208.717948,4452.820512,4233.846153,4238.461538,4488.717948,4222.051282,4657.948717,3974.358975,4043.589743
222,4415.384615,4522.564102,4540.512820,4281.025641,4485.641025,4209.743589,4452.820512,4234.871794,4240.000000,4499.487179,4231.282051,4661.025641,3976.410257,4046.666666
223,4412.820512,4527.692307,4536.410256,4276.923076,4484.615384,4203.076923,4443.589743,4228.717948,4241.025641,4503.589743,4224.615384,4659.487179,3985.641026,4041.538461
224,4408.717948,4528.717948,4530.256410,4275.897435,4489.743589,4198.974358,4441.025641,4227.179487,4243.589743,4495.384615,4223.076923,4654.871794,3989.230770,4041.538461
225,4413.333333,4534.358974,4532.820512,4277.948717,4489.743589,4201.538461,4442.564102,4229.743589,4241.538461,4490.256410,4231.794871,4652.307692,3986.153847,4043.589743
226,4422.051282,4548.205128,4541.538461,4287.692307,4492.820512,4209.743589,4449.230769,4233.333333,4243.076923,4498.461538,4235.384615,4658.974358,3993.333334,4047.179487
227,4428.205128,4550.769230,4545.128205,4297.435897,4496.410256,4214.871794,4456.410256,4239.487179,4252.307692,4511.282051,4237.435897,4668.717948,4002.564102,4058.974358
228,4422.051282,4539.487179,4538.974358,4288.717948,4498.461538,4209.743589,4450.256410,4237.948717,4253.846153,4504.102564,4235.384615,4664.615384,3998.974359,4056.923076
229,4411.282051,4533.846153,4531.794871,4272.307692,4501.025641,4199.487179,4438.974358,4228.717948,4242.564102,4485.128205,4226.153846,4651.794871,3985.128206,4042.564102
230,4414.871794,4538.974358,4534.871794,4277.948717,4495.897435,4200.512820,4440.512820,4226.153846,4241.538461,4490.769230,4231.282051,4653.846153,3981.538462,4047.692307
231,4423.076923,4548.717948,4540.512820,4294.871794,4492.307692,4210.769230,4450.256410,4237.435897,4253.846153,4508.205128,4242.051282,4667.179487,3997.948718,4063.589743
232,4424.615384,4550.256410,4544.102564,4298.461538,4497.948717,4216.410256,4456.410256,4243.589743,4262.051282,4510.769230,4234.871794,4669.230769,4008.205128,4062.051282
233,4425.128205,4544.615384,4548.205128,4294.358974,4501.025641,4215.897435,4451.282051,4236.410256,4256.923076,4504.615384,4229.743589,4664.102564,4001.538461,4052.307692
234,4424.102564,4543.589743,4547.179487,4295.897435,4503.589743,4215.897435,4443.589743,4231.282051,4248.205128,4507.692307,4243.076923,4665.128205,3997.948718,4053.333333
235,4413.333333,4543.589743,4538.974358,4290.256410,4506.153846,4210.769230,4444.102564,4229.230769,4242.051282,4509.743589,4246.666666,4661.025641,3989.743590,4052.820512
236,4405.641025,4532.820512,4534.358974,4279.487179,4496.410256,4201.538461,4441.538461,4225.641025,4236.410256,4490.256410,4228.717948,4651.282051,3978.974359,4047.692307
237,4417.435897,4529.743589,4540.512820,4283.589743,4494.358974,4204.615384,4441.538461,4226.666666,4246.666666,4481.025641,4222.564102,4657.948717,3990.256411,4050.769230
238,4433.333333,4549.230769,4551.794871,4289.743589,4508.717948,4218.461538,4455.384615,4236.923076,4266.666666,4503.589743,4238.461538,4673.333333,4008.717948,4065.641025
239,4434.871794,4558.461538,4556.410256,4283.589743,4509.230769,4220.000000,4459.487179,4245.641025,4269.230769,4521.538461,4252.820512,4676.410256,4007.692307,4073.333333
240,4420.512820,4542.051282,4545.128205,4275.384615,4498.974358,4205.641025,4444.615384,4234.871794,4250.256410,4510.769230,4243.076923,4664.615384,3995.384616,4056.923076
241,4410.769230,4536.410256,4536.410256,4277.435897,4494.871794,4197.435897,4437.435897,4217.435897,4237.435897,4496.923076,4226.153846,4654.871794,3989.743590,4043.589743
242,4413.846153,4547.692307,4542.564102,4290.769230,4491.282051,4204.102564,4444.615384,4217.435897,4238.974358,4497.948717,4229.743589,4656.410256,3989.743590,4050.769230
243,4416.410256,4546.153846,4546.666666,4295.384615,4491.794871,4210.769230,4447.692307,4227.179487,4242.564102,4507.179487,4236.410256,4660.000000,3993.846154,4056.923076
244,4409.743589,4534.358974,4540.512820,4281.025641,4500.000000,4208.205128,4444.615384,4225.641025,4241.538461,4507.692307,4224.102564,4655.897435,3999.487180,4050.256410
245,4404.102564,4536.410256,4535.384615,4273.333333,4507.179487,4204.615384,4445.641025,4221.538461,4237.435897,4491.794871,4213.333333,4650.769230,4003.076923,4044.102564
246,4401.538461,4543.076923,4530.769230,4281.025641,4511.282051,4202.564102,4442.564102,4218.974358,4233.846153,4487.692307,4215.897435,4644.615384,3994.358975,4038.461538
247,4395.897435,4532.307692,4524.615384,4276.923076,4503.589743,4195.897435,4433.333333,4211.794871,4234.871794,4502.564102,4218.974358,4640.512820,3983.076924,4030.256410
248,4401.538461,4525.128205,4535.897435,4271.282051,4492.307692,4197.948717,4437.435897,4219.487179,4245.641025,4512.820512,4230.256410,4652.307692,3992.307693,4041.025641
249,4417.948717,4542.564102,4552.307692,4283.589743,4499.487179,4212.307692,4452.820512,4237.435897,4256.410256,4513.333333,4238.461538,4667.692307,4015.897435,4064.102564
250,4418.461538,4557.435897,4546.153846,4284.102564,4509.230769,4214.358974,4452.307692,4234.358974,4249.230769,4511.282051,4220.000000,4666.153846,4018.461538,4061.538461
251,4408.717948,4546.666666,4535.384615,4271.282051,4500.512820,4203.589743,4441.025641,4220.512820,4234.358974,4504.102564,4210.256410,4655.897435,3997.948718,4038.461538
252,4410.769230,4535.897435,4539.487179,4277.948717,4493.846153,4201.538461,4443.589743,4224.615384,4238.461538,4505.128205,4231.794871,4654.358974,3992.307693,4036.923076
253,4410.256410,4541.538461,4542.051282,4291.282051,4505.128205,4205.641025,4451.282051,4233.846153,4248.717948,4512.307692,4240.000000,4658.461538,4005.128205,4050.256410
254,4397.948717,4541.025641,4535.897435,4283.076923,4510.769230,4206.666666,4445.641025,4226.666666,4240.512820,4501.538461,4219.487179,4653.333333,4001.025641,4043.076923
255,4397.948717,4536.923076,4534.358974,4273.846153,4502.051282,4207.692307,4442.051282,4224.615384,4233.333333,4493.333333,4211.794871,4648.717948,3984.615385,4032.307692
256,4412.307692,4540.000000,4539.487179,4281.538461,4502.564102,4213.333333,4448.205128,4234.871794,4240.512820,4506.666666,4219.487179,4656.410256,3991.794872,4037.948717
257,4414.871794,4538.974358,4538.974358,4281.538461,4502.051282,4212.820512,4446.666666,4233.846153,4239.487179,4509.230769,4212.307692,4661.538461,4001.025641,4038.461538
258,4409.743589,4534.871794,4538.461538,4272.307692,4490.256410,4205.128205,4441.538461,4222.051282,4232.820512,4500.000000,4211.282051,4655.897435,3988.205129,4034.358974
259,4412.820512,4543.076923,4545.128205,4277.948717,4494.871794,4207.692307,4446.666666,4227.692307,4240.512820,4504.615384,4232.307692,4656.923076,3992.820513,4047.179487
