,AF3,F7,F3,FC5,T7,P7,O1,O2,P8,T8,FC6,F4,F8,AF4
0,4414.358974,4529.743589,4546.666666,4279.487179,4508.717948,4202.051282,4444.102564,4237.948717,4245.128205,4522.051282,4252.820512,4672.307692,4017.435897,4065.641025
1,4405.641025,4525.641025,4537.948717,4277.435897,4509.230769,4202.051282,4443.589743,4234.358974,4241.025641,4521.025641,4246.666666,4664.102564,4006.666666,4055.897435
2,4394.871794,4523.076923,4534.358974,4269.230769,4507.692307,4200.000000,4433.846153,4230.769230,4231.794871,4510.256410,4235.897435,4661.538461,3998.974359,4044.102564
3,4397.948717,4522.051282,4537.948717,4263.589743,4502.564102,4196.410256,4428.717948,4227.692307,4227.692307,4504.102564,4234.358974,4669.743589,3995.384616,4040.512820
4,4408.205128,4522.564102,4541.538461,4271.282051,4504.102564,4200.000000,4441.025641,4233.333333,4232.820512,4505.641025,4240.000000,4674.358974,3997.948718,4049.230769
5,4409.230769,4524.102564,4541.025641,4275.897435,4508.205128,4204.102564,4447.179487,4236.923076,4240.000000,4507.179487,4235.384615,4672.307692,4003.076923,4056.410256
6,4401.538461,4524.102564,4538.461538,4273.846153,4512.307692,4203.589743,4442.051282,4234.358974,4246.153846,4513.846153,4229.230769,4671.794871,4003.076923,4051.282051
7,4400.000000,4524.615384,4539.487179,4276.923076,4515.897435,4204.615384,4445.128205,4237.435897,4246.666666,4526.666666,4242.051282,4672.820512,4006.153846,4051.282051
8,4398.461538,4522.564102,4540.512820,4273.333333,4510.256410,4203.076923,4444.615384,4237.948717,4240.000000,4524.102564,4249.230769,4667.692307,4006.666666,4052.820512
9,4395.384615,4518.974358,4535.384615,4263.589743,4501.538461,4198.461538,4434.871794,4229.743589,4234.358974,4509.743589,4235.384615,4662.051282,3994.358975,4041.025641
10,4400.512820,4520.512820,4536.410256,4267.179487,4503.589743,4199.487179,4436.410256,4230.769230,4234.358974,4507.692307,4229.743589,4663.076923,3992.307693,4043.076923
11,4403.589743,4524.102564,4540.512820,4274.358974,4508.717948,4202.564102,4444.102564,4234.871794,4233.333333,4511.282051,4236.410256,4665.128205,4004.615384,4056.410256
12,4398.974358,4523.589743,4538.974358,4273.846153,4509.743589,4203.076923,4445.641025,4232.820512,4234.358974,4507.179487,4235.384615,4665.128205,4000.512820,4049.743589
13,4399.487179,4522.564102,4537.948717,4275.384615,4509.743589,4204.102564,4444.615384,4238.974358,4240.512820,4505.641025,4228.717948,4665.641025,3991.794872,4038.461538
14,4402.564102,4523.076923,4537.948717,4277.948717,4510.256410,4205.641025,4443.589743,4242.564102,4239.487179,4509.743589,4229.230769,4665.128205,3995.384616,4045.641025
15,4397.948717,4523.076923,4536.410256,4274.871794,4510.256410,4203.589743,4444.102564,4233.333333,4231.282051,4506.153846,4231.794871,4664.615384,3995.897436,4053.333333
16,4400.000000,4523.076923,4536.923076,4273.846153,4509.230769,4203.589743,4445.641025,4231.282051,4231.282051,4504.102564,4233.333333,4669.743589,3992.307693,4052.307692
17,4410.769230,4525.641025,4538.974358,4276.923076,4510.256410,4204.102564,4443.076923,4235.897435,4235.384615,4510.256410,4233.846153,4671.794871,3999.487180,4052.307692
18,4407.692307,4527.179487,4538.974358,4276.410256,4510.769230,4201.025641,4440.512820,4231.794871,4233.333333,4511.282051,4232.820512,4666.153846,4004.102564,4051.282051
19,4401.025641,4523.589743,4537.435897,4272.820512,4506.666666,4200.000000,4441.538461,4228.717948,4231.794871,4508.205128,4234.358974,4666.153846,4004.102564,4051.794871
20,4408.205128,4526.666666,4538.461538,4272.820512,4513.846153,4202.564102,4443.589743,4231.282051,4232.820512,4508.717948,4235.384615,4671.794871,4007.179487,4056.923076
21,4413.846153,4534.358974,4540.512820,4277.435897,4523.076923,4203.589743,4443.589743,4231.282051,4231.794871,4506.153846,4233.333333,4675.384615,4004.615384,4060.000000
22,4406.666666,4530.256410,4538.974358,4280.000000,4512.820512,4202.564102,4443.076923,4231.794871,4231.282051,4506.153846,4231.282051,4670.769230,3999.487180,4059.487179
23,4403.076923,4522.564102,4536.410256,4274.871794,4506.666666,4202.564102,4443.589743,4234.358974,4233.333333,4513.846153,4230.769230,4665.128205,4001.025641,4058.461538
24,4407.692307,4525.641025,4538.461538,4270.256410,4516.410256,4203.076923,4445.641025,4235.897435,4235.897435,4514.871794,4231.282051,4668.205128,4004.615384,4055.384615
25,4408.205128,4528.717948,4536.410256,4270.256410,4515.384615,4203.589743,4442.051282,4234.358974,4235.384615,4508.205128,4234.358974,4671.282051,4001.538461,4049.743589
26,4398.461538,4522.564102,4530.769230,4266.153846,4504.615384,4201.538461,4435.384615,4230.256410,4232.307692,4505.641025,4229.230769,4664.615384,3993.846154,4048.717948
27,4394.871794,4520.512820,4534.358974,4263.076923,4506.153846,4198.974358,4437.948717,4228.205128,4229.743589,4506.666666,4217.948717,4664.102564,3995.384616,4052.820512
28,4405.128205,4527.692307,4542.564102,4268.717948,4510.769230,4202.564102,4445.128205,4231.794871,4232.307692,4507.692307,4223.076923,4675.384615,4006.666666,4059.487179
29,4407.692307,4530.256410,4539.487179,4270.256410,4508.205128,4206.153846,4444.102564,4233.333333,4234.871794,4508.717948,4234.871794,4677.435897,4006.153846,4061.025641
30,4396.923076,4523.589743,4532.820512,4264.615384,4507.179487,4203.589743,4441.538461,4229.230769,4231.794871,4506.666666,4232.307692,4670.256410,3992.307693,4052.307692
31,4397.948717,4521.025641,4535.384615,4267.179487,4511.794871,4202.051282,4443.076923,4233.333333,4235.897435,4504.615384,4228.205128,4670.769230,3993.846154,4050.256410
32,4404.102564,4526.666666,4542.564102,4272.820512,4524.102564,4204.102564,4445.128205,4245.641025,4248.205128,4508.717948,4231.794871,4676.923076,4007.692307,4061.025641
33,4393.846153,4525.641025,4535.384615,4267.692307,4523.589743,4203.076923,4444.615384,4247.179487,4247.179487,4510.256410,4224.615384,4671.282051,4000.000000,4059.487179
34,4385.641025,4519.487179,4526.666666,4261.538461,4506.666666,4200.000000,4442.564102,4234.871794,4234.358974,4507.179487,4214.871794,4661.025641,3983.589744,4046.666666
35,4396.410256,4522.051282,4530.769230,4265.128205,4503.076923,4200.000000,4441.538461,4229.230769,4228.717948,4508.205128,4221.025641,4665.641025,3989.230770,4047.179487
36,4401.538461,4525.128205,4529.743589,4266.666666,4510.769230,4202.051282,4443.589743,4230.769230,4230.769230,4510.769230,4229.743589,4672.307692,4000.000000,4056.923076
37,4393.846153,4523.589743,4524.615384,4263.076923,4510.256410,4201.025641,4443.076923,4229.230769,4231.794871,4506.153846,4229.230769,4668.205128,3998.461539,4059.487179
38,4396.410256,4528.205128,4531.282051,4267.692307,4514.871794,4200.512820,4442.564102,4229.743589,4236.923076,4509.230769,4230.256410,4667.179487,4002.051282,4058.461538
39,4409.743589,4535.897435,4541.025641,4274.871794,4523.076923,4202.051282,4444.615384,4232.307692,4244.615384,4522.051282,4234.871794,4673.333333,4005.128205,4060.512820
40,4412.307692,4537.948717,4535.384615,4271.282051,4515.897435,4201.538461,4444.102564,4233.333333,4248.717948,4527.179487,4232.820512,4671.794871,3998.974359,4060.512820
41,4402.051282,4534.358974,4525.641025,4263.589743,4503.589743,4201.025641,4443.589743,4233.846153,4245.128205,4520.000000,4225.128205,4664.615384,3995.384616,4058.461538
42,4395.897435,4527.692307,4529.743589,4264.615384,4510.769230,4202.051282,4445.128205,4234.358974,4238.461538,4511.282051,4219.487179,4662.564102,3995.384616,4061.538461
43,4395.897435,4521.538461,4531.794871,4269.743589,4521.025641,4204.102564,4445.128205,4232.820512,4233.846153,4505.128205,4217.435897,4662.051282,3988.717949,4055.897435
44,4396.410256,4526.153846,4530.256410,4271.794871,4522.564102,4207.179487,4445.128205,4234.358974,4233.846153,4502.564102,4218.974358,4661.025641,3985.128206,4045.641025
45,4400.000000,4536.410256,4532.820512,4272.820512,4523.589743,4214.871794,4446.666666,4236.410256,4235.897435,4508.205128,4218.974358,4661.025641,3987.692308,4053.333333
46,4400.512820,4537.948717,4531.794871,4275.384615,4525.128205,4214.358974,4445.641025,4232.820512,4234.358974,4515.897435,4214.871794,4658.974358,3987.179488,4060.512820
47,4396.923076,4535.384615,4527.179487,4272.820512,4522.051282,4205.641025,4444.102564,4228.717948,4233.846153,4513.333333,4215.897435,4655.897435,3987.692308,4054.358974
48,4393.846153,4534.358974,4529.230769,4266.153846,4517.948717,4200.512820,4444.615384,4228.717948,4234.358974,4505.128205,4220.000000,4656.923076,3989.743590,4053.846153
49,4395.384615,4533.846153,4534.358974,4265.128205,4519.487179,4200.512820,4442.051282,4230.256410,4232.307692,4505.128205,4216.410256,4661.538461,3991.282052,4061.025641
50,4406.153846,4535.384615,4535.384615,4272.820512,4523.589743,4206.153846,4445.641025,4232.307692,4234.871794,4511.794871,4211.794871,4669.230769,3996.923077,4061.025641
51,4413.846153,4539.487179,4540.000000,4277.435897,4524.615384,4214.871794,4454.358974,4234.358974,4235.897435,4509.230769,4220.512820,4671.282051,3997.948718,4059.487179
52,4407.179487,4541.538461,4541.538461,4277.435897,4524.615384,4213.333333,4452.307692,4233.333333,4232.820512,4504.615384,4228.717948,4667.179487,3994.871795,4061.025641
53,4403.589743,4542.051282,4539.487179,4279.487179,4524.615384,4206.153846,4444.615384,4233.333333,4236.923076,4511.282051,4225.641025,4667.692307,4001.025641,4067.179487
54,4410.769230,4540.512820,4540.000000,4279.487179,4524.102564,4210.769230,4448.205128,4238.461538,4245.128205,4520.000000,4227.692307,4669.230769,4004.102564,4074.358974
55,4407.692307,4537.948717,4537.948717,4274.871794,4524.102564,4216.923076,4457.948717,4244.102564,4245.641025,4522.051282,4231.282051,4664.615384,3996.410257,4066.666666
56,4395.384615,4538.461538,4534.358974,4274.358974,4526.153846,4214.358974,4460.000000,4247.179487,4248.205128,4518.974358,4227.692307,4663.076923,3994.871795,4053.846153
57,4389.743589,4534.871794,4531.282051,4271.282051,4524.615384,4214.871794,4459.487179,4247.179487,4246.153846,4513.333333,4216.410256,4662.564102,3993.846154,4051.282051
58,4387.692307,4525.641025,4526.666666,4266.666666,4524.102564,4217.948717,4460.000000,4246.153846,4233.846153,4505.128205,4205.128205,4654.358974,3980.512821,4050.769230
59,4386.153846,4521.538461,4523.589743,4263.076923,4525.128205,4217.948717,4461.538461,4245.641025,4233.846153,4500.000000,4205.128205,4647.179487,3969.230770,4048.717948
60,4385.128205,4524.102564,4522.051282,4254.358974,4517.948717,4215.897435,4460.512820,4247.692307,4247.179487,4503.589743,4215.384615,4649.743589,3974.358975,4047.179487
61,4382.051282,4523.076923,4517.948717,4251.282051,4507.179487,4214.871794,4460.000000,4251.282051,4251.794871,4516.410256,4219.487179,4654.871794,3981.538462,4039.487179
62,4380.512820,4520.000000,4513.333333,4260.000000,4506.153846,4212.820512,4462.051282,4249.230769,4248.717948,4515.384615,4212.820512,4653.333333,3977.948718,4037.435897
63,4381.538461,4520.000000,4512.307692,4264.102564,4508.717948,4207.179487,4457.435897,4238.461538,4240.512820,4495.384615,4207.692307,4641.025641,3970.769231,4046.153846
64,4381.025641,4521.538461,4511.282051,4258.974358,4507.692307,4202.564102,4447.179487,4229.230769,4231.282051,4490.769230,4202.564102,4633.333333,3969.230770,4048.205128
65,4385.641025,4522.564102,4513.846153,4262.051282,4507.692307,4202.051282,4443.076923,4229.230769,4231.794871,4502.051282,4198.461538,4640.512820,3972.307693,4043.076923
66,4393.333333,4530.769230,4518.461538,4266.153846,4513.333333,4205.128205,4445.128205,4231.794871,4236.923076,4502.564102,4206.153846,4647.179487,3975.384616,4042.051282
67,4394.871794,4538.461538,4524.102564,4265.641025,4519.487179,4213.333333,4446.153846,4228.717948,4232.820512,4500.512820,4214.871794,4646.666666,3983.589744,4049.230769
68,4401.538461,4538.461538,4531.282051,4271.794871,4523.076923,4215.384615,4447.179487,4230.256410,4233.846153,4508.205128,4218.461538,4656.923076,3990.769231,4065.641025
69,4411.794871,4538.974358,4534.871794,4274.358974,4523.589743,4206.153846,4448.205128,4235.384615,4244.102564,4513.333333,4221.538461,4665.641025,3991.794872,4074.871794
70,4405.641025,4537.948717,4527.179487,4268.717948,4516.923076,4199.487179,4444.102564,4227.179487,4235.897435,4505.641025,4216.923076,4653.846153,3984.615385,4060.000000
71,4389.743589,4527.179487,4519.487179,4262.564102,4509.743589,4200.512820,4441.538461,4219.487179,4221.538461,4493.333333,4204.102564,4643.589743,3975.897436,4046.153846
72,4380.512820,4517.435897,4517.435897,4256.410256,4505.641025,4199.487179,4442.564102,4222.051282,4224.102564,4488.205128,4202.564102,4645.641025,3972.820513,4048.717948
73,4383.076923,4521.538461,4515.897435,4254.871794,4506.666666,4199.487179,4444.102564,4226.153846,4233.333333,4495.384615,4212.820512,4645.128205,3972.820513,4053.846153
74,4393.333333,4534.358974,4522.051282,4263.076923,4517.435897,4203.589743,4446.666666,4229.230769,4239.487179,4504.615384,4218.461538,4646.666666,3978.461539,4057.435897
75,4396.410256,4538.974358,4527.179487,4266.153846,4521.025641,4204.102564,4447.179487,4232.307692,4239.487179,4506.666666,4215.897435,4649.743589,3983.076924,4059.487179
76,4388.205128,4531.794871,4521.538461,4262.564102,4515.384615,4201.538461,4443.076923,4232.307692,4235.384615,4505.641025,4215.384615,4643.076923,3979.487180,4057.948717
77,4382.564102,4524.615384,4517.435897,4261.538461,4516.410256,4200.512820,4443.076923,4230.256410,4236.923076,4508.205128,4216.410256,4639.487179,3972.307693,4053.333333
78,4378.974358,4521.025641,4514.871794,4256.923076,4514.358974,4201.025641,4445.128205,4225.128205,4234.358974,4502.051282,4206.666666,4638.461538,3970.769231,4042.564102
79,4376.923076,4517.948717,4509.230769,4253.333333,4502.564102,4200.000000,4442.051282,4215.897435,4223.589743,4488.205128,4199.487179,4634.358974,3971.282052,4037.948717
80,4383.589743,4521.025641,4512.307692,4260.000000,4508.717948,4199.487179,4440.512820,4216.410256,4224.102564,4494.358974,4210.769230,4638.461538,3977.435898,4052.820512
81,4389.230769,4527.179487,4521.538461,4264.102564,4524.102564,4203.589743,4445.128205,4226.666666,4237.948717,4511.794871,4227.692307,4647.692307,3987.179488,4065.128205
82,4390.769230,4523.589743,4524.615384,4262.051282,4522.564102,4207.179487,4446.153846,4230.769230,4239.487179,4515.384615,4229.743589,4650.769230,3987.179488,4059.487179
83,4394.358974,4524.102564,4529.230769,4265.128205,4519.487179,4206.666666,4443.589743,4230.256410,4238.461538,4517.948717,4231.282051,4652.820512,3985.128206,4057.435897
84,4400.000000,4532.307692,4534.871794,4268.717948,4525.641025,4204.102564,4443.589743,4233.333333,4242.564102,4522.564102,4236.410256,4657.948717,3990.769231,4063.589743
85,4396.923076,4529.230769,4531.282051,4266.666666,4520.000000,4202.051282,4443.076923,4228.717948,4239.487179,4510.256410,4231.794871,4657.435897,3993.846154,4055.897435
86,4389.743589,4519.487179,4528.205128,4265.128205,4508.717948,4201.538461,4441.538461,4220.512820,4232.307692,4501.538461,4228.205128,4654.871794,3988.717949,4046.666666
87,4393.333333,4521.025641,4535.897435,4268.717948,4514.871794,4203.076923,4442.564102,4222.564102,4232.307692,4512.307692,4233.846153,4657.435897,3984.615385,4055.897435
88,4397.435897,4522.051282,4538.461538,4269.230769,4520.512820,4203.589743,4444.615384,4226.666666,4236.923076,4515.897435,4230.256410,4657.435897,3987.179488,4058.461538
89,4388.717948,4510.769230,4528.205128,4264.615384,4513.333333,4203.076923,4446.153846,4221.538461,4233.846153,4506.153846,4217.948717,4651.794871,3989.743590,4040.512820
90,4382.564102,4504.615384,4524.102564,4263.076923,4514.358974,4205.128205,4445.128205,4218.461538,4227.692307,4502.564102,4217.948717,4646.666666,3984.615385,4031.282051
91,4383.589743,4508.205128,4529.230769,4265.128205,4524.615384,4205.641025,4444.102564,4219.487179,4230.256410,4507.179487,4226.666666,4649.743589,3976.410257,4037.435897
92,4381.538461,4507.692307,4529.743589,4263.076923,4522.051282,4201.025641,4442.051282,4217.435897,4231.794871,4507.692307,4225.128205,4653.846153,3973.333334,4038.461538
93,4383.589743,4507.179487,4530.256410,4262.564102,4516.410256,4205.641025,4442.564102,4219.487179,4230.256410,4505.128205,4217.948717,4655.897435,3978.974359,4041.538461
94,4393.333333,4510.769230,4533.846153,4268.717948,4522.051282,4216.923076,4451.282051,4228.205128,4230.769230,4507.692307,4222.051282,4661.538461,3985.641026,4045.128205
95,4392.820512,4510.256410,4533.846153,4270.256410,4524.102564,4216.923076,4452.307692,4230.256410,4232.820512,4511.282051,4228.205128,4661.025641,3982.564103,4037.948717
96,4381.025641,4506.153846,4532.307692,4265.641025,4523.589743,4210.256410,4443.589743,4222.051282,4230.256410,4505.641025,4226.153846,4654.871794,3974.871795,4031.794871
97,4383.076923,4507.179487,4537.948717,4269.230769,4522.564102,4214.358974,4443.076923,4221.025641,4229.230769,4507.179487,4228.205128,4661.025641,3978.461539,4042.564102
98,4394.871794,4509.743589,4540.512820,4275.384615,4521.025641,4217.435897,4450.769230,4235.384615,4234.358974,4521.025641,4235.384615,4673.333333,3987.179488,4052.307692
99,4393.333333,4510.769230,4539.487179,4270.769230,4523.076923,4207.179487,4445.128205,4236.410256,4235.384615,4518.974358,4234.358974,4670.256410,3988.205129,4047.179487
100,4386.666666,4512.307692,4538.974358,4265.641025,4518.461538,4199.487179,4430.769230,4220.000000,4228.717948,4502.051282,4227.179487,4662.051282,3983.076924,4041.025641
101,4389.230769,4515.897435,4538.461538,4268.205128,4512.307692,4201.025641,4426.666666,4213.333333,4226.666666,4501.538461,4231.282051,4667.179487,3984.102565,4042.564102
102,4390.769230,4518.974358,4541.025641,4268.205128,4515.897435,4202.051282,4430.256410,4217.435897,4230.769230,4509.743589,4233.846153,4670.256410,3989.743590,4048.205128
103,4387.692307,4520.000000,4538.974358,4261.025641,4521.538461,4198.974358,4430.256410,4215.384615,4227.692307,4506.153846,4222.564102,4665.128205,3986.666667,4051.282051
104,4392.307692,4521.025641,4535.384615,4260.000000,4520.512820,4197.948717,4426.666666,4213.333333,4219.487179,4504.615384,4215.897435,4662.564102,3977.435898,4046.666666
105,4397.948717,4522.051282,4536.410256,4269.230769,4520.512820,4200.000000,4427.692307,4215.384615,4223.589743,4507.692307,4225.641025,4664.102564,3974.358975,4041.025641
106,4396.410256,4524.102564,4541.025641,4274.358974,4524.102564,4203.076923,4433.333333,4217.948717,4233.846153,4507.179487,4234.358974,4666.153846,3977.435898,4041.538461
107,4391.282051,4523.076923,4540.512820,4268.717948,4522.564102,4202.051282,4433.846153,4218.974358,4234.871794,4512.820512,4228.717948,4663.076923,3978.974359,4049.743589
108,4391.282051,4521.025641,4538.974358,4265.641025,4517.948717,4198.461538,4431.282051,4217.435897,4230.256410,4519.487179,4223.589743,4661.025641,3976.410257,4052.820512
109,4398.974358,4524.102564,4544.102564,4275.897435,4522.051282,4202.564102,4438.461538,4223.589743,4235.897435,4522.564102,4230.256410,4669.743589,3977.948718,4046.666666
110,4400.512820,4527.179487,4545.128205,4280.512820,4525.641025,4205.641025,4443.589743,4230.769230,4242.564102,4521.538461,4232.820512,4670.769230,3983.589744,4041.538461
111,4390.769230,4524.102564,4537.948717,4270.769230,4520.512820,4200.000000,4432.820512,4222.564102,4236.410256,4512.307692,4222.051282,4658.974358,3985.128206,4046.153846
112,4385.128205,4520.512820,4532.820512,4262.564102,4520.000000,4197.435897,4427.179487,4214.871794,4229.230769,4509.743589,4219.487179,4656.923076,3983.589744,4048.717948
113,4383.076923,4521.025641,4530.256410,4263.076923,4521.025641,4200.512820,4433.333333,4219.487179,4230.769230,4516.923076,4227.179487,4660.512820,3981.025642,4043.076923
114,4377.435897,4521.025641,4523.589743,4263.076923,4511.794871,4201.538461,4437.435897,4221.538461,4233.846153,4510.769230,4223.076923,4651.282051,3975.384616,4038.974358
115,4374.871794,4517.435897,4518.974358,4260.000000,4510.769230,4200.000000,4438.974358,4222.564102,4230.256410,4504.615384,4214.871794,4643.589743,3971.794872,4032.820512
116,4377.435897,4521.025641,4523.076923,4263.076923,4521.025641,4198.974358,4442.051282,4230.256410,4231.794871,4518.461538,4215.384615,4649.743589,3977.435898,4031.794871
117,4387.692307,4534.358974,4532.820512,4272.820512,4529.230769,4207.179487,4442.564102,4235.384615,4244.102564,4527.179487,4219.487179,4659.487179,3989.743590,4047.692307
118,4397.948717,4543.589743,4541.538461,4280.512820,4536.410256,4217.948717,4445.641025,4234.358974,4249.230769,4523.076923,4230.256410,4666.153846,4001.538461,4064.615384
119,4398.461538,4542.051282,4541.538461,4281.538461,4535.897435,4211.794871,4446.153846,4233.333333,4240.000000,4524.615384,4235.897435,4666.153846,3999.487180,4065.641025
120,4398.461538,4537.435897,4537.435897,4278.974358,4521.025641,4197.435897,4440.000000,4227.692307,4236.923076,4522.051282,4228.205128,4663.076923,3990.769231,4057.948717
121,4410.256410,4543.076923,4544.615384,4280.000000,4515.384615,4201.538461,4442.051282,4231.282051,4248.205128,4524.102564,4233.333333,4671.282051,4001.538461,4061.538461
122,4416.410256,4554.358974,4554.358974,4282.564102,4530.256410,4216.923076,4449.743589,4243.076923,4253.846153,4538.461538,4251.282051,4682.564102,4014.871794,4075.897435
123,4412.307692,4554.358974,4549.230769,4282.051282,4536.923076,4220.000000,4449.743589,4242.051282,4250.769230,4538.974358,4251.282051,4676.923076,4012.307692,4078.974358
124,4407.692307,4543.076923,4540.512820,4278.974358,4527.179487,4208.205128,4443.589743,4230.769230,4242.564102,4523.589743,4236.923076,4666.666666,4003.589743,4061.538461
125,4400.512820,4536.410256,4535.384615,4275.897435,4518.974358,4200.512820,4438.461538,4227.692307,4233.846153,4521.025641,4228.717948,4665.128205,3990.256411,4044.102564
126,4396.410256,4541.025641,4533.333333,4276.923076,4523.589743,4203.076923,4438.461538,4231.794871,4231.794871,4523.076923,4228.717948,4664.102564,3984.615385,4049.230769
127,4395.897435,4541.538461,4534.358974,4278.461538,4524.102564,4203.076923,4440.512820,4228.717948,4234.358974,4508.717948,4231.794871,4659.487179,3992.820513,4061.538461
128,4393.846153,4536.410256,4537.435897,4278.461538,4523.589743,4204.102564,4442.564102,4228.205128,4236.410256,4504.102564,4228.717948,4661.538461,3991.794872,4057.435897
129,4399.487179,4535.384615,4543.589743,4277.948717,4531.282051,4214.871794,4444.102564,4234.358974,4237.948717,4517.948717,4220.000000,4666.666666,3984.102565,4049.743589
130,4408.717948,4542.051282,4549.230769,4282.051282,4531.794871,4218.461538,4445.128205,4235.897435,4237.948717,4526.666666,4222.564102,4668.205128,3989.743590,4055.384615
131,4403.589743,4540.000000,4547.179487,4283.076923,4523.076923,4204.102564,4444.615384,4233.333333,4235.384615,4518.974358,4224.102564,4664.615384,3989.743590,4061.025641
132,4394.358974,4525.128205,4541.025641,4272.307692,4519.487179,4197.948717,4442.564102,4231.282051,4232.820512,4509.230769,4212.820512,4661.538461,3976.923077,4058.461538
133,4397.435897,4522.564102,4542.051282,4267.692307,4523.589743,4209.230769,4444.102564,4233.333333,4235.897435,4507.179487,4214.871794,4665.641025,3980.000000,4058.461538
134,4404.102564,4534.358974,4548.205128,4275.897435,4524.102564,4211.282051,4446.153846,4235.384615,4243.076923,4508.205128,4228.717948,4671.282051,3990.256411,4055.897435
135,4403.589743,4538.461538,4545.128205,4280.000000,4523.076923,4205.128205,4446.153846,4234.871794,4242.051282,4511.282051,4225.128205,4666.666666,3980.000000,4049.230769
136,4401.025641,4535.897435,4540.000000,4278.461538,4528.717948,4209.230769,4445.128205,4230.769230,4232.307692,4515.897435,4210.769230,4660.000000,3969.230770,4052.307692
137,4403.076923,4540.512820,4546.666666,4282.564102,4537.435897,4216.923076,4444.615384,4230.256410,4233.333333,4521.025641,4215.897435,4661.538461,3979.487180,4065.128205
138,4407.179487,4543.076923,4550.769230,4286.153846,4536.410256,4214.871794,4446.153846,4231.282051,4241.538461,4520.000000,4225.641025,4666.153846,3991.282052,4066.666666
139,4408.205128,4541.025641,4542.051282,4283.589743,4525.128205,4212.307692,4446.153846,4230.256410,4242.051282,4515.384615,4222.051282,4664.615384,3991.794872,4060.000000
140,4405.641025,4542.051282,4537.948717,4281.538461,4522.564102,4212.307692,4446.153846,4231.794871,4243.076923,4520.512820,4223.076923,4664.102564,3988.205129,4058.974358
141,4398.461538,4540.512820,4542.051282,4277.948717,4526.666666,4206.666666,4444.615384,4232.820512,4242.051282,4522.051282,4229.743589,4664.102564,3987.179488,4057.948717
142,4392.820512,4536.410256,4537.948717,4277.435897,4524.615384,4201.025641,4441.025641,4230.769230,4236.923076,4515.897435,4228.205128,4662.564102,3990.256411,4060.512820
143,4400.000000,4538.461538,4537.435897,4278.974358,4522.564102,4203.589743,4441.538461,4232.820512,4241.538461,4517.435897,4227.692307,4664.615384,3992.820513,4069.230769
144,4406.666666,4542.051282,4540.512820,4276.923076,4523.589743,4205.641025,4444.615384,4235.897435,4247.179487,4522.051282,4231.282051,4666.666666,3989.230770,4070.256410
145,4399.487179,4539.487179,4535.897435,4274.871794,4520.512820,4200.000000,4440.000000,4232.820512,4238.461538,4513.333333,4225.641025,4662.564102,3983.589744,4056.923076
146,4392.307692,4536.410256,4534.871794,4277.435897,4517.948717,4197.435897,4432.307692,4228.717948,4225.641025,4503.076923,4218.461538,4660.000000,3988.205129,4054.358974
147,4397.435897,4540.000000,4538.461538,4281.538461,4523.076923,4202.564102,4438.461538,4228.717948,4232.820512,4511.794871,4224.102564,4665.128205,3999.487180,4069.743589
148,4403.589743,4542.564102,4541.538461,4281.025641,4524.615384,4205.128205,4447.179487,4231.282051,4246.153846,4523.589743,4229.743589,4668.205128,4001.538461,4072.307692
149,4401.538461,4541.025641,4537.435897,4280.000000,4522.564102,4203.076923,4443.076923,4232.820512,4242.564102,4516.923076,4233.333333,4665.641025,3991.282052,4061.538461
150,4397.435897,4539.487179,4532.307692,4280.000000,4521.538461,4202.051282,4439.487179,4229.743589,4232.820512,4507.179487,4231.282051,4660.000000,3983.589744,4055.897435
151,4394.871794,4537.435897,4534.871794,4278.461538,4520.512820,4202.051282,4442.051282,4227.179487,4235.384615,4514.358974,4224.102564,4657.435897,3988.717949,4060.512820
152,4398.974358,4542.564102,4544.615384,4280.512820,4522.564102,4203.589743,4443.076923,4229.743589,4247.179487,4526.666666,4224.615384,4663.076923,3996.410257,4069.743589
153,4409.743589,4556.923076,4549.743589,4287.179487,4527.179487,4208.717948,4444.615384,4235.384615,4251.282051,4525.128205,4232.820512,4671.282051,3997.948718,4078.461538
154,4415.897435,4554.871794,4547.692307,4287.692307,4526.153846,4208.205128,4445.128205,4233.333333,4244.615384,4516.923076,4235.897435,4672.820512,3994.358975,4075.384615
155,4414.871794,4542.051282,4546.666666,4282.051282,4523.076923,4202.051282,4444.102564,4223.589743,4235.897435,4508.717948,4229.230769,4666.153846,3990.769231,4063.589743
156,4409.743589,4546.666666,4542.051282,4278.974358,4524.102564,4202.051282,4443.076923,4217.948717,4231.794871,4504.615384,4218.974358,4659.487179,3987.692308,4066.153846
157,4404.102564,4556.923076,4536.923076,4281.025641,4522.564102,4201.538461,4438.974358,4217.435897,4232.820512,4505.641025,4211.794871,4655.897435,3984.615385,4073.333333
158,4406.153846,4554.871794,4537.435897,4284.615384,4521.538461,4205.128205,4437.948717,4218.461538,4233.846153,4512.307692,4222.051282,4657.948717,3988.717949,4071.794871
159,4409.230769,4549.230769,4540.000000,4286.153846,4524.615384,4211.794871,4443.076923,4218.974358,4234.358974,4516.410256,4233.333333,4661.025641,3995.384616,4068.717948
160,4405.641025,4546.153846,4536.410256,4280.512820,4524.615384,4209.743589,4444.102564,4215.384615,4233.333333,4512.820512,4224.102564,4657.948717,3992.307693,4064.615384
161,4404.615384,4550.256410,4534.871794,4280.512820,4523.076923,4208.205128,4441.538461,4216.410256,4235.897435,4513.333333,4218.974358,4654.871794,3989.230770,4067.692307
162,4407.179487,4556.923076,4540.000000,4292.307692,4525.641025,4209.743589,4443.589743,4222.051282,4239.487179,4517.435897,4229.743589,4660.000000,3997.948718,4076.410256
163,4407.179487,4556.923076,4540.000000,4297.435897,4522.564102,4203.076923,4444.102564,4218.974358,4234.358974,4510.769230,4233.846153,4662.564102,4004.102564,4074.358974
164,4411.794871,4562.051282,4540.512820,4293.333333,4519.487179,4204.615384,4441.025641,4218.461538,4234.871794,4510.256410,4233.846153,4661.025641,4004.102564,4072.820512
165,4418.461538,4571.794871,4546.666666,4293.846153,4529.230769,4217.948717,4446.153846,4230.769230,4247.692307,4529.230769,4247.179487,4664.615384,4007.179487,4087.179487
166,4414.871794,4563.589743,4546.666666,4292.307692,4538.974358,4220.000000,4456.923076,4235.897435,4251.282051,4538.974358,4250.769230,4666.153846,4009.743589,4089.230769
167,4404.102564,4549.743589,4541.025641,4282.564102,4535.384615,4216.923076,4463.076923,4231.794871,4247.692307,4530.256410,4237.948717,4665.128205,4005.128205,4077.435897
168,4399.487179,4548.205128,4539.487179,4275.384615,4524.615384,4219.487179,4456.410256,4230.769230,4248.205128,4513.846153,4231.282051,4663.076923,3992.307693,4070.256410
169,4406.666666,4550.256410,4540.000000,4277.948717,4516.923076,4215.384615,4443.589743,4230.256410,4244.102564,4505.641025,4230.769230,4657.435897,3987.692308,4070.256410
170,4415.384615,4556.923076,4546.153846,4290.256410,4522.564102,4215.384615,4446.153846,4228.717948,4240.000000,4514.871794,4231.794871,4660.000000,4001.025641,4076.410256
171,4417.948717,4567.179487,4551.282051,4302.051282,4536.410256,4220.000000,4454.358974,4231.282051,4249.230769,4527.179487,4238.461538,4671.282051,4008.717948,4083.076923
172,4416.410256,4569.230769,4548.717948,4301.025641,4538.461538,4218.974358,4455.384615,4238.461538,4262.051282,4535.897435,4245.128205,4670.256410,4004.615384,4086.153846
173,4417.948717,4568.205128,4545.641025,4295.897435,4530.256410,4216.410256,4453.846153,4245.128205,4264.102564,4538.461538,4249.743589,4662.564102,4012.820512,4089.743589
174,4421.025641,4571.794871,4544.102564,4296.923076,4529.230769,4219.487179,4449.743589,4240.000000,4257.435897,4530.256410,4247.179487,4663.076923,4020.000000,4089.230769
175,4416.923076,4563.589743,4536.410256,4293.846153,4526.153846,4214.358974,4443.589743,4229.743589,4245.128205,4517.948717,4234.358974,4658.461538,4005.641025,4076.410256
176,4409.230769,4553.846153,4532.820512,4287.692307,4517.435897,4204.102564,4440.000000,4228.717948,4239.487179,4516.410256,4231.282051,4650.256410,4002.051282,4071.794871
177,4413.846153,4563.076923,4542.564102,4292.307692,4517.948717,4209.230769,4443.589743,4232.820512,4244.615384,4522.051282,4244.615384,4661.025641,4016.923076,4082.051282
178,4428.205128,4575.384615,4550.256410,4299.487179,4525.128205,4219.487179,4451.282051,4234.871794,4249.230769,4525.128205,4250.256410,4676.923076,4023.589743,4092.307692
179,4435.384615,4574.871794,4555.897435,4298.974358,4527.179487,4220.000000,4455.897435,4233.846153,4249.743589,4522.564102,4247.692307,4677.435897,4019.487179,4095.897435
180,4431.794871,4568.205128,4556.410256,4294.871794,4523.589743,4212.307692,4447.179487,4230.769230,4244.615384,4520.000000,4250.256410,4667.179487,4013.846153,4090.256410
181,4421.025641,4563.076923,4543.589743,4293.333333,4517.948717,4208.717948,4439.487179,4228.205128,4237.948717,4518.461538,4248.717948,4656.410256,4006.153846,4084.102564
182,4415.384615,4567.179487,4537.435897,4300.000000,4519.487179,4214.358974,4445.128205,4228.205128,4241.025641,4518.461538,4243.589743,4659.487179,4005.641025,4087.692307
183,4418.461538,4572.307692,4550.769230,4306.666666,4525.641025,4220.512820,4448.717948,4231.282051,4250.256410,4522.564102,4251.282051,4668.717948,4014.871794,4091.794871
184,4420.512820,4569.230769,4555.897435,4306.153846,4527.179487,4219.487179,4446.666666,4234.871794,4249.230769,4524.102564,4252.820512,4667.179487,4015.384615,4084.615384
185,4420.512820,4566.153846,4544.102564,4305.641025,4525.128205,4218.461538,4446.153846,4232.307692,4246.153846,4523.589743,4238.974358,4663.589743,4008.205128,4080.000000
186,4417.435897,4561.025641,4539.487179,4303.076923,4524.615384,4218.974358,4446.153846,4228.717948,4248.205128,4524.102564,4235.384615,4662.051282,4006.666666,4084.615384
187,4411.282051,4552.307692,4540.000000,4292.820512,4520.512820,4213.846153,4442.564102,4228.717948,4248.205128,4521.538461,4248.717948,4655.384615,4012.307692,4083.076923
188,4410.769230,4549.743589,4535.897435,4290.769230,4519.487179,4213.333333,4441.538461,4231.794871,4248.717948,4522.051282,4262.564102,4655.384615,4021.025641,4084.615384
189,4415.897435,4546.153846,4537.435897,4296.923076,4524.102564,4218.461538,4446.153846,4235.897435,4250.769230,4526.666666,4262.051282,4665.641025,4023.589743,4092.307692
190,4415.384615,4536.923076,4538.974358,4294.871794,4525.128205,4217.948717,4445.128205,4235.384615,4248.717948,4526.666666,4251.282051,4665.128205,4016.410256,4088.205128
191,4413.333333,4535.897435,4535.384615,4290.256410,4522.051282,4212.820512,4440.512820,4230.256410,4246.666666,4520.000000,4245.128205,4655.384615,4011.282051,4075.897435
192,4412.307692,4540.512820,4535.897435,4292.820512,4522.051282,4214.358974,4443.076923,4228.717948,4243.589743,4520.512820,4248.205128,4656.410256,4012.307692,4074.871794
193,4407.179487,4539.487179,4537.435897,4295.897435,4522.051282,4214.871794,4443.589743,4224.102564,4237.948717,4519.487179,4249.230769,4658.461538,4010.769230,4076.410256
194,4406.666666,4535.897435,4534.871794,4293.333333,4517.948717,4205.641025,4435.897435,4215.384615,4232.820512,4507.179487,4244.615384,4650.256410,4004.615384,4068.205128
195,4412.307692,4535.897435,4534.871794,4291.794871,4517.948717,4207.692307,4434.871794,4218.974358,4231.282051,4503.076923,4243.589743,4648.205128,4003.076923,4065.641025
196,4415.384615,4538.461538,4537.435897,4294.871794,4523.589743,4218.461538,4442.564102,4230.769230,4236.410256,4513.333333,4251.282051,4659.487179,4007.692307,4071.794871
197,4416.410256,4540.512820,4539.487179,4294.871794,4525.128205,4218.974358,4446.153846,4234.871794,4246.153846,4523.076923,4261.538461,4666.153846,4017.435897,4074.358974
198,4416.923076,4540.512820,4542.051282,4291.282051,4524.615384,4215.897435,4445.128205,4233.846153,4248.717948,4527.179487,4257.948717,4665.641025,4021.025641,4075.897435
199,4414.358974,4540.512820,4538.974358,4291.282051,4524.615384,4218.974358,4444.615384,4232.820512,4240.000000,4525.128205,4243.589743,4662.564102,4011.282051,4070.769230
200,4409.743589,4539.487179,4534.358974,4291.794871,4520.000000,4217.435897,4443.076923,4228.717948,4231.794871,4511.282051,4242.564102,4651.794871,4000.512820,4053.333333
201,4410.256410,4539.487179,4543.076923,4296.410256,4522.051282,4216.923076,4444.102564,4229.743589,4231.282051,4504.615384,4249.743589,4652.820512,4003.589743,4051.282051
202,4415.897435,4543.589743,4552.820512,4304.102564,4532.820512,4220.512820,4446.153846,4232.820512,4232.820512,4512.820512,4251.794871,4666.153846,4011.282051,4065.641025
203,4412.820512,4543.076923,4544.102564,4297.435897,4528.717948,4216.923076,4442.564102,4230.769230,4232.307692,4511.282051,4247.179487,4662.564102,4009.230769,4062.564102
204,4401.538461,4538.461538,4534.358974,4283.589743,4519.487179,4214.358974,4440.512820,4229.743589,4233.333333,4512.307692,4246.153846,4652.820512,4004.615384,4050.769230
205,4397.435897,4536.923076,4533.846153,4279.487179,4519.487179,4215.897435,4442.564102,4231.794871,4235.897435,4521.025641,4248.717948,4655.897435,4006.153846,4046.666666
206,4398.461538,4535.384615,4533.846153,4282.564102,4512.820512,4211.282051,4442.051282,4231.282051,4234.358974,4515.897435,4248.717948,4656.410256,4004.102564,4047.179487
207,4403.076923,4530.256410,4534.871794,4285.641025,4508.717948,4208.205128,4439.487179,4229.230769,4229.743589,4511.282051,4246.666666,4654.358974,4006.666666,4052.307692
208,4409.743589,4525.128205,4538.974358,4286.153846,4517.948717,4211.794871,4441.538461,4229.230769,4228.205128,4517.435897,4247.179487,4660.512820,4017.435897,4061.538461
209,4408.205128,4522.051282,4540.512820,4282.051282,4523.076923,4215.897435,4442.564102,4231.794871,4231.794871,4516.923076,4249.230769,4662.564102,4016.410256,4063.076923
210,4402.051282,4522.564102,4538.461538,4279.487179,4518.461538,4212.820512,4435.897435,4229.230769,4230.256410,4508.205128,4248.205128,4656.410256,4003.589743,4056.410256
211,4404.102564,4528.205128,4536.410256,4284.102564,4514.871794,4209.230769,4429.743589,4219.487179,4220.000000,4503.589743,4246.666666,4655.384615,4001.025641,4050.769230
212,4406.666666,4536.410256,4536.923076,4291.282051,4516.923076,4212.307692,4434.358974,4219.487179,4221.025641,4506.153846,4245.128205,4660.000000,4009.743589,4051.282051
213,4403.589743,4541.025641,4541.025641,4297.948717,4523.076923,4217.948717,4443.589743,4231.282051,4229.230769,4517.435897,4247.179487,4664.102564,4015.897435,4064.102564
214,4406.153846,4538.461538,4541.538461,4296.410256,4527.692307,4217.948717,4443.076923,4233.333333,4231.282051,4526.153846,4253.846153,4667.179487,4016.410256,4069.743589
215,4412.820512,4534.358974,4538.974358,4286.666666,4524.102564,4214.871794,4439.487179,4231.794871,4235.897435,4521.025641,4260.000000,4671.794871,4016.923076,4062.564102
216,4415.384615,4536.923076,4542.564102,4285.128205,4523.589743,4217.948717,4443.589743,4241.538461,4242.564102,4521.025641,4263.589743,4675.897435,4021.538461,4066.153846
217,4413.846153,4543.589743,4544.102564,4290.256410,4525.128205,4220.000000,4445.641025,4243.589743,4240.512820,4526.666666,4263.589743,4675.384615,4024.615384,4073.846153
218,4410.256410,4539.487179,4541.538461,4286.153846,4516.923076,4212.820512,4443.076923,4233.333333,4234.871794,4525.641025,4254.358974,4671.282051,4018.461538,4070.769230
219,4410.769230,4528.717948,4541.025641,4280.512820,4511.794871,4206.153846,4441.538461,4229.230769,4233.333333,4522.051282,4246.666666,4672.307692,4014.871794,4064.102564
220,4413.846153,4529.230769,4542.564102,4284.102564,4518.974358,4209.743589,4442.051282,4230.769230,4231.282051,4522.564102,4253.846153,4677.948717,4019.487179,4063.076923
221,4416.923076,4535.897435,4547.692307,4285.128205,4524.615384,4217.435897,4443.589743,4232.820512,4233.333333,4526.666666,4264.102564,4683.076923,4018.974358,4064.102564
222,4419.487179,4537.948717,4551.282051,4285.641025,4522.564102,4217.948717,4445.641025,4235.384615,4237.435897,4527.179487,4257.435897,4681.538461,4012.307692,4072.307692
223,4411.794871,4533.846153,4544.102564,4288.205128,4521.538461,4213.846153,4444.102564,4232.307692,4232.820512,4523.076923,4241.025641,4671.794871,4007.179487,4071.794871
224,4396.923076,4530.256410,4535.384615,4289.743589,4522.051282,4214.871794,4442.564102,4228.717948,4229.743589,4520.000000,4235.384615,4664.102564,4002.564102,4051.794871
225,4397.948717,4535.384615,4539.487179,4292.820512,4522.564102,4218.974358,4446.666666,4236.410256,4236.923076,4520.512820,4245.641025,4665.641025,4000.000000,4047.179487
226,4411.794871,4536.410256,4542.051282,4291.282051,4524.102564,4216.923076,4449.230769,4240.512820,4239.487179,4521.025641,4251.282051,4666.666666,4004.102564,4060.000000
227,4412.307692,4531.282051,4538.974358,4282.564102,4522.051282,4214.358974,4445.641025,4234.358974,4234.358974,4519.487179,4246.153846,4666.666666,4008.717948,4065.128205
228,4408.205128,4534.358974,4541.025641,4283.589743,4521.025641,4214.358974,4443.589743,4240.000000,4239.487179,4523.076923,4248.717948,4672.820512,4011.794871,4066.666666
229,4411.282051,4538.974358,4541.025641,4290.256410,4521.025641,4208.717948,4440.512820,4248.205128,4245.128205,4527.179487,4255.897435,4674.871794,4014.358974,4070.256410
230,4412.820512,4541.025641,4537.948717,4290.256410,4518.974358,4201.025641,4431.794871,4240.000000,4235.897435,4526.153846,4250.256410,4668.717948,4015.897435,4066.153846
231,4413.333333,4550.256410,4540.512820,4294.358974,4522.051282,4203.076923,4428.205128,4231.794871,4232.820512,4525.128205,4246.666666,4664.615384,4020.512820,4066.153846
232,4412.820512,4550.256410,4536.923076,4294.358974,4521.025641,4203.589743,4429.743589,4230.256410,4231.794871,4523.076923,4249.230769,4657.435897,4014.871794,4069.743589
233,4405.641025,4537.948717,4525.641025,4281.025641,4509.743589,4198.461538,4426.666666,4217.948717,4217.435897,4510.769230,4238.974358,4648.717948,4002.564102,4062.564102
234,4398.974358,4535.384615,4522.564102,4275.897435,4506.666666,4197.948717,4421.538461,4209.743589,4210.256410,4495.897435,4226.666666,4649.743589,4004.102564,4056.923076
235,4398.461538,4540.512820,4523.589743,4282.051282,4509.743589,4201.025641,4424.102564,4213.333333,4214.358974,4496.410256,4228.717948,4650.769230,4001.025641,4052.820512
236,4397.435897,4539.487179,4522.564102,4283.076923,4507.692307,4201.025641,4426.153846,4213.846153,4212.820512,4503.076923,4231.282051,4645.641025,3986.153847,4044.102564
237,4400.512820,4536.923076,4528.717948,4278.461538,4504.615384,4198.974358,4427.179487,4216.410256,4215.384615,4503.076923,4228.205128,4646.666666,3987.179488,4050.256410
238,4408.717948,4535.897435,4537.948717,4282.564102,4506.666666,4204.102564,4434.871794,4228.717948,4227.692307,4510.769230,4234.358974,4658.461538,4001.025641,4070.769230
239,4413.846153,4538.974358,4541.538461,4290.256410,4516.923076,4216.923076,4446.666666,4238.974358,4237.435897,4522.564102,4248.717948,4667.692307,4008.205128,4075.897435
240,4408.205128,4538.974358,4535.897435,4286.666666,4525.128205,4217.948717,4444.102564,4235.897435,4235.897435,4513.846153,4248.717948,4661.025641,4005.641025,4062.051282
241,4398.461538,4527.692307,4530.769230,4278.461538,4516.410256,4204.615384,4434.871794,4224.102564,4225.641025,4498.974358,4234.358974,4649.230769,3996.410257,4055.384615
242,4398.974358,4520.512820,4532.307692,4278.974358,4505.641025,4200.000000,4435.384615,4216.410256,4217.435897,4505.128205,4230.769230,4650.769230,3989.230770,4062.051282
243,4401.538461,4523.076923,4531.282051,4280.512820,4508.205128,4204.615384,4435.897435,4216.410256,4215.384615,4508.717948,4232.820512,4656.923076,3989.230770,4064.615384
244,4396.923076,4524.102564,4528.205128,4277.435897,4511.282051,4203.589743,4428.717948,4217.435897,4213.846153,4495.897435,4229.230769,4655.384615,3989.743590,4055.897435
245,4393.333333,4522.051282,4524.102564,4275.384615,4507.692307,4198.974358,4427.179487,4216.410256,4212.307692,4493.333333,4228.205128,4651.794871,3988.717949,4047.692307
246,4394.871794,4523.589743,4524.102564,4275.897435,4505.128205,4199.487179,4433.846153,4218.974358,4214.871794,4503.589743,4230.769230,4648.717948,3986.153847,4055.897435
247,4401.538461,4530.256410,4531.282051,4279.487179,4514.871794,4208.205128,4442.564102,4229.743589,4220.000000,4507.179487,4230.256410,4651.794871,3990.769231,4072.307692
248,4409.743589,4538.461538,4534.871794,4282.564102,4522.051282,4212.820512,4443.589743,4233.333333,4222.051282,4505.641025,4233.333333,4658.461538,4001.025641,4076.410256
249,4409.230769,4536.923076,4532.307692,4281.025641,4511.282051,4205.128205,4437.435897,4222.051282,4217.948717,4502.564102,4235.384615,4657.948717,3997.948718,4064.102564
250,4404.102564,4527.179487,4531.794871,4278.974358,4504.102564,4200.512820,4433.846153,4220.512820,4220.000000,4503.076923,4234.871794,4658.461538,3992.820513,4058.974358
251,4405.128205,4529.743589,4532.820512,4280.000000,4508.717948,4204.615384,4436.410256,4231.794871,4229.743589,4511.794871,4240.000000,4663.589743,4001.025641,4069.230769
252,4409.230769,4538.461538,4528.717948,4280.000000,4508.205128,4204.102564,4435.384615,4228.205128,4230.769230,4516.410256,4238.974358,4661.538461,4000.512820,4076.923076
253,4410.769230,4541.025641,4527.179487,4282.564102,4506.666666,4199.487179,4431.282051,4217.435897,4222.051282,4507.692307,4233.333333,4654.871794,3992.820513,4071.794871
254,4407.692307,4534.871794,4525.128205,4281.025641,4505.641025,4198.974358,4428.205128,4218.974358,4218.974358,4504.102564,4233.333333,4651.794871,3993.846154,4060.512820
255,4397.948717,4525.641025,4516.923076,4271.794871,4500.000000,4197.435897,4426.153846,4220.000000,4218.461538,4508.717948,4231.794871,4648.717948,3997.435898,4053.846153
256,4394.358974,4522.564102,4510.769230,4268.205128,4500.000000,4195.897435,4426.153846,4215.384615,4215.384615,4504.615384,4230.256410,4644.615384,3997.948718,4053.333333
257,4397.435897,4524.102564,4507.692307,4269.230769,4501.538461,4198.461538,4427.692307,4224.615384,4220.000000,4503.589743,4233.846153,4641.025641,3998.974359,4057.948717
258,4394.871794,4528.205128,4512.820512,4269.230769,4498.461538,4199.487179,4429.743589,4233.333333,4230.769230,4515.384615,4235.384615,4640.512820,3997.948718,4065.641025
259,4402.051282,4533.846153,4522.564102,4276.410256,4502.564102,4198.461538,4430.769230,4227.692307,4232.820512,4515.384615,4233.333333,4649.230769,4001.025641,4067.179487
