,AF3,F7,F3,FC5,T7,P7,O1,O2,P8,T8,FC6,F4,F8,AF4
0,4407.179487,4548.717948,4561.025641,4264.102564,4476.923076,4204.615384,4449.230769,4216.923076,4256.410256,4514.871794,4224.102564,4568.717948,4013.333333,4057.435897
1,4407.179487,4550.769230,4560.000000,4264.615384,4474.358974,4200.512820,4447.179487,4216.923076,4262.051282,4523.076923,4213.846153,4566.153846,4012.820512,4062.051282
2,4400.000000,4543.076923,4554.358974,4262.564102,4473.333333,4201.538461,4445.641025,4212.307692,4248.717948,4512.820512,4213.333333,4561.025641,4007.692307,4054.358974
3,4400.000000,4537.435897,4555.897435,4265.641025,4475.384615,4202.564102,4449.743589,4211.282051,4241.025641,4504.102564,4215.384615,4562.051282,4007.179487,4051.282051
4,4401.538461,4542.564102,4555.384615,4264.102564,4472.820512,4200.000000,4448.717948,4206.666666,4238.974358,4505.641025,4216.410256,4558.974358,4002.051282,4052.820512
5,4400.512820,4550.256410,4552.307692,4258.974358,4471.282051,4200.000000,4446.153846,4206.153846,4242.564102,4515.384615,4220.000000,4556.410256,4001.025641,4050.769230
6,4393.846153,4539.487179,4549.230769,4255.384615,4467.179487,4200.000000,4444.615384,4209.743589,4253.333333,4522.564102,4212.307692,4557.435897,4001.538461,4050.256410
7,4384.102564,4523.076923,4544.615384,4249.230769,4461.025641,4198.974358,4445.128205,4206.153846,4245.641025,4513.333333,4201.538461,4549.743589,3993.333334,4040.512820
8,4384.102564,4531.282051,4542.051282,4247.692307,4466.153846,4200.000000,4449.743589,4200.512820,4226.153846,4498.974358,4203.076923,4544.615384,3986.666667,4028.205128
9,4398.461538,4548.717948,4545.641025,4251.794871,4475.384615,4201.538461,4451.282051,4204.102564,4229.230769,4500.000000,4202.564102,4550.256410,3992.820513,4034.871794
10,4401.538461,4544.615384,4545.128205,4251.282051,4474.871794,4200.000000,4444.102564,4206.666666,4241.538461,4507.179487,4195.384615,4552.307692,4000.512820,4045.641025
11,4388.717948,4534.358974,4540.000000,4249.230769,4469.743589,4200.000000,4442.051282,4203.589743,4237.435897,4507.179487,4198.461538,4549.230769,3996.923077,4040.512820
12,4388.205128,4540.000000,4543.589743,4251.282051,4466.666666,4201.538461,4446.666666,4205.128205,4233.333333,4510.256410,4204.615384,4552.820512,3997.435898,4034.358974
13,4396.410256,4547.179487,4550.769230,4249.743589,4461.025641,4200.000000,4446.666666,4204.615384,4236.410256,4508.717948,4203.589743,4558.974358,4001.025641,4034.358974
14,4397.948717,4544.615384,4551.282051,4249.230769,4462.051282,4199.487179,4443.076923,4197.948717,4228.205128,4496.923076,4203.076923,4555.897435,3994.358975,4032.307692
15,4394.871794,4537.948717,4549.230769,4254.871794,4473.846153,4201.538461,4444.102564,4193.846153,4220.000000,4487.179487,4201.025641,4548.717948,3978.461539,4037.948717
16,4387.179487,4534.871794,4550.256410,4254.871794,4476.410256,4203.076923,4447.692307,4199.487179,4232.307692,4490.256410,4197.435897,4544.615384,3971.282052,4041.025641
17,4381.025641,4537.435897,4547.692307,4248.717948,4467.692307,4202.564102,4449.230769,4200.000000,4236.923076,4493.333333,4198.974358,4543.076923,3977.435898,4033.333333
18,4382.564102,4535.897435,4543.589743,4246.666666,4463.076923,4201.025641,4442.564102,4191.794871,4213.846153,4486.666666,4190.256410,4541.025641,3982.051283,4029.743589
19,4392.307692,4532.820512,4547.179487,4248.205128,4461.538461,4196.410256,4438.974358,4193.846153,4209.230769,4485.128205,4177.948717,4546.153846,3986.153847,4040.512820
20,4399.487179,4540.000000,4553.333333,4254.871794,4460.512820,4200.000000,4448.717948,4209.230769,4233.846153,4496.410256,4195.384615,4557.948717,3992.820513,4053.846153
21,4394.358974,4546.666666,4555.384615,4264.102564,4468.717948,4207.692307,4458.461538,4213.333333,4243.589743,4507.179487,4210.256410,4558.461538,3994.871795,4060.512820
22,4391.282051,4550.769230,4554.358974,4265.128205,4479.487179,4211.282051,4458.461538,4208.717948,4240.000000,4508.205128,4203.076923,4554.358974,3991.282052,4060.000000
23,4400.000000,4553.846153,4554.871794,4263.589743,4479.487179,4215.384615,4458.974358,4216.410256,4248.717948,4511.282051,4208.205128,4561.538461,3991.794872,4059.487179
24,4402.564102,4543.076923,4552.820512,4261.538461,4475.384615,4212.820512,4459.487179,4216.923076,4248.717948,4507.692307,4206.153846,4562.564102,3990.256411,4060.000000
25,4396.410256,4535.384615,4547.692307,4253.333333,4473.333333,4208.717948,4458.974358,4203.589743,4233.846153,4498.974358,4191.794871,4550.256410,3974.871795,4064.615384
26,4395.384615,4545.641025,4549.743589,4252.307692,4473.846153,4211.282051,4461.025641,4200.000000,4233.333333,4499.487179,4192.820512,4548.717948,3971.282052,4075.384615
27,4388.717948,4547.179487,4550.256410,4251.794871,4474.871794,4207.179487,4456.410256,4204.615384,4240.000000,4497.948717,4188.205128,4551.282051,3981.538462,4074.871794
28,4380.512820,4530.769230,4547.179487,4247.692307,4471.794871,4197.435897,4447.179487,4200.000000,4234.358974,4492.820512,4179.487179,4550.256410,3977.948718,4065.641025
29,4390.769230,4532.820512,4551.794871,4256.410256,4472.820512,4201.025641,4453.333333,4200.000000,4231.282051,4496.410256,4195.897435,4554.358974,3970.256411,4072.820512
30,4397.435897,4545.128205,4552.820512,4263.076923,4476.410256,4207.179487,4463.076923,4203.589743,4232.820512,4496.410256,4202.051282,4557.948717,3974.358975,4082.564102
31,4386.666666,4539.487179,4545.641025,4254.358974,4473.333333,4200.000000,4456.923076,4196.923076,4226.666666,4486.666666,4182.564102,4554.358974,3974.871795,4072.820512
32,4385.641025,4538.461538,4549.230769,4253.333333,4473.333333,4203.076923,4455.384615,4202.051282,4229.743589,4491.282051,4181.538461,4556.410256,3969.743590,4072.307692
33,4392.820512,4550.256410,4557.435897,4263.076923,4481.538461,4215.897435,4469.743589,4221.538461,4249.743589,4503.589743,4194.871794,4563.589743,3980.000000,4086.153846
34,4394.871794,4553.333333,4556.410256,4261.025641,4481.538461,4214.358974,4470.769230,4225.128205,4254.871794,4505.128205,4201.538461,4565.128205,3990.769231,4087.179487
35,4398.461538,4551.282051,4555.384615,4258.974358,4475.897435,4205.641025,4461.538461,4218.974358,4246.153846,4505.128205,4200.512820,4564.102564,3984.102565,4085.128205
36,4401.025641,4551.794871,4555.897435,4264.615384,4476.410256,4201.538461,4461.025641,4221.025641,4244.615384,4505.641025,4196.923076,4563.076923,3978.974359,4081.538461
37,4394.358974,4546.153846,4552.307692,4260.000000,4472.307692,4199.487179,4463.589743,4222.564102,4243.589743,4504.615384,4200.512820,4564.615384,3986.666667,4076.923076
38,4388.205128,4539.487179,4552.820512,4255.897435,4467.179487,4206.666666,4463.076923,4222.051282,4243.589743,4508.205128,4206.666666,4567.179487,3996.923077,4086.153846
39,4387.179487,4538.461538,4554.871794,4257.948717,4473.846153,4212.820512,4462.051282,4223.076923,4245.641025,4510.256410,4201.025641,4564.102564,3995.384616,4091.794871
40,4387.692307,4538.974358,4549.743589,4252.307692,4477.435897,4207.179487,4459.487179,4218.461538,4246.666666,4506.153846,4193.333333,4560.512820,3982.564103,4076.410256
41,4390.769230,4544.615384,4547.692307,4245.641025,4472.820512,4203.589743,4457.435897,4220.000000,4251.282051,4509.230769,4203.589743,4562.564102,3976.923077,4071.282051
42,4394.871794,4546.153846,4554.871794,4250.769230,4475.384615,4206.153846,4458.461538,4231.282051,4253.846153,4519.487179,4216.923076,4569.230769,3989.743590,4087.692307
43,4398.974358,4545.641025,4561.025641,4261.538461,4479.487179,4207.692307,4465.641025,4237.435897,4255.897435,4523.076923,4212.820512,4575.897435,4008.205128,4095.897435
44,4397.948717,4551.282051,4562.564102,4261.025641,4475.897435,4207.179487,4469.230769,4234.871794,4262.564102,4521.025641,4199.487179,4576.410256,4002.051282,4092.820512
45,4391.794871,4549.230769,4555.384615,4252.820512,4473.846153,4205.128205,4463.589743,4229.743589,4257.435897,4514.871794,4193.846153,4568.205128,3980.000000,4084.102564
46,4392.307692,4537.948717,4551.794871,4255.384615,4479.487179,4208.205128,4465.128205,4228.717948,4244.102564,4511.282051,4198.461538,4566.153846,3978.461539,4076.410256
47,4397.435897,4537.948717,4555.384615,4263.076923,4485.641025,4217.435897,4474.358974,4230.256410,4245.641025,4506.153846,4204.102564,4572.307692,3992.820513,4081.538461
48,4395.897435,4544.102564,4555.384615,4257.435897,4483.589743,4220.000000,4470.769230,4223.589743,4243.589743,4502.564102,4204.615384,4569.743589,3995.897436,4085.641025
49,4386.666666,4540.512820,4550.256410,4247.179487,4473.333333,4209.743589,4460.000000,4213.846153,4230.256410,4498.974358,4197.435897,4560.512820,3985.128206,4071.794871
50,4379.487179,4534.358974,4547.692307,4249.230769,4470.769230,4205.641025,4458.974358,4213.846153,4228.205128,4494.871794,4187.179487,4556.923076,3976.410257,4062.564102
51,4386.153846,4542.051282,4551.794871,4256.923076,4484.102564,4211.282051,4467.692307,4217.435897,4234.871794,4495.897435,4185.128205,4560.000000,3971.794872,4069.230769
52,4396.410256,4551.794871,4553.333333,4256.923076,4489.230769,4216.923076,4473.333333,4219.487179,4244.615384,4504.615384,4185.128205,4564.102564,3979.487180,4073.333333
53,4393.333333,4546.666666,4548.717948,4251.794871,4477.435897,4212.307692,4472.307692,4220.512820,4251.282051,4508.205128,4189.743589,4563.589743,3991.794872,4073.333333
54,4388.717948,4542.051282,4547.692307,4246.666666,4471.282051,4210.256410,4466.666666,4219.487179,4243.076923,4503.589743,4206.666666,4565.641025,3989.743590,4077.948717
55,4391.282051,4546.153846,4549.743589,4249.743589,4475.897435,4214.871794,4463.589743,4218.461538,4235.384615,4504.615384,4211.794871,4571.282051,3984.102565,4070.256410
56,4386.153846,4539.487179,4544.102564,4250.769230,4474.358974,4213.846153,4461.025641,4217.948717,4238.974358,4510.256410,4189.230769,4566.153846,3985.641026,4054.358974
57,4378.461538,4532.307692,4536.923076,4246.666666,4471.794871,4211.282051,4457.948717,4215.897435,4237.435897,4505.128205,4182.564102,4558.461538,3986.153847,4054.871794
58,4380.512820,4537.948717,4541.538461,4246.666666,4476.410256,4213.846153,4464.102564,4219.487179,4235.897435,4500.512820,4201.538461,4564.102564,3987.692308,4063.076923
59,4381.538461,4538.461538,4546.666666,4247.692307,4478.974358,4215.384615,4474.358974,4225.641025,4244.102564,4502.564102,4205.641025,4568.717948,3988.205129,4059.487179
60,4383.589743,4534.358974,4546.153846,4249.230769,4474.358974,4212.307692,4472.307692,4227.179487,4248.205128,4501.538461,4195.384615,4564.615384,3978.974359,4052.820512
61,4391.794871,4540.512820,4548.717948,4251.282051,4470.256410,4211.282051,4464.102564,4229.230769,4243.589743,4496.410256,4189.743589,4561.538461,3977.435898,4051.282051
62,4388.205128,4543.589743,4551.282051,4249.230769,4475.384615,4216.410256,4468.717948,4235.897435,4249.230769,4500.512820,4182.051282,4562.051282,3986.666667,4050.256410
63,4381.025641,4536.923076,4546.666666,4246.153846,4478.461538,4215.897435,4476.410256,4236.923076,4256.410256,4511.794871,4185.641025,4562.051282,3992.307693,4050.769230
64,4385.128205,4536.410256,4544.615384,4249.230769,4473.333333,4207.692307,4472.307692,4231.794871,4249.230769,4511.282051,4207.692307,4558.461538,3993.846154,4057.948717
65,4388.205128,4540.512820,4548.717948,4250.256410,4470.769230,4204.615384,4471.794871,4232.307692,4242.564102,4500.000000,4211.282051,4559.487179,3988.717949,4062.564102
66,4382.564102,4531.794871,4548.717948,4246.666666,4471.794871,4208.717948,4474.358974,4234.358974,4241.025641,4495.897435,4192.307692,4563.076923,3980.512821,4055.897435
67,4378.461538,4520.000000,4546.153846,4247.179487,4470.769230,4210.256410,4471.282051,4230.256410,4238.974358,4500.512820,4180.512820,4558.461538,3980.512821,4041.025641
68,4382.051282,4525.641025,4549.743589,4250.256410,4474.871794,4213.333333,4472.820512,4230.256410,4242.051282,4505.128205,4184.102564,4554.871794,3987.179488,4044.615384
69,4386.153846,4540.000000,4550.769230,4251.794871,4477.948717,4216.410256,4475.384615,4233.846153,4248.717948,4509.230769,4196.410256,4561.025641,3989.743590,4063.589743
70,4384.615384,4537.435897,4545.128205,4244.615384,4469.230769,4207.692307,4470.769230,4232.307692,4242.564102,4502.051282,4202.564102,4562.564102,3985.128206,4060.000000
71,4382.564102,4524.102564,4540.000000,4234.871794,4466.153846,4201.025641,4469.743589,4230.256410,4236.410256,4490.769230,4194.358974,4556.923076,3976.410257,4040.000000
72,4376.923076,4520.000000,4537.948717,4238.974358,4472.307692,4206.153846,4474.358974,4233.333333,4243.589743,4495.897435,4184.615384,4557.948717,3975.897436,4032.820512
73,4366.153846,4524.615384,4537.948717,4249.743589,4475.384615,4208.205128,4474.871794,4235.384615,4250.769230,4504.615384,4176.410256,4555.384615,3978.461539,4036.410256
74,4367.179487,4528.717948,4540.512820,4251.282051,4475.384615,4204.615384,4472.820512,4232.820512,4245.641025,4499.487179,4170.256410,4549.230769,3973.333334,4036.923076
75,4384.615384,4535.384615,4543.076923,4248.717948,4477.435897,4211.282051,4469.743589,4229.230769,4238.461538,4501.538461,4182.051282,4557.948717,3974.358975,4044.102564
76,4388.717948,4541.025641,4540.512820,4249.230769,4480.512820,4219.487179,4463.589743,4231.794871,4241.025641,4509.743589,4193.846153,4566.666666,3987.179488,4049.230769
77,4374.358974,4539.487179,4534.358974,4244.615384,4476.410256,4213.333333,4458.461538,4235.384615,4245.641025,4504.615384,4180.512820,4558.974358,3989.230770,4041.025641
78,4375.897435,4535.897435,4535.384615,4243.589743,4472.307692,4205.641025,4461.538461,4232.820512,4246.666666,4504.615384,4184.102564,4554.358974,3988.205129,4046.666666
79,4390.769230,4540.000000,4544.102564,4257.435897,4480.512820,4208.717948,4469.743589,4234.358974,4252.820512,4510.769230,4208.205128,4565.128205,3997.435898,4058.974358
80,4399.487179,4550.256410,4552.820512,4266.666666,4490.256410,4217.948717,4475.897435,4243.589743,4260.512820,4509.230769,4197.435897,4574.358974,4002.051282,4052.820512
81,4398.974358,4555.384615,4551.282051,4257.435897,4485.641025,4220.512820,4477.435897,4240.000000,4256.923076,4511.282051,4184.102564,4570.256410,3995.384616,4051.282051
82,4384.615384,4541.538461,4540.000000,4246.153846,4475.384615,4214.871794,4469.743589,4227.179487,4243.589743,4507.179487,4195.897435,4557.948717,3986.666667,4057.435897
83,4371.794871,4524.615384,4534.871794,4248.717948,4475.897435,4213.846153,4460.512820,4227.692307,4234.871794,4495.897435,4195.384615,4553.333333,3981.025642,4048.205128
84,4381.025641,4534.871794,4541.538461,4255.384615,4478.974358,4216.410256,4464.615384,4236.410256,4242.051282,4502.564102,4190.256410,4561.538461,3980.000000,4042.051282
85,4397.948717,4549.743589,4547.692307,4259.487179,4473.846153,4215.384615,4471.794871,4234.358974,4252.307692,4517.435897,4196.410256,4566.153846,3988.717949,4049.230769
86,4398.461538,4546.666666,4546.153846,4262.051282,4474.871794,4213.846153,4468.205128,4232.307692,4253.846153,4516.923076,4195.897435,4564.615384,3999.487180,4051.282051
87,4394.871794,4547.692307,4548.717948,4262.564102,4483.589743,4216.410256,4469.230769,4240.512820,4256.923076,4518.974358,4200.000000,4569.743589,4009.743589,4060.512820
88,4395.897435,4552.307692,4552.307692,4259.487179,4481.538461,4219.487179,4476.923076,4241.538461,4259.487179,4520.512820,4209.743589,4571.794871,4015.384615,4070.256410
89,4393.846153,4547.692307,4550.769230,4258.461538,4475.897435,4217.435897,4474.871794,4234.871794,4256.410256,4513.333333,4207.179487,4567.179487,4008.205128,4056.410256
90,4394.871794,4544.102564,4550.769230,4263.076923,4473.846153,4216.923076,4472.820512,4233.846153,4254.358974,4511.794871,4207.692307,4571.282051,3998.974359,4044.102564
91,4393.846153,4542.051282,4549.230769,4263.076923,4467.179487,4214.871794,4471.794871,4234.358974,4248.717948,4512.820512,4208.717948,4572.307692,3996.923077,4051.282051
92,4388.205128,4534.871794,4546.153846,4256.410256,4462.051282,4205.641025,4461.538461,4228.205128,4236.410256,4504.615384,4189.230769,4560.512820,3992.820513,4061.538461
93,4387.692307,4537.948717,4545.641025,4257.948717,4469.743589,4197.435897,4456.923076,4227.179487,4234.871794,4506.666666,4182.051282,4560.000000,3991.282052,4059.487179
94,4390.769230,4541.538461,4546.666666,4265.641025,4477.948717,4205.128205,4465.641025,4231.794871,4243.589743,4515.897435,4193.846153,4567.692307,4001.538461,4050.769230
95,4390.256410,4535.897435,4546.153846,4263.589743,4469.743589,4211.282051,4471.794871,4230.769230,4245.641025,4509.743589,4197.435897,4562.564102,4001.538461,4049.743589
96,4386.666666,4537.435897,4547.692307,4261.538461,4461.025641,4206.666666,4470.256410,4229.743589,4249.230769,4504.615384,4203.076923,4560.512820,3991.794872,4052.820512
97,4389.230769,4540.512820,4554.358974,4263.076923,4466.666666,4211.282051,4472.820512,4231.282051,4250.769230,4512.307692,4203.076923,4568.205128,3999.487180,4056.410256
98,4392.820512,4539.487179,4551.282051,4251.794871,4472.307692,4214.358974,4472.820512,4230.769230,4247.179487,4515.384615,4188.205128,4564.102564,4002.564102,4053.846153
99,4392.820512,4540.512820,4546.153846,4250.769230,4461.538461,4206.666666,4466.153846,4231.794871,4248.205128,4508.717948,4184.615384,4561.538461,3990.256411,4049.230769
100,4389.743589,4539.487179,4549.743589,4263.076923,4455.897435,4207.179487,4464.102564,4234.358974,4250.256410,4507.692307,4198.974358,4567.179487,3991.794872,4054.358974
101,4382.564102,4534.871794,4548.205128,4257.435897,4462.051282,4209.230769,4465.128205,4225.641025,4240.000000,4507.692307,4206.666666,4560.512820,4004.615384,4054.358974
102,4383.076923,4539.487179,4541.025641,4248.205128,4460.000000,4208.205128,4460.000000,4213.333333,4230.769230,4506.153846,4199.487179,4551.282051,4003.589743,4045.641025
103,4394.358974,4549.743589,4542.564102,4258.974358,4458.974358,4210.769230,4457.435897,4221.538461,4242.051282,4514.358974,4195.384615,4561.538461,4000.512820,4049.743589
104,4403.589743,4547.692307,4548.205128,4269.230769,4463.076923,4210.769230,4462.051282,4232.820512,4254.871794,4517.948717,4203.589743,4569.230769,4002.564102,4063.076923
105,4396.923076,4538.461538,4545.641025,4264.615384,4461.538461,4202.051282,4460.512820,4221.538461,4245.128205,4505.641025,4201.538461,4560.512820,3994.358975,4063.076923
106,4382.564102,4536.410256,4540.000000,4256.410256,4455.384615,4203.589743,4457.435897,4212.307692,4231.794871,4496.923076,4186.153846,4552.307692,3987.179488,4051.282051
107,4379.487179,4539.487179,4537.435897,4249.743589,4452.820512,4207.179487,4460.000000,4217.948717,4232.307692,4495.897435,4183.589743,4553.333333,3991.794872,4037.435897
108,4386.666666,4535.897435,4538.461538,4254.358974,4457.435897,4203.076923,4458.461538,4220.000000,4234.871794,4489.743589,4199.487179,4556.923076,3995.897436,4034.358974
109,4392.307692,4531.794871,4541.538461,4263.076923,4460.000000,4202.051282,4453.333333,4217.948717,4230.769230,4490.256410,4202.564102,4555.897435,3992.820513,4048.717948
110,4385.128205,4537.435897,4545.128205,4258.974358,4456.923076,4201.538461,4456.410256,4219.487179,4231.282051,4501.025641,4187.692307,4552.820512,3989.230770,4054.871794
111,4375.384615,4536.923076,4541.025641,4250.769230,4456.923076,4204.102564,4457.948717,4218.974358,4232.307692,4495.897435,4182.051282,4552.820512,3986.666667,4043.076923
112,4369.230769,4524.102564,4529.743589,4246.153846,4454.871794,4204.102564,4450.769230,4212.820512,4222.051282,4478.974358,4185.641025,4545.641025,3973.333334,4025.641025
113,4378.974358,4526.666666,4532.820512,4249.743589,4451.282051,4200.000000,4451.794871,4212.307692,4216.410256,4478.461538,4182.564102,4541.538461,3966.666667,4019.487179
114,4394.358974,4545.128205,4549.743589,4264.102564,4458.974358,4209.230769,4462.051282,4218.461538,4229.230769,4498.974358,4184.615384,4554.358974,3988.717949,4042.051282
115,4389.230769,4546.153846,4552.307692,4267.692307,4465.128205,4217.435897,4461.025641,4222.564102,4242.564102,4510.256410,4200.000000,4565.128205,4006.666666,4061.025641
116,4378.461538,4533.846153,4545.128205,4253.333333,4455.897435,4208.717948,4457.435897,4217.948717,4240.000000,4501.025641,4210.256410,4557.435897,3996.410257,4047.179487
117,4385.641025,4530.256410,4545.641025,4244.615384,4449.743589,4199.487179,4460.000000,4218.974358,4233.333333,4492.307692,4205.641025,4553.333333,3993.846154,4040.000000
118,4393.846153,4533.846153,4548.717948,4253.333333,4453.333333,4202.051282,4460.000000,4228.205128,4234.358974,4492.307692,4200.512820,4558.974358,4003.589743,4049.743589
119,4386.153846,4538.461538,4546.666666,4260.512820,4456.410256,4203.589743,4458.461538,4224.615384,4236.410256,4492.307692,4197.435897,4555.897435,3996.923077,4048.205128
120,4378.974358,4536.923076,4543.589743,4253.333333,4455.384615,4202.564102,4458.974358,4216.923076,4232.820512,4493.333333,4196.410256,4550.769230,3989.743590,4041.538461
121,4382.564102,4533.846153,4549.230769,4247.692307,4448.205128,4202.564102,4457.435897,4218.461538,4229.230769,4502.051282,4200.512820,4555.897435,3997.435898,4041.538461
122,4384.102564,4535.897435,4553.333333,4255.384615,4448.205128,4200.000000,4455.897435,4221.025641,4234.358974,4510.256410,4204.102564,4560.000000,3994.358975,4040.512820
123,4383.076923,4536.410256,4549.743589,4263.589743,4458.461538,4205.641025,4456.410256,4223.076923,4239.487179,4505.128205,4207.179487,4556.410256,3985.128206,4041.025641
124,4383.076923,4536.923076,4551.794871,4266.153846,4457.948717,4213.846153,4460.512820,4229.743589,4240.000000,4494.358974,4210.256410,4561.538461,3994.358975,4044.102564
125,4382.051282,4540.000000,4552.820512,4263.589743,4449.230769,4208.717948,4460.000000,4226.666666,4237.435897,4495.897435,4206.153846,4567.692307,4005.641025,4040.512820
126,4383.076923,4537.948717,4549.230769,4260.000000,4450.256410,4199.487179,4455.897435,4213.333333,4231.794871,4498.974358,4194.871794,4561.025641,4001.025641,4037.435897
127,4389.743589,4537.948717,4552.820512,4263.076923,4457.435897,4204.102564,4456.410256,4214.871794,4228.717948,4496.410256,4195.897435,4557.435897,4000.000000,4044.615384
128,4386.666666,4542.051282,4557.948717,4269.230769,4455.384615,4209.230769,4459.487179,4225.128205,4232.820512,4499.487179,4209.230769,4561.538461,4002.051282,4049.230769
129,4373.333333,4538.974358,4549.743589,4263.076923,4452.820512,4204.615384,4460.512820,4222.051282,4231.282051,4499.487179,4212.307692,4560.512820,3997.435898,4034.358974
130,4373.846153,4530.769230,4542.564102,4252.820512,4453.333333,4208.205128,4460.512820,4217.435897,4229.230769,4491.282051,4201.538461,4554.871794,3990.769231,4013.846153
131,4389.230769,4535.897435,4549.230769,4260.000000,4457.435897,4213.333333,4461.025641,4226.666666,4244.102564,4496.923076,4192.820512,4556.410256,3988.205129,4023.589743
132,4397.948717,4546.153846,4555.384615,4270.769230,4461.025641,4208.205128,4459.487179,4229.743589,4251.794871,4512.820512,4206.666666,4561.025641,3994.358975,4050.256410
133,4393.333333,4543.076923,4553.846153,4267.692307,4457.948717,4204.102564,4459.487179,4218.461538,4233.846153,4509.743589,4226.153846,4560.000000,4005.128205,4055.384615
134,4385.128205,4536.410256,4550.256410,4263.076923,4457.435897,4204.102564,4458.974358,4214.358974,4223.589743,4495.384615,4221.538461,4554.358974,4008.205128,4037.435897
135,4385.128205,4545.641025,4551.282051,4266.666666,4463.589743,4208.717948,4457.948717,4219.487179,4232.820512,4498.461538,4212.820512,4555.384615,4007.179487,4027.692307
136,4388.205128,4550.256410,4552.307692,4265.641025,4458.461538,4213.846153,4458.461538,4218.974358,4235.897435,4506.153846,4212.307692,4559.487179,4001.538461,4036.923076
137,4386.153846,4540.512820,4548.717948,4261.538461,4451.794871,4209.743589,4456.410256,4214.871794,4231.282051,4494.358974,4200.000000,4554.871794,3991.794872,4042.564102
138,4382.051282,4536.410256,4546.153846,4262.051282,4458.461538,4201.025641,4451.794871,4217.948717,4231.794871,4484.102564,4193.846153,4552.820512,3994.871795,4032.307692
139,4379.487179,4538.974358,4546.153846,4264.615384,4455.897435,4198.461538,4445.128205,4217.948717,4232.307692,4500.000000,4210.769230,4554.358974,4004.615384,4024.615384
140,4383.589743,4540.512820,4549.230769,4264.102564,4443.589743,4198.461538,4441.538461,4213.333333,4230.256410,4510.769230,4221.025641,4556.410256,3997.948718,4028.717948
141,4396.410256,4548.205128,4558.461538,4265.641025,4450.769230,4201.538461,4450.256410,4221.025641,4232.820512,4506.153846,4223.076923,4568.205128,3999.487180,4040.000000
142,4403.589743,4554.358974,4564.102564,4267.692307,4462.564102,4208.717948,4460.000000,4227.692307,4234.358974,4509.743589,4225.641025,4576.923076,4018.461538,4043.589743
143,4393.333333,4547.692307,4555.897435,4263.076923,4454.871794,4209.743589,4457.948717,4218.461538,4231.794871,4508.717948,4212.820512,4564.102564,4017.435897,4031.282051
144,4388.717948,4547.692307,4550.769230,4264.615384,4452.820512,4211.282051,4455.897435,4219.487179,4234.871794,4501.025641,4207.179487,4554.871794,4007.692307,4036.923076
145,4400.000000,4558.974358,4559.487179,4277.948717,4464.615384,4217.948717,4463.589743,4236.410256,4249.230769,4512.820512,4229.230769,4571.794871,4015.384615,4057.435897
146,4404.102564,4555.384615,4565.128205,4281.538461,4466.153846,4216.923076,4465.128205,4237.435897,4255.384615,4522.051282,4241.025641,4582.564102,4018.461538,4048.717948
147,4396.410256,4542.564102,4559.487179,4268.205128,4455.897435,4207.179487,4457.435897,4222.564102,4242.051282,4509.230769,4228.717948,4571.794871,4010.769230,4032.307692
148,4389.743589,4543.076923,4553.333333,4258.974358,4452.307692,4200.512820,4452.307692,4217.435897,4233.846153,4506.666666,4219.487179,4563.589743,4018.974358,4039.487179
149,4386.153846,4546.153846,4548.205128,4261.538461,4456.410256,4197.948717,4447.692307,4217.948717,4236.923076,4510.769230,4214.358974,4565.128205,4025.128205,4046.666666
150,4389.743589,4541.025641,4544.102564,4265.641025,4460.000000,4203.076923,4447.179487,4215.384615,4233.846153,4500.000000,4210.769230,4565.128205,4008.205128,4045.641025
151,4397.435897,4544.102564,4549.230769,4266.666666,4460.000000,4211.794871,4455.384615,4212.820512,4229.230769,4497.948717,4214.871794,4566.666666,3997.948718,4043.589743
152,4392.820512,4553.333333,4556.923076,4262.051282,4460.512820,4216.410256,4461.025641,4217.948717,4231.794871,4509.230769,4218.461538,4573.333333,4010.256410,4036.923076
153,4385.641025,4554.871794,4560.000000,4261.538461,4465.128205,4215.384615,4461.538461,4228.205128,4236.923076,4509.230769,4215.384615,4573.846153,4018.461538,4045.641025
154,4391.282051,4550.769230,4561.025641,4268.205128,4465.128205,4214.871794,4463.076923,4234.871794,4242.564102,4504.615384,4215.897435,4573.333333,4012.307692,4066.153846
155,4400.512820,4551.282051,4562.051282,4270.769230,4467.179487,4219.487179,4465.641025,4237.435897,4251.282051,4511.282051,4218.461538,4577.435897,4008.205128,4068.205128
156,4399.487179,4554.871794,4562.051282,4262.564102,4470.256410,4218.461538,4464.102564,4235.384615,4249.743589,4515.897435,4213.846153,4576.923076,4004.102564,4062.564102
157,4385.641025,4547.692307,4554.358974,4249.743589,4458.974358,4205.641025,4453.846153,4228.717948,4234.871794,4509.743589,4209.230769,4566.153846,3996.923077,4057.435897
158,4377.948717,4537.435897,4543.589743,4246.666666,4448.717948,4198.461538,4448.205128,4226.666666,4233.846153,4503.589743,4211.282051,4563.076923,3998.461539,4051.794871
159,4390.256410,4544.102564,4545.641025,4259.487179,4458.461538,4207.179487,4453.846153,4230.256410,4241.538461,4505.641025,4213.333333,4572.307692,4001.025641,4057.948717
160,4398.974358,4556.410256,4551.794871,4264.615384,4466.666666,4209.230769,4455.384615,4232.307692,4237.948717,4511.794871,4219.487179,4574.871794,3995.384616,4069.230769
161,4391.794871,4552.307692,4548.205128,4250.769230,4458.461538,4200.000000,4451.794871,4228.205128,4230.256410,4508.717948,4221.025641,4570.769230,3998.974359,4068.717948
162,4385.641025,4538.974358,4543.076923,4243.589743,4455.897435,4199.487179,4453.333333,4222.564102,4232.307692,4504.102564,4204.615384,4571.282051,4004.102564,4058.461538
163,4383.589743,4533.846153,4543.589743,4249.743589,4460.000000,4203.589743,4456.410256,4218.974358,4234.871794,4508.717948,4200.512820,4567.692307,3995.897436,4050.769230
164,4381.538461,4539.487179,4547.179487,4250.769230,4457.435897,4203.076923,4456.923076,4218.974358,4232.307692,4506.153846,4216.410256,4561.538461,3992.307693,4053.333333
165,4381.025641,4546.666666,4546.666666,4247.692307,4456.410256,4202.564102,4454.358974,4217.435897,4225.128205,4495.897435,4211.794871,4560.512820,3997.435898,4061.538461
166,4383.589743,4541.538461,4544.615384,4247.179487,4457.435897,4203.076923,4449.743589,4211.794871,4222.564102,4493.333333,4198.461538,4560.512820,3992.307693,4060.000000
167,4390.256410,4533.846153,4548.205128,4248.717948,4461.025641,4202.051282,4451.282051,4211.794871,4228.717948,4493.333333,4211.794871,4565.641025,3985.641026,4056.410256
168,4387.692307,4541.025641,4548.205128,4249.743589,4461.025641,4200.512820,4450.256410,4212.820512,4224.615384,4492.820512,4218.461538,4564.615384,3989.743590,4054.358974
169,4377.948717,4556.410256,4542.564102,4248.717948,4456.923076,4200.000000,4441.025641,4209.230769,4216.923076,4495.897435,4202.051282,4557.435897,3994.871795,4047.692307
170,4381.538461,4553.846153,4544.615384,4246.666666,4456.410256,4202.564102,4442.051282,4210.256410,4227.692307,4499.487179,4197.435897,4561.025641,3995.897436,4052.820512
171,4387.692307,4541.025641,4546.153846,4246.666666,4458.461538,4203.076923,4447.692307,4214.358974,4235.897435,4495.384615,4201.538461,4564.615384,3990.256411,4061.538461
172,4381.538461,4546.153846,4537.948717,4246.153846,4458.461538,4200.512820,4444.102564,4215.384615,4228.717948,4488.717948,4204.615384,4556.410256,3984.102565,4050.256410
173,4378.974358,4553.333333,4538.461538,4246.666666,4459.487179,4201.538461,4442.051282,4212.820512,4226.153846,4491.794871,4211.794871,4552.307692,3990.769231,4044.102564
174,4381.538461,4542.051282,4546.153846,4247.179487,4461.538461,4203.589743,4450.256410,4217.948717,4229.230769,4505.641025,4216.923076,4555.897435,4004.102564,4058.461538
175,4380.512820,4533.846153,4544.615384,4246.153846,4458.974358,4202.051282,4457.435897,4228.717948,4233.333333,4507.692307,4210.769230,4558.461538,4001.025641,4058.461538
176,4383.076923,4545.641025,4542.564102,4246.153846,4458.974358,4202.564102,4461.538461,4235.384615,4236.923076,4498.461538,4207.179487,4561.025641,3987.692308,4046.666666
177,4384.615384,4549.743589,4547.179487,4247.692307,4462.564102,4204.102564,4457.948717,4233.333333,4234.358974,4497.948717,4214.871794,4560.000000,3986.666667,4045.641025
178,4382.051282,4539.487179,4547.692307,4247.692307,4456.923076,4203.076923,4448.205128,4225.128205,4229.743589,4500.512820,4209.230769,4558.974358,3993.846154,4047.692307
179,4379.487179,4536.923076,4547.692307,4243.589743,4455.384615,4202.564102,4450.256410,4225.128205,4230.256410,4499.487179,4203.076923,4564.102564,3997.435898,4054.871794
180,4377.435897,4542.564102,4550.256410,4242.051282,4458.974358,4202.564102,4456.923076,4225.641025,4234.358974,4500.000000,4211.794871,4559.487179,3991.794872,4060.000000
181,4374.358974,4542.564102,4550.256410,4246.666666,4454.871794,4201.538461,4451.282051,4221.538461,4233.333333,4493.846153,4214.358974,4551.794871,3981.025642,4046.666666
182,4373.846153,4537.435897,4549.743589,4249.743589,4452.820512,4200.000000,4443.589743,4218.461538,4229.743589,4486.153846,4200.512820,4553.846153,3981.538462,4034.871794
183,4373.846153,4538.461538,4548.717948,4246.153846,4456.923076,4195.384615,4445.641025,4220.512820,4229.230769,4490.256410,4195.384615,4555.384615,3990.256411,4045.128205
184,4375.384615,4540.512820,4546.153846,4243.589743,4458.461538,4195.384615,4447.179487,4224.102564,4233.846153,4493.846153,4209.230769,4555.384615,3990.769231,4053.846153
185,4374.358974,4534.358974,4546.666666,4242.051282,4451.282051,4196.923076,4445.128205,4222.051282,4232.820512,4490.769230,4219.487179,4552.820512,3988.717949,4045.128205
186,4366.666666,4532.307692,4544.102564,4240.000000,4443.589743,4193.846153,4447.179487,4218.461538,4221.025641,4492.820512,4210.769230,4543.589743,3984.102565,4028.205128
187,4364.102564,4533.333333,4532.820512,4243.076923,4446.666666,4194.871794,4449.743589,4215.384615,4211.794871,4489.743589,4186.666666,4538.461538,3970.256411,4012.820512
188,4365.641025,4528.717948,4526.666666,4244.615384,4456.923076,4200.512820,4448.205128,4214.358974,4213.846153,4481.538461,4174.871794,4537.435897,3969.743590,4012.307692
189,4363.589743,4530.256410,4531.794871,4242.051282,4460.512820,4200.512820,4449.230769,4220.000000,4222.564102,4483.589743,4191.282051,4535.897435,3984.615385,4027.179487
190,4366.666666,4540.000000,4534.871794,4244.102564,4456.410256,4198.461538,4456.410256,4227.179487,4230.256410,4492.820512,4211.794871,4543.589743,3991.794872,4038.461538
191,4373.846153,4540.512820,4530.769230,4247.692307,4457.435897,4201.538461,4456.923076,4227.692307,4233.333333,4496.410256,4212.307692,4551.794871,3986.666667,4029.743589
192,4374.358974,4536.410256,4531.282051,4245.641025,4462.051282,4202.564102,4448.717948,4218.461538,4231.282051,4497.948717,4204.102564,4545.128205,3984.102565,4016.923076
193,4374.358974,4544.615384,4540.000000,4245.641025,4464.102564,4201.025641,4450.769230,4215.384615,4228.717948,4496.923076,4216.410256,4544.102564,3994.358975,4021.025641
194,4378.974358,4555.897435,4545.128205,4250.769230,4463.589743,4201.538461,4461.025641,4225.641025,4237.948717,4493.846153,4220.000000,4556.923076,4008.205128,4029.743589
195,4380.000000,4550.256410,4541.538461,4252.820512,4463.076923,4203.076923,4458.461538,4230.256410,4246.666666,4498.461538,4200.000000,4560.000000,4001.025641,4029.230769
196,4382.051282,4540.512820,4541.025641,4251.282051,4463.076923,4204.615384,4452.820512,4226.153846,4240.000000,4505.641025,4202.564102,4553.333333,3988.717949,4028.717948
197,4383.589743,4542.564102,4544.102564,4248.717948,4460.512820,4202.051282,4454.871794,4224.615384,4231.282051,4506.666666,4218.974358,4548.205128,3993.846154,4030.256410
198,4377.435897,4546.666666,4542.564102,4247.179487,4460.512820,4201.025641,4453.846153,4221.538461,4232.820512,4502.051282,4209.743589,4546.666666,3993.846154,4024.102564
199,4370.769230,4540.000000,4539.487179,4250.769230,4461.025641,4202.564102,4450.256410,4218.974358,4232.820512,4496.923076,4196.410256,4544.615384,3986.666667,4017.948717
200,4374.358974,4537.948717,4544.615384,4254.358974,4462.051282,4202.564102,4456.410256,4225.641025,4230.769230,4496.923076,4204.102564,4549.743589,3994.871795,4018.974358
201,4375.384615,4541.025641,4545.128205,4252.307692,4462.051282,4200.000000,4456.923076,4227.179487,4232.307692,4497.948717,4205.128205,4551.282051,3998.974359,4016.923076
202,4367.179487,4534.871794,4536.410256,4247.692307,4449.743589,4196.410256,4446.666666,4214.358974,4229.743589,4490.769230,4198.461538,4541.025641,3984.102565,4009.743589
203,4364.615384,4532.307692,4536.410256,4245.128205,4442.051282,4195.384615,4449.230769,4215.897435,4229.230769,4485.128205,4201.025641,4538.461538,3982.051283,4012.820512
204,4370.769230,4541.025641,4545.128205,4250.256410,4455.897435,4198.974358,4460.512820,4230.769230,4234.871794,4491.794871,4202.051282,4547.179487,3994.871795,4021.025641
205,4374.871794,4542.564102,4546.666666,4259.487179,4465.128205,4200.512820,4458.461538,4230.256410,4231.794871,4503.076923,4199.487179,4551.282051,3996.410257,4017.948717
206,4371.282051,4536.923076,4542.051282,4255.384615,4453.846153,4197.948717,4453.333333,4225.641025,4228.717948,4500.512820,4201.538461,4547.179487,3990.256411,4004.102564
207,4370.256410,4535.384615,4536.923076,4244.102564,4449.743589,4198.974358,4456.410256,4228.717948,4236.410256,4491.282051,4204.102564,4544.102564,3987.692308,3998.461539
208,4374.871794,4534.871794,4537.435897,4246.666666,4459.487179,4203.076923,4461.025641,4233.846153,4241.025641,4496.410256,4202.564102,4546.666666,3989.743590,4005.641025
209,4368.205128,4533.846153,4539.487179,4251.794871,4461.538461,4204.615384,4462.051282,4233.333333,4230.769230,4510.769230,4201.538461,4545.641025,3991.794872,4005.128205
210,4363.589743,4535.384615,4536.923076,4247.179487,4457.948717,4201.025641,4459.487179,4233.333333,4232.307692,4507.692307,4203.589743,4542.564102,3991.282052,3999.487180
211,4373.846153,4538.461538,4535.897435,4246.666666,4458.461538,4197.435897,4458.461538,4237.435897,4249.743589,4492.307692,4205.641025,4548.205128,3992.820513,4000.512820
212,4381.025641,4540.512820,4541.538461,4251.794871,4461.538461,4195.384615,4453.846153,4234.358974,4248.205128,4491.794871,4206.153846,4553.846153,3994.358975,4003.076923
213,4373.333333,4537.435897,4538.974358,4246.666666,4453.333333,4190.256410,4444.615384,4223.589743,4227.179487,4496.923076,4200.512820,4545.641025,3989.743590,3996.923077
214,4370.769230,4532.307692,4530.769230,4237.435897,4448.717948,4191.794871,4444.102564,4215.897435,4225.641025,4495.384615,4200.512820,4545.128205,3985.128206,3990.769231
215,4378.461538,4535.897435,4533.846153,4240.000000,4457.948717,4200.000000,4449.230769,4215.897435,4234.871794,4497.435897,4214.871794,4553.846153,3993.333334,3991.282052
216,4376.410256,4535.897435,4535.897435,4249.743589,4456.410256,4196.923076,4447.179487,4216.410256,4226.666666,4501.025641,4210.256410,4545.641025,3995.384616,3978.974359
217,4367.692307,4526.666666,4529.230769,4250.256410,4447.179487,4186.153846,4442.564102,4213.846153,4215.384615,4494.358974,4186.666666,4534.871794,3980.512821,3956.923077
218,4363.589743,4522.051282,4526.153846,4244.102564,4452.820512,4183.076923,4440.512820,4210.769230,4212.820512,4481.538461,4187.692307,4537.948717,3976.923077,3949.743590
219,4367.692307,4528.205128,4528.205128,4245.641025,4461.538461,4189.743589,4442.564102,4212.820512,4215.897435,4480.000000,4205.128205,4541.025641,3990.256411,3958.461539
220,4369.230769,4531.282051,4530.256410,4247.692307,4460.000000,4196.410256,4449.230769,4213.846153,4220.512820,4484.102564,4199.487179,4540.512820,3992.307693,3962.051283
221,4365.128205,4526.666666,4532.307692,4241.025641,4458.974358,4200.000000,4449.230769,4209.230769,4220.000000,4488.717948,4193.333333,4545.128205,3986.153847,3956.410257
222,4366.666666,4526.153846,4533.333333,4238.461538,4459.487179,4201.538461,4444.102564,4209.743589,4221.025641,4492.820512,4203.076923,4550.256410,3988.205129,3955.897436
223,4373.846153,4532.820512,4534.358974,4245.128205,4458.974358,4200.512820,4449.230769,4216.410256,4230.769230,4491.282051,4198.974358,4549.230769,3987.692308,3961.025642
224,4377.948717,4538.974358,4538.974358,4250.769230,4462.051282,4199.487179,4456.410256,4218.461538,4234.358974,4491.794871,4195.384615,4549.230769,3988.717949,3971.282052
225,4374.871794,4541.025641,4544.102564,4250.256410,4464.102564,4200.000000,4456.923076,4218.461538,4230.256410,4499.487179,4213.846153,4554.871794,3994.871795,3985.641026
226,4371.282051,4533.333333,4542.564102,4247.692307,4461.025641,4198.461538,4451.282051,4219.487179,4230.769230,4501.025641,4217.435897,4556.923076,3988.717949,3989.230770
227,4376.923076,4524.615384,4537.435897,4245.641025,4461.025641,4193.846153,4446.153846,4221.025641,4232.307692,4498.461538,4194.358974,4551.794871,3991.794872,3989.230770
228,4380.000000,4530.256410,4540.512820,4245.128205,4467.179487,4195.384615,4449.230769,4227.179487,4237.948717,4503.076923,4195.897435,4554.871794,4012.820512,3999.487180
229,4377.435897,4540.000000,4547.179487,4252.820512,4471.282051,4203.076923,4454.358974,4231.794871,4244.102564,4503.589743,4225.128205,4563.076923,4011.282051,4004.615384
230,4374.358974,4529.743589,4543.589743,4253.333333,4464.615384,4202.564102,4450.256410,4225.641025,4235.384615,4492.820512,4222.564102,4558.974358,3989.230770,3996.410257
231,4366.666666,4514.871794,4536.923076,4234.871794,4453.846153,4195.384615,4442.564102,4218.974358,4229.743589,4489.230769,4198.974358,4547.692307,3982.564103,3990.769231
232,4368.205128,4522.051282,4541.025641,4228.717948,4459.487179,4194.358974,4444.615384,4218.974358,4234.871794,4496.410256,4195.897435,4548.205128,3991.794872,4000.000000
233,4383.589743,4537.948717,4550.256410,4251.282051,4475.384615,4200.000000,4448.205128,4220.512820,4231.794871,4501.025641,4203.589743,4557.948717,3996.923077,4011.794871
234,4382.564102,4541.025641,4547.692307,4258.974358,4474.871794,4202.564102,4447.179487,4217.435897,4221.538461,4498.461538,4205.641025,4557.435897,3993.333334,4010.256410
235,4371.794871,4535.384615,4540.512820,4246.153846,4467.692307,4200.000000,4443.076923,4213.846153,4216.410256,4490.769230,4201.025641,4550.256410,3993.333334,4001.538461
236,4381.025641,4537.948717,4544.615384,4251.794871,4467.692307,4199.487179,4442.051282,4212.820512,4214.871794,4487.692307,4196.923076,4552.307692,4001.538461,4003.589743
237,4387.179487,4542.051282,4545.641025,4261.025641,4468.205128,4200.512820,4444.615384,4210.256410,4217.435897,4491.794871,4198.974358,4554.358974,4001.025641,4008.205128
238,4373.846153,4537.435897,4536.410256,4251.282051,4467.179487,4198.461538,4443.076923,4205.128205,4216.923076,4492.307692,4202.051282,4546.666666,3985.641026,4002.051282
239,4369.230769,4533.333333,4530.256410,4247.179487,4470.769230,4199.487179,4443.076923,4200.512820,4205.128205,4485.128205,4198.974358,4545.128205,3984.102565,4003.589743
240,4375.384615,4538.461538,4535.384615,4252.307692,4474.871794,4203.076923,4446.153846,4205.128205,4210.769230,4478.974358,4200.512820,4549.743589,4001.025641,4009.743589
241,4377.948717,4545.641025,4540.000000,4250.256410,4475.897435,4202.051282,4447.179487,4214.871794,4228.205128,4485.641025,4202.564102,4550.769230,4006.666666,4003.076923
242,4375.897435,4545.128205,4537.435897,4246.153846,4475.897435,4202.051282,4445.128205,4216.923076,4224.615384,4497.948717,4198.974358,4548.205128,3993.846154,3999.487180
243,4373.333333,4538.461538,4536.410256,4254.358974,4473.333333,4207.179487,4446.666666,4213.846153,4216.923076,4500.000000,4199.487179,4545.128205,3986.153847,4003.589743
244,4372.820512,4537.435897,4538.461538,4263.076923,4474.358974,4206.153846,4447.692307,4214.871794,4227.179487,4491.794871,4202.051282,4544.615384,3997.435898,4011.794871
245,4375.384615,4541.538461,4541.025641,4265.128205,4474.358974,4200.000000,4449.743589,4220.000000,4235.384615,4493.333333,4206.153846,4549.743589,4008.717948,4022.564102
246,4374.871794,4540.000000,4544.102564,4258.974358,4472.307692,4200.512820,4456.410256,4220.000000,4231.282051,4502.564102,4216.410256,4557.435897,4000.000000,4017.435897
247,4372.307692,4536.923076,4543.589743,4251.794871,4473.846153,4204.615384,4461.025641,4220.000000,4228.205128,4496.410256,4219.487179,4560.000000,3995.384616,4001.025641
248,4375.384615,4536.923076,4544.615384,4255.384615,4472.820512,4202.564102,4460.000000,4225.641025,4235.384615,4489.743589,4213.333333,4561.538461,4009.230769,4008.717948
249,4377.948717,4537.948717,4547.692307,4256.923076,4472.820512,4202.051282,4454.871794,4226.666666,4241.025641,4498.974358,4217.948717,4560.000000,4013.333333,4026.153846
250,4371.794871,4536.923076,4543.076923,4245.128205,4476.410256,4206.153846,4451.794871,4218.974358,4228.717948,4500.512820,4216.923076,4554.358974,3995.897436,4018.974358
251,4368.205128,4533.333333,4534.871794,4245.128205,4475.384615,4205.641025,4448.717948,4213.333333,4211.282051,4488.717948,4204.102564,4551.794871,3990.256411,4004.615384
252,4375.384615,4534.871794,4542.051282,4262.051282,4472.307692,4202.564102,4450.256410,4216.410256,4216.923076,4492.307692,4208.717948,4557.948717,4003.589743,4006.153846
253,4384.102564,4538.974358,4551.282051,4265.641025,4474.358974,4207.692307,4454.871794,4223.076923,4232.820512,4495.384615,4223.589743,4564.102564,4007.692307,4014.871794
254,4384.102564,4538.974358,4551.282051,4260.512820,4474.358974,4211.794871,4457.948717,4228.205128,4237.435897,4489.230769,4219.487179,4562.564102,4003.589743,4020.000000
255,4378.461538,4542.051282,4553.333333,4262.564102,4477.948717,4209.743589,4460.000000,4229.743589,4231.794871,4496.410256,4212.820512,4563.589743,4002.051282,4018.461538
256,4380.512820,4550.769230,4554.871794,4267.179487,4486.153846,4211.282051,4458.974358,4227.692307,4229.230769,4506.666666,4214.871794,4569.230769,4009.743589,4018.974358
257,4392.307692,4556.410256,4555.897435,4275.897435,4483.589743,4216.410256,4460.000000,4231.282051,4242.051282,4506.666666,4219.487179,4572.820512,4019.487179,4020.512820
258,4393.846153,4556.923076,4558.461538,4274.871794,4473.846153,4215.384615,4457.948717,4230.769230,4250.256410,4507.179487,4228.205128,4571.282051,4015.897435,4015.384615
259,4383.589743,4551.794871,4554.871794,4261.025641,4472.820512,4205.641025,4454.871794,4221.538461,4238.974358,4501.538461,4224.102564,4561.538461,4006.153846,4016.410256
260,4378.461538,4543.589743,4545.128205,4258.974358,4477.435897,4201.025641,4455.384615,4215.897435,4229.230769,4492.307692,4212.307692,4552.307692,4003.076923,4018.974358
261,4378.974358,4541.025641,4545.128205,4266.666666,4476.923076,4207.179487,4457.435897,4216.923076,4231.794871,4503.076923,4212.820512,4552.820512,4004.615384,4003.589743
262,4381.025641,4542.051282,4552.820512,4266.666666,4473.846153,4209.743589,4458.461538,4217.435897,4235.384615,4509.230769,4210.769230,4554.358974,4005.128205,3999.487180
263,4382.051282,4543.589743,4552.307692,4258.974358,4473.333333,4203.076923,4456.410256,4215.897435,4232.307692,4492.307692,4206.666666,4550.256410,4000.000000,4012.820512
