,AF3,F7,F3,FC5,T7,P7,O1,O2,P8,T8,FC6,F4,F8,AF4
0,4410.256410,4515.384615,4529.743589,4265.128205,4487.692307,4209.743589,4427.692307,4468.717948,4228.717948,4517.948717,4221.025641,4640.000000,3993.333334,4010.256410
1,4407.179487,4518.974358,4530.256410,4264.615384,4492.820512,4213.846153,4427.692307,4459.487179,4221.538461,4508.717948,4209.743589,4632.820512,3983.589744,3998.974359
2,4401.538461,4514.358974,4523.589743,4265.128205,4493.333333,4212.820512,4429.230769,4463.589743,4215.384615,4495.897435,4197.948717,4629.230769,3969.743590,3993.333334
3,4401.025641,4513.333333,4520.000000,4261.025641,4492.820512,4216.410256,4431.282051,4470.256410,4218.974358,4493.333333,4200.000000,4631.282051,3969.743590,4001.025641
4,4403.076923,4515.897435,4521.025641,4257.435897,4495.897435,4217.948717,4429.743589,4468.717948,4219.487179,4496.923076,4205.128205,4631.794871,3982.051283,4007.692307
5,4403.589743,4520.000000,4524.615384,4264.102564,4495.897435,4214.358974,4427.692307,4464.615384,4215.897435,4499.487179,4208.205128,4632.307692,3987.179488,4005.641025
6,4407.179487,4526.153846,4526.666666,4272.307692,4495.897435,4215.897435,4429.230769,4465.641025,4219.487179,4497.948717,4210.256410,4633.333333,3981.025642,4006.153846
7,4411.794871,4524.615384,4530.256410,4273.846153,4497.948717,4218.974358,4430.769230,4468.205128,4225.641025,4498.974358,4212.820512,4633.846153,3981.538462,4013.846153
8,4411.282051,4522.051282,4536.923076,4270.769230,4496.410256,4215.384615,4429.230769,4467.179487,4226.666666,4505.641025,4217.948717,4636.410256,3989.743590,4017.435897
9,4410.256410,4523.589743,4536.923076,4272.820512,4490.256410,4211.794871,4428.717948,4462.051282,4221.025641,4508.205128,4222.564102,4637.948717,3991.794872,4015.897435
10,4410.256410,4523.076923,4529.230769,4271.794871,4488.205128,4213.846153,4428.205128,4458.974358,4216.923076,4505.641025,4215.897435,4636.410256,3984.102565,4012.307692
11,4408.205128,4523.076923,4525.128205,4266.666666,4491.794871,4214.871794,4427.179487,4457.435897,4216.410256,4502.051282,4206.666666,4632.820512,3978.974359,4007.179487
12,4404.102564,4522.564102,4526.153846,4269.743589,4493.846153,4214.871794,4425.641025,4447.179487,4216.410256,4492.820512,4205.128205,4626.666666,3983.076924,4004.102564
13,4407.692307,4521.025641,4521.538461,4275.384615,4487.179487,4210.769230,4424.102564,4442.564102,4212.820512,4491.282051,4207.692307,4620.512820,3982.051283,4005.641025
14,4413.846153,4518.461538,4513.846153,4268.717948,4479.487179,4205.128205,4417.948717,4443.076923,4205.128205,4494.871794,4204.102564,4617.435897,3971.282052,4005.128205
15,4411.794871,4520.000000,4510.769230,4260.000000,4483.589743,4204.615384,4414.358974,4440.512820,4203.076923,4489.230769,4198.461538,4617.435897,3968.205129,4001.538461
16,4411.794871,4523.589743,4509.743589,4264.615384,4490.769230,4205.641025,4414.358974,4443.076923,4204.615384,4486.153846,4201.025641,4617.948717,3975.897436,4002.564102
17,4412.307692,4522.564102,4507.179487,4268.717948,4486.666666,4206.666666,4412.820512,4443.076923,4203.076923,4487.692307,4198.974358,4614.358974,3974.358975,4001.025641
18,4413.846153,4518.974358,4509.230769,4265.641025,4482.051282,4207.692307,4417.435897,4441.538461,4209.230769,4487.692307,4200.000000,4613.846153,3968.205129,3998.974359
19,4422.051282,4519.487179,4516.923076,4262.564102,4486.666666,4212.307692,4427.692307,4450.769230,4220.000000,4497.435897,4213.846153,4623.589743,3977.435898,4007.179487
20,4428.717948,4522.051282,4518.974358,4263.589743,4490.769230,4212.307692,4431.282051,4458.461538,4220.000000,4507.179487,4221.538461,4627.692307,3992.820513,4015.384615
21,4426.666666,4524.102564,4517.948717,4266.153846,4486.153846,4208.717948,4427.692307,4450.769230,4212.307692,4500.000000,4217.948717,4620.512820,3992.307693,4013.333333
22,4425.641025,4525.128205,4517.948717,4267.179487,4484.615384,4208.205128,4419.487179,4445.641025,4212.307692,4490.256410,4214.358974,4618.461538,3980.000000,4010.769230
23,4420.512820,4522.051282,4516.410256,4266.153846,4485.641025,4206.666666,4411.282051,4442.564102,4212.820512,4491.794871,4215.384615,4619.487179,3975.384616,4011.282051
24,4412.820512,4523.076923,4513.333333,4263.589743,4482.564102,4207.692307,4415.897435,4431.282051,4206.666666,4493.846153,4216.410256,4614.871794,3975.897436,4011.794871
25,4417.948717,4529.230769,4512.820512,4267.692307,4481.538461,4211.282051,4425.128205,4428.717948,4205.128205,4489.743589,4215.897435,4613.333333,3973.333334,4012.307692
26,4423.589743,4528.205128,4516.410256,4277.435897,4484.615384,4215.897435,4424.102564,4441.538461,4214.871794,4490.769230,4217.435897,4619.487179,3970.769231,4015.384615
27,4417.435897,4527.179487,4518.974358,4275.384615,4485.128205,4216.923076,4426.153846,4446.666666,4221.538461,4497.948717,4218.461538,4621.538461,3972.307693,4016.923076
28,4411.282051,4530.769230,4515.897435,4263.589743,4478.974358,4212.307692,4427.179487,4440.000000,4211.282051,4497.435897,4216.923076,4617.435897,3973.846154,4012.307692
29,4415.384615,4532.820512,4513.846153,4267.692307,4477.435897,4210.256410,4418.974358,4434.358974,4202.564102,4493.333333,4217.948717,4615.897435,3980.000000,4014.871794
30,4418.974358,4533.846153,4518.461538,4280.000000,4484.615384,4212.307692,4417.435897,4430.769230,4209.230769,4494.358974,4222.564102,4619.487179,3987.179488,4023.076923
31,4414.871794,4531.282051,4520.000000,4281.025641,4484.615384,4215.384615,4424.615384,4430.256410,4213.333333,4491.794871,4218.461538,4618.461538,3985.128206,4021.538461
32,4416.923076,4529.743589,4520.000000,4278.974358,4479.487179,4212.307692,4427.179487,4431.794871,4212.307692,4492.307692,4220.000000,4614.871794,3978.974359,4018.461538
33,4423.589743,4536.410256,4524.102564,4281.538461,4485.128205,4213.333333,4426.153846,4421.025641,4214.358974,4503.076923,4229.743589,4617.948717,3976.410257,4025.641025
34,4420.512820,4540.000000,4518.974358,4281.538461,4488.717948,4217.948717,4419.487179,4397.435897,4212.820512,4504.615384,4224.615384,4617.435897,3977.948718,4026.153846
35,4409.230769,4536.410256,4510.769230,4276.923076,4477.435897,4214.871794,4406.666666,4380.000000,4207.692307,4496.923076,4220.000000,4609.230769,3979.487180,4018.974358
36,4409.743589,4532.820512,4510.769230,4276.410256,4473.333333,4210.769230,4404.102564,4370.769230,4206.153846,4491.282051,4226.666666,4608.717948,3977.948718,4023.076923
37,4417.435897,4531.282051,4514.358974,4279.487179,4482.564102,4210.256410,4409.230769,4362.051282,4205.128205,4486.666666,4225.128205,4610.769230,3978.461539,4030.769230
38,4415.384615,4532.820512,4510.769230,4275.897435,4482.564102,4211.282051,4409.230769,4353.846153,4200.000000,4485.641025,4215.384615,4605.641025,3980.512821,4027.692307
39,4410.769230,4537.948717,4504.102564,4272.820512,4477.435897,4214.358974,4408.717948,4347.692307,4197.948717,4486.666666,4214.358974,4602.564102,3977.948718,4021.025641
40,4418.974358,4538.461538,4506.153846,4284.102564,4481.025641,4214.358974,4412.307692,4347.179487,4207.179487,4486.153846,4223.589743,4608.717948,3970.256411,4023.076923
41,4429.743589,4540.000000,4510.256410,4292.307692,4487.179487,4215.897435,4413.333333,4345.128205,4214.871794,4489.743589,4229.230769,4614.358974,3970.769231,4028.717948
42,4422.564102,4542.051282,4507.692307,4285.128205,4482.051282,4216.923076,4407.179487,4334.358974,4208.717948,4489.230769,4221.538461,4609.743589,3978.461539,4032.307692
43,4414.358974,4536.410256,4503.589743,4282.564102,4474.871794,4214.358974,4404.615384,4327.692307,4204.102564,4485.641025,4215.897435,4604.615384,3982.051283,4033.333333
44,4423.589743,4540.000000,4509.230769,4292.307692,4477.948717,4215.384615,4409.230769,4332.307692,4212.307692,4492.820512,4231.794871,4610.256410,3980.000000,4035.384615
45,4432.307692,4553.333333,4514.358974,4298.461538,4477.948717,4218.974358,4410.256410,4331.282051,4215.384615,4493.846153,4242.051282,4616.410256,3972.820513,4039.487179
46,4427.179487,4552.307692,4507.692307,4290.769230,4474.871794,4214.871794,4407.179487,4319.487179,4212.820512,4489.230769,4235.384615,4617.948717,3971.794872,4041.538461
47,4417.948717,4542.564102,4503.589743,4283.076923,4476.410256,4209.230769,4406.666666,4310.769230,4217.948717,4493.333333,4232.820512,4616.410256,3978.461539,4039.487179
48,4412.307692,4537.435897,4505.128205,4287.179487,4475.897435,4211.794871,4405.641025,4309.230769,4216.923076,4493.846153,4231.282051,4608.717948,3975.897436,4035.897435
49,4414.871794,4538.461538,4504.615384,4295.384615,4475.384615,4215.897435,4404.615384,4315.384615,4207.692307,4488.717948,4229.230769,4605.128205,3968.205129,4033.333333
50,4429.230769,4547.179487,4506.666666,4293.333333,4477.948717,4215.897435,4407.692307,4321.538461,4210.256410,4496.410256,4233.333333,4615.384615,3977.948718,4037.948717
51,4436.923076,4552.820512,4509.743589,4291.794871,4477.948717,4212.820512,4407.692307,4323.076923,4213.333333,4500.512820,4233.846153,4616.410256,3987.692308,4044.615384
52,4432.307692,4544.615384,4504.615384,4296.410256,4475.897435,4210.769230,4402.564102,4324.615384,4207.179487,4488.205128,4229.230769,4605.641025,3978.461539,4040.512820
53,4433.333333,4543.589743,4500.512820,4296.410256,4476.923076,4213.846153,4404.615384,4322.051282,4207.179487,4484.615384,4227.692307,4606.153846,3969.743590,4035.384615
54,4443.589743,4554.871794,4502.564102,4293.333333,4476.410256,4217.948717,4409.743589,4318.461538,4212.307692,4493.333333,4231.282051,4612.820512,3974.358975,4043.076923
55,4453.333333,4555.384615,4506.666666,4294.871794,4477.948717,4218.461538,4411.282051,4325.641025,4214.358974,4497.948717,4240.512820,4615.897435,3984.102565,4052.820512
56,4460.000000,4550.256410,4509.743589,4298.974358,4482.051282,4218.461538,4412.307692,4334.358974,4216.923076,4496.923076,4253.846153,4618.974358,3992.820513,4058.974358
57,4462.564102,4552.307692,4508.717948,4298.974358,4481.025641,4219.487179,4411.794871,4331.794871,4218.461538,4492.820512,4254.358974,4620.000000,3993.846154,4059.487179
58,4456.923076,4555.384615,4501.025641,4293.333333,4474.871794,4217.435897,4411.282051,4326.666666,4219.487179,4495.384615,4247.179487,4616.923076,3988.717949,4055.384615
59,4455.897435,4549.230769,4501.538461,4290.769230,4471.794871,4215.897435,4413.846153,4327.179487,4224.102564,4503.076923,4248.205128,4615.384615,3983.076924,4054.871794
60,4461.538461,4543.589743,4504.102564,4294.358974,4473.846153,4216.923076,4415.384615,4326.666666,4222.564102,4499.487179,4251.794871,4614.871794,3978.974359,4056.410256
61,4459.487179,4545.128205,4496.923076,4294.871794,4474.871794,4217.435897,4413.333333,4320.512820,4210.769230,4486.153846,4245.128205,4612.307692,3978.974359,4050.256410
62,4456.410256,4546.666666,4498.461538,4294.871794,4471.794871,4215.897435,4413.333333,4321.538461,4214.358974,4488.717948,4241.025641,4611.282051,3984.615385,4050.256410
63,4465.641025,4550.769230,4505.128205,4298.974358,4474.358974,4221.025641,4417.435897,4328.717948,4227.692307,4502.051282,4250.256410,4615.384615,3989.743590,4062.564102
64,4472.820512,4551.794871,4501.538461,4298.974358,4482.051282,4228.205128,4415.897435,4323.589743,4225.128205,4501.538461,4257.948717,4618.461538,3985.641026,4068.205128
65,4465.128205,4546.666666,4496.923076,4296.410256,4480.000000,4222.564102,4411.794871,4306.666666,4216.410256,4492.307692,4250.769230,4614.871794,3981.538462,4061.538461
66,4456.923076,4544.102564,4493.846153,4294.358974,4470.256410,4213.333333,4408.717948,4294.871794,4212.820512,4486.666666,4242.564102,4604.615384,3980.000000,4055.384615
67,4461.025641,4549.743589,4489.230769,4293.333333,4469.743589,4214.358974,4408.205128,4287.692307,4207.692307,4486.666666,4246.153846,4602.051282,3974.871795,4056.410256
68,4471.794871,4555.384615,4491.282051,4300.000000,4476.923076,4225.128205,4410.769230,4287.179487,4206.666666,4489.743589,4252.307692,4612.307692,3976.410257,4062.564102
69,4475.897435,4556.923076,4496.410256,4306.666666,4482.051282,4228.717948,4413.846153,4284.615384,4209.230769,4487.692307,4248.205128,4615.384615,3986.666667,4065.128205
70,4469.230769,4557.435897,4491.282051,4302.051282,4481.538461,4221.538461,4411.794871,4280.512820,4206.153846,4480.512820,4242.051282,4610.769230,3984.615385,4062.564102
71,4467.179487,4554.358974,4489.743589,4295.384615,4475.384615,4218.974358,4409.230769,4284.102564,4206.153846,4480.512820,4243.076923,4609.743589,3971.282052,4060.512820
72,4474.871794,4549.743589,4497.435897,4296.410256,4469.230769,4222.564102,4411.794871,4289.230769,4210.256410,4489.743589,4248.205128,4612.307692,3971.794872,4064.102564
73,4477.435897,4545.641025,4498.461538,4302.564102,4470.256410,4218.461538,4412.820512,4286.153846,4211.794871,4494.871794,4246.666666,4613.333333,3981.538462,4067.179487
74,4474.871794,4547.692307,4494.358974,4305.641025,4469.743589,4213.333333,4411.794871,4284.615384,4210.769230,4490.256410,4244.102564,4614.358974,3980.000000,4066.153846
75,4478.461538,4556.410256,4497.948717,4305.641025,4467.692307,4218.974358,4412.307692,4285.128205,4209.743589,4485.641025,4247.692307,4616.410256,3976.410257,4067.692307
76,4479.487179,4553.333333,4500.512820,4302.051282,4471.794871,4219.487179,4413.846153,4279.487179,4205.641025,4481.025641,4248.205128,4614.358974,3974.871795,4069.230769
77,4472.307692,4538.974358,4492.820512,4296.923076,4470.769230,4212.820512,4411.282051,4275.897435,4202.564102,4473.333333,4239.487179,4604.615384,3970.769231,4062.564102
78,4473.846153,4538.461538,4488.205128,4299.487179,4467.179487,4218.974358,4410.256410,4276.923076,4206.153846,4475.897435,4239.487179,4600.512820,3973.846154,4061.538461
79,4487.179487,4552.307692,4497.435897,4310.256410,4471.794871,4229.743589,4413.846153,4278.974358,4211.794871,4488.717948,4251.282051,4612.820512,3985.128206,4073.333333
80,4490.769230,4557.948717,4504.102564,4309.230769,4474.358974,4226.153846,4411.794871,4283.076923,4210.256410,4488.717948,4252.820512,4621.538461,3983.589744,4079.487179
81,4486.153846,4554.358974,4499.487179,4302.051282,4472.307692,4218.461538,4405.128205,4282.564102,4201.025641,4475.897435,4244.615384,4615.384615,3971.794872,4074.871794
82,4487.179487,4551.794871,4493.333333,4302.564102,4471.282051,4220.000000,4405.128205,4273.846153,4200.000000,4472.820512,4246.153846,4609.743589,3971.282052,4073.846153
83,4485.128205,4547.692307,4489.743589,4300.000000,4466.153846,4220.512820,4404.615384,4263.076923,4202.051282,4481.025641,4249.230769,4608.717948,3974.871795,4073.846153
84,4483.589743,4547.179487,4492.307692,4299.487179,4464.102564,4215.384615,4397.435897,4266.153846,4204.102564,4484.102564,4248.205128,4610.256410,3978.974359,4076.923076
85,4492.820512,4553.333333,4495.897435,4311.282051,4471.794871,4215.384615,4396.410256,4273.846153,4208.205128,4478.974358,4252.307692,4614.871794,3985.641026,4085.641025
86,4495.384615,4553.846153,4494.358974,4313.846153,4471.282051,4222.051282,4401.538461,4270.769230,4203.589743,4476.923076,4256.410256,4615.897435,3985.641026,4084.615384
87,4489.230769,4552.820512,4495.897435,4309.230769,4469.743589,4225.128205,4406.666666,4271.282051,4202.564102,4486.666666,4257.948717,4615.384615,3985.641026,4078.974358
88,4496.410256,4556.410256,4501.025641,4310.256410,4475.897435,4229.230769,4409.743589,4280.512820,4214.871794,4495.897435,4262.051282,4619.487179,3990.256411,4086.666666
89,4508.717948,4555.897435,4500.512820,4311.794871,4477.435897,4231.282051,4406.666666,4280.512820,4220.512820,4493.333333,4266.153846,4621.538461,3992.820513,4094.871794
90,4504.615384,4553.846153,4495.897435,4311.282051,4474.871794,4225.641025,4406.153846,4268.205128,4208.717948,4487.179487,4259.487179,4617.435897,3984.615385,4085.641025
91,4493.846153,4554.358974,4493.846153,4309.230769,4476.410256,4223.589743,4411.282051,4263.589743,4204.102564,4485.128205,4250.769230,4610.256410,3972.820513,4076.410256
92,4498.974358,4554.358974,4493.846153,4309.230769,4472.820512,4226.666666,4408.205128,4271.282051,4210.769230,4488.205128,4250.256410,4611.794871,3978.974359,4084.102564
93,4510.256410,4557.435897,4495.384615,4308.717948,4467.179487,4222.564102,4404.102564,4277.948717,4211.282051,4492.307692,4252.820512,4616.410256,3995.384616,4093.846153
94,4509.230769,4561.538461,4495.897435,4304.102564,4468.717948,4221.538461,4409.743589,4277.948717,4209.743589,4489.230769,4254.871794,4615.897435,3992.307693,4091.794871
95,4505.128205,4557.948717,4497.948717,4302.564102,4474.871794,4230.256410,4414.358974,4279.487179,4213.333333,4489.230769,4259.487179,4618.974358,3982.564103,4092.307692
96,4514.871794,4558.461538,4503.589743,4311.794871,4477.948717,4235.384615,4415.384615,4283.589743,4217.948717,4498.461538,4264.102564,4625.128205,3995.384616,4102.051282
97,4520.512820,4564.102564,4506.666666,4313.846153,4474.358974,4230.256410,4414.871794,4282.564102,4213.846153,4500.000000,4261.538461,4623.076923,4006.666666,4105.641025
98,4512.307692,4561.025641,4500.512820,4303.589743,4471.794871,4224.102564,4411.282051,4278.974358,4206.666666,4492.820512,4251.794871,4615.384615,3999.487180,4098.461538
99,4508.205128,4557.948717,4496.410256,4300.000000,4472.307692,4222.051282,4406.666666,4276.923076,4206.666666,4489.743589,4245.641025,4615.897435,3987.179488,4091.794871
100,4509.743589,4558.974358,4501.025641,4303.076923,4469.743589,4222.564102,4405.128205,4270.769230,4204.615384,4486.666666,4248.205128,4616.923076,3977.948718,4091.282051
101,4514.871794,4556.923076,4505.641025,4299.487179,4469.230769,4219.487179,4402.564102,4265.128205,4202.051282,4483.076923,4250.256410,4616.410256,3981.538462,4098.461538
102,4517.435897,4552.307692,4501.025641,4292.307692,4471.282051,4214.871794,4398.974358,4269.230769,4205.641025,4486.153846,4242.564102,4616.410256,3988.205129,4101.538461
103,4510.256410,4551.282051,4497.948717,4291.282051,4470.256410,4213.846153,4401.025641,4276.923076,4207.179487,4490.256410,4236.923076,4615.384615,3982.051283,4093.846153
104,4507.179487,4555.897435,4504.615384,4297.435897,4471.282051,4220.000000,4408.717948,4280.512820,4206.153846,4496.410256,4241.025641,4618.974358,3979.487180,4093.333333
105,4520.512820,4563.589743,4508.205128,4301.538461,4477.435897,4227.179487,4414.871794,4289.230769,4211.282051,4501.538461,4249.743589,4628.717948,3990.256411,4104.102564
106,4527.179487,4568.717948,4508.205128,4299.487179,4478.461538,4230.256410,4414.871794,4305.128205,4222.564102,4500.512820,4254.358974,4633.846153,4000.000000,4108.205128
107,4519.487179,4566.666666,4509.743589,4296.923076,4473.846153,4227.692307,4410.256410,4321.538461,4226.153846,4502.564102,4248.717948,4630.256410,3999.487180,4104.615384
108,4520.000000,4561.538461,4506.153846,4297.948717,4472.820512,4222.564102,4406.153846,4335.897435,4216.410256,4504.102564,4247.692307,4626.666666,3991.794872,4106.153846
109,4524.615384,4561.538461,4506.153846,4300.000000,4472.820512,4223.076923,4408.717948,4349.743589,4206.666666,4501.538461,4255.897435,4626.153846,3993.846154,4107.179487
110,4520.512820,4563.589743,4508.717948,4297.948717,4474.358974,4227.179487,4414.358974,4366.153846,4212.820512,4504.615384,4255.897435,4627.179487,4003.076923,4105.641025
111,4516.410256,4564.102564,4506.153846,4294.871794,4477.948717,4227.179487,4414.358974,4380.512820,4222.051282,4508.205128,4247.692307,4626.153846,3999.487180,4105.641025
112,4519.487179,4566.153846,4505.128205,4296.923076,4476.410256,4224.615384,4412.307692,4385.641025,4214.871794,4502.564102,4249.230769,4621.025641,3992.307693,4106.666666
113,4517.435897,4563.076923,4507.692307,4299.487179,4473.333333,4225.641025,4411.282051,4384.615384,4205.641025,4495.897435,4251.282051,4617.948717,3991.794872,4106.153846
114,4511.794871,4559.487179,4504.615384,4297.948717,4472.307692,4221.538461,4408.205128,4389.230769,4206.666666,4491.282051,4243.589743,4617.435897,3991.794872,4105.128205
115,4514.358974,4561.025641,4501.538461,4296.410256,4473.333333,4215.384615,4403.589743,4395.384615,4209.230769,4494.358974,4245.128205,4616.410256,3995.897436,4104.615384
116,4513.846153,4562.051282,4499.487179,4291.282051,4475.384615,4216.410256,4402.564102,4392.820512,4205.128205,4498.974358,4248.205128,4616.410256,3993.333334,4098.974358
117,4503.076923,4556.923076,4493.846153,4281.538461,4475.384615,4214.871794,4405.128205,4388.717948,4197.948717,4492.307692,4240.000000,4612.820512,3978.974359,4093.333333
118,4503.589743,4554.871794,4495.897435,4280.512820,4470.769230,4215.384615,4409.743589,4392.820512,4200.000000,4488.717948,4240.000000,4611.794871,3980.512821,4100.000000
119,4520.000000,4563.076923,4506.666666,4290.769230,4470.256410,4220.512820,4413.333333,4401.538461,4209.230769,4497.948717,4251.282051,4620.000000,3994.871795,4107.692307
120,4521.538461,4565.641025,4507.692307,4295.897435,4472.307692,4217.435897,4415.384615,4407.179487,4214.358974,4498.461538,4248.717948,4622.564102,3993.846154,4104.615384
121,4514.358974,4562.051282,4504.615384,4297.948717,4472.307692,4216.923076,4421.025641,4413.846153,4217.435897,4499.487179,4245.128205,4621.025641,3994.871795,4104.615384
122,4517.948717,4563.076923,4507.179487,4295.384615,4473.333333,4225.128205,4424.615384,4420.000000,4220.000000,4504.615384,4255.897435,4624.102564,4000.000000,4110.256410
123,4518.974358,4568.205128,4506.666666,4287.692307,4474.871794,4223.589743,4420.000000,4417.948717,4215.897435,4496.923076,4257.435897,4624.102564,3992.820513,4109.230769
124,4516.923076,4569.743589,4506.153846,4292.820512,4474.358974,4220.512820,4415.897435,4413.846153,4209.743589,4494.871794,4251.794871,4623.589743,3989.230770,4108.717948
125,4516.923076,4566.153846,4507.179487,4302.051282,4476.410256,4226.153846,4416.923076,4414.358974,4211.794871,4502.564102,4252.307692,4627.179487,3993.846154,4110.256410
126,4514.358974,4567.179487,4506.666666,4300.000000,4480.000000,4226.153846,4418.974358,4417.948717,4218.461538,4498.974358,4251.282051,4626.666666,3993.333334,4108.205128
127,4509.230769,4567.692307,4503.589743,4293.846153,4477.435897,4222.051282,4417.435897,4417.948717,4216.923076,4493.333333,4246.153846,4618.974358,3985.641026,4105.128205
128,4507.692307,4569.743589,4497.948717,4290.769230,4473.846153,4220.512820,4414.358974,4412.307692,4214.871794,4495.897435,4245.641025,4614.871794,3981.025642,4105.128205
129,4510.769230,4570.769230,4500.512820,4295.897435,4476.923076,4223.076923,4415.384615,4409.743589,4217.435897,4496.923076,4247.692307,4618.461538,3981.025642,4106.666666
130,4515.897435,4568.205128,4509.230769,4307.692307,4477.948717,4226.666666,4422.564102,4406.666666,4220.000000,4499.487179,4249.230769,4622.051282,3983.589744,4106.153846
131,4514.358974,4570.256410,4509.743589,4307.179487,4475.384615,4224.615384,4424.102564,4401.025641,4221.538461,4508.205128,4253.846153,4624.102564,3991.282052,4106.153846
132,4508.717948,4571.282051,4504.615384,4298.974358,4474.871794,4221.025641,4417.435897,4400.000000,4220.000000,4509.230769,4254.358974,4621.538461,3991.282052,4109.230769
133,4516.410256,4569.743589,4505.641025,4304.615384,4477.948717,4224.615384,4413.333333,4410.769230,4215.897435,4502.051282,4251.794871,4620.000000,3983.589744,4113.846153
134,4524.615384,4573.333333,4509.743589,4315.384615,4479.487179,4230.256410,4413.846153,4422.564102,4218.461538,4497.435897,4256.410256,4622.564102,3989.230770,4118.461538
135,4521.025641,4577.948717,4509.743589,4316.923076,4478.461538,4227.179487,4413.846153,4431.794871,4223.076923,4499.487179,4262.564102,4626.153846,4003.076923,4120.512820
136,4520.512820,4574.871794,4507.692307,4310.769230,4475.897435,4223.076923,4412.307692,4440.000000,4220.000000,4504.102564,4265.128205,4627.692307,3994.871795,4118.461538
137,4521.538461,4575.897435,4507.179487,4308.717948,4476.410256,4225.641025,4413.846153,4444.102564,4214.871794,4504.102564,4263.589743,4626.666666,3985.128206,4118.461538
138,4522.051282,4582.564102,4510.256410,4314.358974,4480.000000,4226.666666,4416.410256,4447.179487,4216.923076,4498.461538,4252.820512,4629.743589,3998.974359,4124.615384
139,4523.589743,4577.948717,4511.282051,4313.846153,4482.051282,4223.076923,4413.333333,4442.564102,4217.948717,4492.307692,4248.205128,4630.769230,3999.487180,4124.102564
140,4522.564102,4570.769230,4508.205128,4302.564102,4477.435897,4220.000000,4411.794871,4436.923076,4214.358974,4497.435897,4256.923076,4626.666666,3984.615385,4117.948717
141,4520.000000,4569.230769,4506.153846,4297.948717,4469.230769,4220.512820,4414.358974,4445.128205,4214.871794,4503.076923,4257.435897,4625.128205,3984.615385,4119.487179
142,4521.025641,4574.358974,4507.692307,4307.179487,4470.769230,4223.589743,4414.871794,4452.820512,4217.435897,4498.461538,4252.820512,4629.230769,3994.871795,4124.102564
143,4524.615384,4580.512820,4514.358974,4311.794871,4475.897435,4227.179487,4416.923076,4447.179487,4217.435897,4495.897435,4259.487179,4634.358974,4001.025641,4124.615384
144,4522.564102,4581.025641,4517.948717,4305.128205,4474.871794,4226.153846,4419.487179,4438.461538,4217.948717,4497.948717,4261.538461,4632.820512,3997.948718,4121.025641
145,4518.974358,4574.358974,4511.282051,4300.512820,4471.794871,4222.564102,4416.923076,4437.948717,4217.948717,4498.461538,4256.410256,4626.153846,3987.692308,4120.512820
146,4517.435897,4568.717948,4506.666666,4305.128205,4470.256410,4222.051282,4409.743589,4441.025641,4215.897435,4497.948717,4254.871794,4623.076923,3984.615385,4122.051282
147,4517.435897,4574.358974,4506.666666,4311.282051,4470.769230,4220.512820,4409.230769,4447.179487,4215.384615,4500.000000,4255.384615,4625.128205,3990.769231,4120.000000
148,4518.461538,4578.461538,4507.692307,4308.717948,4472.307692,4218.974358,4411.794871,4448.717948,4217.435897,4501.538461,4257.435897,4625.641025,3992.820513,4120.000000
149,4518.974358,4577.435897,4513.846153,4307.692307,4474.871794,4222.564102,4411.794871,4441.025641,4217.435897,4499.487179,4260.512820,4627.179487,3994.358975,4124.102564
150,4522.051282,4580.000000,4518.974358,4312.307692,4472.820512,4225.641025,4413.846153,4438.461538,4217.948717,4497.435897,4260.000000,4632.820512,3991.794872,4126.153846
151,4520.000000,4580.000000,4509.743589,4311.794871,4468.717948,4220.000000,4415.384615,4435.897435,4216.410256,4497.948717,4255.897435,4629.743589,3984.615385,4122.051282
152,4513.846153,4578.461538,4503.589743,4309.743589,4470.256410,4219.487179,4415.384615,4431.794871,4216.410256,4502.564102,4256.410256,4623.589743,3987.179488,4121.538461
153,4518.974358,4581.025641,4510.256410,4313.846153,4475.897435,4228.205128,4417.948717,4434.871794,4223.076923,4503.589743,4259.487179,4629.743589,3994.871795,4126.153846
154,4523.589743,4579.487179,4511.794871,4315.897435,4472.820512,4227.179487,4417.435897,4434.358974,4221.025641,4497.948717,4256.410256,4634.871794,3987.692308,4124.102564
155,4513.333333,4574.871794,4505.641025,4310.256410,4466.153846,4219.487179,4412.307692,4422.564102,4212.307692,4488.717948,4246.153846,4626.153846,3975.384616,4117.435897
156,4503.589743,4575.897435,4505.641025,4308.717948,4470.256410,4222.564102,4410.769230,4411.794871,4208.717948,4481.025641,4242.051282,4617.435897,3974.358975,4117.435897
157,4509.230769,4576.410256,4506.666666,4314.358974,4475.897435,4228.205128,4411.794871,4412.307692,4211.282051,4481.538461,4249.230769,4621.025641,3978.974359,4122.564102
158,4516.410256,4575.897435,4507.692307,4317.435897,4477.948717,4229.230769,4412.307692,4419.487179,4213.333333,4486.666666,4254.871794,4627.692307,3982.051283,4125.128205
159,4519.487179,4583.589743,4511.282051,4316.410256,4478.974358,4230.256410,4414.871794,4425.128205,4216.410256,4491.794871,4255.384615,4628.205128,3986.666667,4122.564102
160,4523.076923,4588.205128,4512.307692,4319.487179,4476.923076,4228.205128,4415.384615,4428.717948,4218.461538,4494.871794,4258.461538,4629.230769,3992.820513,4127.692307
161,4520.000000,4582.564102,4514.358974,4322.564102,4474.358974,4228.717948,4418.461538,4435.897435,4216.410256,4498.461538,4266.153846,4634.358974,3994.358975,4135.384615
162,4515.384615,4575.384615,4517.435897,4320.000000,4473.846153,4233.846153,4423.589743,4448.205128,4216.923076,4501.025641,4268.205128,4634.871794,3991.282052,4129.230769
163,4518.461538,4575.384615,4512.820512,4315.384615,4470.256410,4230.256410,4419.487179,4452.820512,4223.076923,4497.435897,4262.051282,4632.820512,3990.769231,4124.102564
164,4518.974358,4577.948717,4512.307692,4311.794871,4471.282051,4225.641025,4412.820512,4451.282051,4228.205128,4496.410256,4260.512820,4633.846153,3995.897436,4133.333333
165,4517.435897,4577.948717,4516.923076,4315.384615,4476.410256,4228.205128,4412.307692,4447.179487,4223.589743,4495.384615,4263.589743,4632.820512,3995.384616,4137.435897
166,4515.897435,4578.974358,4514.871794,4323.076923,4472.820512,4228.205128,4413.333333,4442.564102,4214.358974,4491.794871,4266.153846,4631.282051,3990.769231,4131.794871
167,4514.871794,4583.076923,4511.282051,4322.564102,4470.256410,4225.128205,4413.846153,4443.076923,4216.923076,4493.333333,4270.769230,4632.307692,3991.282052,4135.384615
168,4517.435897,4583.589743,4512.307692,4318.461538,4473.846153,4224.615384,4414.358974,4444.615384,4220.512820,4494.871794,4265.128205,4630.769230,3992.307693,4137.948717
169,4515.897435,4579.487179,4507.692307,4317.948717,4471.282051,4224.102564,4412.820512,4442.564102,4207.179487,4486.666666,4253.333333,4625.128205,3989.230770,4126.153846
170,4508.717948,4578.461538,4503.589743,4317.435897,4469.230769,4226.153846,4411.282051,4438.974358,4201.025641,4476.410256,4252.307692,4624.102564,3988.717949,4118.974358
171,4511.794871,4581.025641,4507.179487,4318.974358,4473.333333,4231.282051,4418.461538,4440.512820,4216.923076,4480.000000,4261.538461,4629.230769,3990.769231,4126.666666
172,4516.923076,4581.538461,4510.256410,4320.512820,4472.307692,4229.230769,4426.666666,4446.153846,4225.128205,4494.358974,4267.692307,4633.846153,3989.743590,4135.384615
173,4510.256410,4574.871794,4507.692307,4316.923076,4466.666666,4221.538461,4420.000000,4445.128205,4217.435897,4497.948717,4261.538461,4633.333333,3988.717949,4133.846153
174,4508.717948,4573.333333,4505.641025,4316.410256,4469.230769,4224.102564,4409.743589,4440.000000,4212.307692,4485.128205,4254.871794,4629.743589,3990.769231,4131.794871
175,4520.512820,4585.128205,4511.282051,4323.589743,4476.923076,4233.333333,4416.923076,4443.076923,4218.461538,4481.025641,4265.641025,4632.820512,3993.846154,4136.923076
176,4525.128205,4590.769230,4516.410256,4329.743589,4478.974358,4234.358974,4430.769230,4449.743589,4228.717948,4495.384615,4278.461538,4637.435897,3997.435898,4141.538461
177,4516.410256,4583.076923,4512.820512,4330.769230,4473.333333,4230.256410,4429.230769,4440.000000,4230.769230,4503.076923,4270.769230,4634.358974,4001.025641,4138.461538
178,4510.769230,4579.487179,4509.230769,4326.666666,4469.230769,4228.205128,4418.974358,4427.179487,4222.051282,4491.282051,4257.435897,4630.256410,3996.923077,4132.820512
179,4514.871794,4580.512820,4508.205128,4323.076923,4473.846153,4230.256410,4421.025641,4431.794871,4218.461538,4485.641025,4260.512820,4633.333333,3985.641026,4132.820512
180,4514.358974,4576.410256,4505.641025,4324.102564,4477.948717,4230.769230,4426.153846,4443.589743,4221.025641,4493.846153,4267.179487,4633.333333,3981.538462,4137.948717
181,4505.641025,4575.897435,4503.076923,4322.564102,4473.333333,4228.717948,4417.948717,4441.025641,4217.948717,4489.743589,4262.051282,4626.666666,3985.128206,4133.846153
182,4505.128205,4577.948717,4503.589743,4321.025641,4471.282051,4228.205128,4413.846153,4429.230769,4211.282051,4475.897435,4251.282051,4624.102564,3986.666667,4125.128205
183,4509.743589,4577.948717,4505.641025,4324.102564,4474.358974,4229.230769,4424.102564,4427.692307,4211.282051,4478.461538,4249.743589,4625.128205,3987.179488,4128.717948
184,4508.717948,4580.000000,4507.179487,4324.615384,4473.333333,4228.205128,4426.666666,4433.846153,4213.846153,4486.666666,4258.974358,4625.128205,3982.564103,4132.820512
185,4507.692307,4578.974358,4507.179487,4323.589743,4470.769230,4226.666666,4416.923076,4430.256410,4213.333333,4480.512820,4264.102564,4623.076923,3975.384616,4124.615384
186,4505.641025,4574.358974,4507.179487,4331.282051,4471.794871,4227.692307,4415.384615,4426.153846,4214.358974,4476.410256,4261.538461,4625.128205,3978.974359,4124.102564
187,4505.641025,4581.025641,4506.153846,4337.435897,4475.897435,4233.333333,4424.102564,4437.948717,4221.025641,4488.717948,4262.564102,4631.282051,3991.282052,4136.410256
188,4513.846153,4588.205128,4507.179487,4330.769230,4481.538461,4240.000000,4431.282051,4450.769230,4230.769230,4500.512820,4266.666666,4635.384615,3993.846154,4142.051282
189,4516.923076,4583.076923,4510.769230,4326.666666,4477.948717,4234.871794,4425.641025,4443.589743,4226.666666,4492.307692,4264.102564,4628.717948,3985.128206,4133.846153
190,4505.641025,4576.410256,4507.692307,4325.641025,4467.179487,4225.128205,4413.333333,4427.179487,4207.692307,4475.384615,4252.307692,4617.948717,3977.948718,4123.076923
191,4495.897435,4571.282051,4496.923076,4314.358974,4467.692307,4223.589743,4407.179487,4413.846153,4202.564102,4467.692307,4245.641025,4614.358974,3975.384616,4118.974358
192,4494.358974,4564.102564,4495.384615,4306.666666,4469.230769,4222.051282,4407.179487,4408.717948,4211.282051,4471.794871,4250.256410,4615.384615,3974.871795,4121.025641
193,4496.923076,4564.615384,4504.102564,4311.282051,4462.051282,4217.435897,4410.256410,4416.923076,4214.871794,4483.589743,4248.717948,4617.435897,3976.410257,4122.564102
194,4503.076923,4571.282051,4508.205128,4317.948717,4457.948717,4218.461538,4414.358974,4426.666666,4218.461538,4497.948717,4248.205128,4623.076923,3980.512821,4124.102564
195,4509.230769,4574.358974,4508.717948,4317.435897,4461.025641,4222.564102,4417.435897,4422.051282,4220.512820,4496.410256,4261.025641,4629.743589,3980.512821,4127.179487
196,4507.179487,4570.256410,4505.641025,4312.307692,4466.153846,4220.000000,4417.435897,4407.179487,4207.179487,4480.000000,4261.025641,4623.589743,3975.384616,4124.615384
197,4498.461538,4563.076923,4495.897435,4308.717948,4465.128205,4215.897435,4412.307692,4394.871794,4191.282051,4470.256410,4239.487179,4609.230769,3970.256411,4121.025641
198,4492.820512,4562.564102,4488.717948,4307.692307,4462.051282,4216.410256,4408.205128,4387.179487,4188.717948,4474.871794,4234.358974,4607.179487,3971.794872,4120.512820
199,4496.410256,4567.692307,4494.358974,4308.205128,4466.666666,4221.538461,4408.717948,4387.179487,4197.435897,4482.564102,4247.179487,4614.871794,3979.487180,4120.512820
200,4507.692307,4573.333333,4503.076923,4311.794871,4473.333333,4222.564102,4414.871794,4398.974358,4213.333333,4491.794871,4255.384615,4622.051282,3987.179488,4128.205128
201,4511.282051,4578.461538,4507.179487,4312.307692,4473.333333,4224.615384,4421.025641,4409.230769,4223.076923,4500.512820,4256.410256,4627.692307,3993.333334,4138.461538
202,4508.717948,4580.000000,4508.205128,4308.717948,4474.358974,4226.666666,4422.051282,4409.743589,4220.000000,4503.076923,4249.230769,4627.179487,3991.794872,4136.410256
203,4507.692307,4574.871794,4504.102564,4311.794871,4475.897435,4224.102564,4420.000000,4412.307692,4220.000000,4503.076923,4245.128205,4619.487179,3987.179488,4127.692307
204,4504.615384,4568.717948,4496.410256,4313.333333,4472.307692,4222.051282,4422.051282,4412.307692,4224.102564,4505.128205,4245.641025,4616.410256,3988.205129,4123.589743
205,4504.615384,4569.230769,4497.948717,4308.205128,4470.769230,4221.538461,4424.102564,4404.102564,4221.025641,4507.179487,4248.205128,4621.025641,3992.820513,4123.589743
206,4507.179487,4573.333333,4507.179487,4306.153846,4471.282051,4224.102564,4423.589743,4403.076923,4220.000000,4509.230769,4260.000000,4627.179487,3991.282052,4130.769230
207,4506.153846,4573.846153,4508.717948,4306.666666,4472.820512,4223.589743,4421.538461,4404.615384,4224.102564,4504.615384,4261.538461,4631.282051,3989.743590,4134.358974
208,4504.102564,4571.282051,4505.128205,4308.717948,4477.948717,4221.538461,4415.897435,4394.358974,4221.538461,4498.974358,4247.692307,4629.743589,3992.307693,4129.743589
209,4505.128205,4574.871794,4507.692307,4318.974358,4478.461538,4224.615384,4412.307692,4384.102564,4214.358974,4502.051282,4249.230769,4627.692307,3990.769231,4132.820512
210,4508.205128,4582.051282,4508.205128,4313.846153,4477.948717,4224.102564,4413.333333,4378.974358,4216.410256,4502.564102,4260.512820,4628.205128,3987.692308,4134.871794
211,4507.179487,4581.025641,4504.615384,4298.974358,4478.461538,4219.487179,4412.307692,4369.743589,4217.435897,4496.410256,4251.282051,4625.641025,3985.128206,4125.641025
212,4506.666666,4576.923076,4507.179487,4307.692307,4476.923076,4223.076923,4412.307692,4362.051282,4214.358974,4500.512820,4245.641025,4628.205128,3987.692308,4124.102564
213,4508.205128,4574.358974,4510.769230,4321.538461,4477.435897,4227.692307,4414.871794,4364.102564,4213.333333,4506.153846,4252.820512,4630.769230,3995.384616,4130.769230
214,4506.666666,4573.846153,4507.692307,4312.307692,4474.358974,4215.897435,4408.205128,4364.615384,4209.743589,4497.948717,4247.179487,4622.051282,3990.769231,4125.128205
215,4505.128205,4577.948717,4503.589743,4302.564102,4468.717948,4211.282051,4401.538461,4365.128205,4204.102564,4492.307692,4242.051282,4617.435897,3974.871795,4118.974358
216,4506.153846,4579.487179,4506.153846,4307.692307,4468.717948,4218.461538,4407.692307,4369.230769,4202.051282,4493.333333,4247.179487,4626.666666,3974.871795,4126.666666
217,4507.179487,4576.923076,4509.743589,4308.717948,4472.820512,4216.410256,4410.256410,4368.205128,4206.666666,4495.897435,4247.692307,4632.820512,3989.230770,4133.846153
218,4508.205128,4578.974358,4509.230769,4302.051282,4473.846153,4215.897435,4407.692307,4360.512820,4213.846153,4504.615384,4248.717948,4631.282051,3991.282052,4135.897435
219,4510.769230,4583.076923,4508.205128,4303.589743,4474.358974,4221.538461,4411.282051,4356.410256,4216.410256,4510.769230,4254.871794,4631.794871,3992.307693,4137.948717
220,4510.256410,4579.487179,4507.692307,4306.153846,4474.871794,4221.025641,4412.307692,4355.897435,4211.282051,4503.589743,4252.820512,4632.307692,4000.000000,4136.923076
221,4506.153846,4575.897435,4505.128205,4302.051282,4478.461538,4220.000000,4408.717948,4356.923076,4208.205128,4493.846153,4247.179487,4629.743589,3996.410257,4131.794871
222,4505.128205,4580.512820,4506.153846,4304.102564,4483.076923,4226.153846,4413.333333,4367.692307,4212.820512,4499.487179,4253.333333,4630.769230,3986.153847,4131.282051
223,4506.666666,4584.615384,4509.230769,4312.820512,4482.564102,4226.153846,4415.897435,4378.461538,4219.487179,4506.666666,4258.461538,4634.358974,3986.666667,4134.358974
224,4504.102564,4577.948717,4504.615384,4309.743589,4476.410256,4220.512820,4411.282051,4377.435897,4218.974358,4500.000000,4252.307692,4629.743589,3988.717949,4128.205128
225,4501.025641,4577.435897,4500.512820,4304.102564,4474.871794,4222.051282,4409.743589,4377.948717,4210.769230,4492.307692,4245.641025,4622.564102,3991.282052,4121.538461
226,4502.564102,4587.692307,4505.128205,4309.230769,4476.923076,4223.589743,4411.282051,4387.179487,4209.230769,4496.923076,4246.153846,4625.641025,3994.358975,4126.153846
227,4505.641025,4587.179487,4505.641025,4310.769230,4477.948717,4223.589743,4411.794871,4394.871794,4214.358974,4504.102564,4257.435897,4632.820512,3985.641026,4131.794871
228,4507.692307,4583.076923,4510.256410,4308.717948,4475.897435,4228.717948,4413.846153,4397.435897,4216.923076,4505.641025,4264.102564,4637.435897,3982.051283,4134.871794
229,4511.794871,4586.666666,4520.512820,4314.358974,4480.000000,4234.358974,4417.435897,4401.538461,4219.487179,4509.743589,4257.948717,4640.000000,4000.512820,4141.538461
230,4510.769230,4585.641025,4517.435897,4317.948717,4485.641025,4229.743589,4416.410256,4398.974358,4218.974358,4507.692307,4254.871794,4637.435897,4006.666666,4139.487179
231,4501.538461,4580.512820,4505.641025,4312.307692,4480.000000,4220.512820,4410.769230,4384.615384,4211.282051,4499.487179,4260.000000,4630.769230,3989.743590,4128.717948
232,4502.051282,4586.153846,4507.179487,4311.282051,4471.794871,4220.512820,4410.256410,4381.025641,4211.794871,4501.025641,4265.128205,4631.282051,3987.179488,4129.230769
233,4506.153846,4588.717948,4513.846153,4316.410256,4474.358974,4223.076923,4413.333333,4391.282051,4221.538461,4511.794871,4268.717948,4637.435897,3995.897436,4139.487179
234,4501.538461,4578.974358,4509.743589,4313.333333,4477.948717,4220.000000,4410.769230,4395.384615,4220.000000,4509.230769,4267.692307,4636.923076,3992.307693,4138.974358
235,4499.487179,4577.948717,4505.641025,4309.743589,4473.846153,4219.487179,4409.230769,4393.846153,4211.282051,4502.564102,4262.564102,4633.333333,3991.794872,4133.846153
236,4498.974358,4586.153846,4506.153846,4313.333333,4471.794871,4222.564102,4413.333333,4398.974358,4214.871794,4503.076923,4261.538461,4632.307692,3996.923077,4131.282051
237,4491.794871,4584.102564,4503.589743,4311.794871,4478.974358,4224.102564,4413.846153,4406.666666,4217.435897,4495.897435,4258.461538,4630.769230,3993.333334,4128.205128
238,4493.846153,4581.025641,4505.641025,4307.179487,4482.564102,4225.641025,4412.307692,4412.307692,4214.358974,4492.307692,4253.846153,4629.743589,3989.230770,4131.282051
239,4507.179487,4587.179487,4512.820512,4308.717948,4479.487179,4229.230769,4414.871794,4414.871794,4221.025641,4507.179487,4264.102564,4636.923076,3995.384616,4138.461538
240,4510.256410,4587.692307,4515.897435,4309.230769,4479.487179,4230.769230,4420.512820,4419.487179,4229.743589,4517.435897,4274.871794,4646.666666,4006.666666,4142.051282
241,4503.589743,4583.076923,4515.897435,4307.179487,4480.000000,4229.743589,4425.641025,4426.153846,4225.641025,4513.846153,4270.256410,4645.641025,4006.153846,4142.051282
242,4502.564102,4584.615384,4513.333333,4308.205128,4475.384615,4227.692307,4422.051282,4422.564102,4219.487179,4508.717948,4262.564102,4635.897435,3998.974359,4136.923076
243,4497.948717,4583.589743,4510.769230,4304.102564,4473.333333,4222.564102,4412.820512,4413.333333,4222.564102,4502.564102,4263.589743,4632.307692,3996.923077,4132.820512
244,4494.871794,4577.435897,4512.307692,4297.948717,4475.897435,4223.589743,4412.307692,4408.717948,4221.538461,4500.000000,4267.179487,4636.923076,3995.384616,4134.871794
245,4500.000000,4577.948717,4512.820512,4298.461538,4475.384615,4225.641025,4415.384615,4399.487179,4216.410256,4503.589743,4264.615384,4635.897435,3989.743590,4136.410256
246,4500.000000,4583.589743,4510.256410,4301.538461,4474.358974,4223.076923,4412.307692,4387.692307,4215.384615,4498.974358,4262.051282,4634.871794,3988.717949,4134.871794
247,4493.333333,4585.128205,4510.769230,4304.615384,4475.384615,4225.128205,4409.743589,4387.179487,4217.948717,4493.333333,4262.051282,4638.974358,3993.333334,4135.897435
248,4492.820512,4582.051282,4510.256410,4297.948717,4475.384615,4228.717948,4412.307692,4389.230769,4214.358974,4495.897435,4256.923076,4636.410256,3991.282052,4133.333333
249,4495.384615,4578.461538,4506.666666,4291.794871,4476.923076,4225.641025,4411.282051,4386.666666,4209.743589,4495.897435,4256.923076,4636.923076,3984.615385,4130.256410
250,4491.282051,4570.769230,4509.743589,4297.435897,4474.871794,4221.025641,4406.666666,4387.692307,4210.256410,4490.256410,4264.615384,4642.051282,3981.538462,4129.743589
251,4489.743589,4567.692307,4509.743589,4301.025641,4474.358974,4221.025641,4404.615384,4394.871794,4205.641025,4489.743589,4260.512820,4638.974358,3984.615385,4125.641025
252,4492.307692,4577.435897,4507.692307,4301.025641,4475.897435,4224.615384,4408.205128,4405.641025,4204.102564,4495.897435,4253.846153,4635.897435,3989.230770,4126.153846
253,4490.769230,4582.051282,4510.769230,4306.666666,4476.410256,4226.666666,4412.307692,4409.743589,4213.846153,4497.435897,4259.487179,4640.512820,3988.717949,4133.333333
254,4484.102564,4574.358974,4507.692307,4303.589743,4476.923076,4225.128205,4410.256410,4405.641025,4211.282051,4490.256410,4257.948717,4631.282051,3982.051283,4126.666666
255,4475.384615,4568.205128,4496.410256,4290.256410,4477.435897,4221.538461,4404.102564,4396.923076,4203.589743,4485.641025,4247.692307,4615.384615,3972.307693,4109.743589
256,4472.307692,4569.230769,4495.897435,4293.846153,4475.384615,4220.000000,4404.615384,4389.230769,4209.743589,4490.769230,4247.692307,4616.923076,3975.897436,4111.794871
257,4475.897435,4569.743589,4504.615384,4300.512820,4473.333333,4222.564102,4410.256410,4385.641025,4218.461538,4495.384615,4253.846153,4626.666666,3992.307693,4121.025641
258,4485.128205,4568.205128,4510.769230,4293.333333,4474.358974,4227.179487,4413.846153,4390.256410,4218.974358,4498.461538,4264.615384,4634.871794,3994.871795,4120.000000
259,4494.871794,4571.794871,4517.435897,4297.435897,4475.897435,4227.179487,4413.333333,4397.435897,4222.051282,4505.128205,4275.897435,4643.589743,3991.794872,4126.666666
