,AF3,F7,F3,FC5,T7,P7,O1,O2,P8,T8,FC6,F4,F8,AF4
0,4379.487179,4155.897435,4484.615384,4254.871794,4485.641025,4186.666666,4408.717948,4187.692307,4219.487179,4537.948717,4163.076923,4620.000000,4006.153846,4007.179487
1,4376.410256,4149.743589,4477.435897,4246.666666,4479.487179,4178.461538,4407.692307,4182.051282,4211.282051,4526.666666,4166.153846,4615.897435,3995.897436,4001.025641
2,4382.051282,4152.307692,4482.051282,4254.358974,4483.076923,4180.512820,4410.769230,4187.692307,4212.307692,4528.205128,4165.128205,4616.410256,3994.358975,4005.128205
3,4386.666666,4155.384615,4486.666666,4261.538461,4482.051282,4179.487179,4409.230769,4188.205128,4210.256410,4530.256410,4162.564102,4620.512820,3992.820513,4008.205128
4,4390.769230,4160.000000,4489.230769,4259.487179,4480.000000,4175.897435,4406.153846,4189.743589,4214.871794,4531.794871,4171.794871,4631.794871,3992.307693,4011.794871
5,4396.923076,4163.589743,4500.000000,4260.512820,4484.102564,4181.538461,4408.717948,4190.256410,4221.538461,4531.794871,4179.487179,4638.461538,3994.871795,4018.974358
6,4397.948717,4164.615384,4505.128205,4263.076923,4487.692307,4186.153846,4414.358974,4184.615384,4213.333333,4527.179487,4171.282051,4634.358974,3995.897436,4020.512820
7,4395.897435,4165.128205,4496.923076,4259.487179,4487.179487,4186.153846,4418.974358,4185.128205,4210.256410,4529.230769,4162.051282,4630.256410,3994.871795,4019.487179
8,4396.923076,4165.128205,4492.307692,4262.051282,4490.769230,4190.769230,4420.000000,4191.282051,4218.974358,4538.974358,4169.230769,4627.692307,4000.512820,4022.051282
9,4400.512820,4164.102564,4494.358974,4266.153846,4493.333333,4189.743589,4417.948717,4191.282051,4216.410256,4537.948717,4178.461538,4625.641025,4004.102564,4019.487179
10,4400.512820,4167.179487,4492.307692,4265.641025,4487.692307,4186.153846,4418.974358,4191.794871,4210.256410,4529.743589,4170.256410,4625.128205,3998.974359,4014.358974
11,4400.512820,4170.769230,4493.846153,4265.128205,4483.589743,4187.179487,4421.025641,4193.846153,4213.333333,4531.282051,4162.564102,4622.051282,3998.974359,4019.487179
12,4399.487179,4168.205128,4494.871794,4258.974358,4485.128205,4183.589743,4413.846153,4187.692307,4209.743589,4529.743589,4164.102564,4616.410256,4001.538461,4019.487179
13,4398.974358,4169.230769,4490.769230,4259.487179,4485.641025,4182.564102,4408.717948,4186.153846,4203.589743,4521.025641,4157.435897,4615.384615,3997.435898,4013.333333
14,4402.051282,4173.333333,4492.307692,4270.769230,4486.666666,4187.179487,4413.333333,4189.743589,4208.717948,4522.564102,4154.358974,4620.512820,3998.461539,4016.410256
15,4400.512820,4168.205128,4493.333333,4272.307692,4487.692307,4184.102564,4409.743589,4182.564102,4211.282051,4529.743589,4166.666666,4620.512820,4004.102564,4015.897435
16,4397.948717,4166.153846,4489.230769,4267.179487,4484.102564,4177.435897,4398.974358,4175.384615,4209.743589,4532.820512,4168.205128,4616.923076,4004.102564,4009.743589
17,4400.000000,4175.384615,4488.717948,4263.589743,4482.051282,4181.538461,4399.487179,4182.564102,4212.820512,4532.820512,4164.615384,4619.487179,4004.102564,4012.307692
18,4402.051282,4174.871794,4490.256410,4261.025641,4483.589743,4182.051282,4405.128205,4186.666666,4212.820512,4529.230769,4166.666666,4623.589743,4009.230769,4014.358974
19,4399.487179,4168.717948,4489.743589,4269.743589,4484.615384,4177.435897,4406.153846,4180.512820,4207.179487,4527.692307,4162.051282,4619.487179,4012.307692,4009.743589
20,4396.923076,4170.256410,4488.717948,4272.820512,4482.051282,4178.461538,4408.205128,4176.923076,4202.564102,4526.666666,4160.512820,4616.923076,4011.794871,4010.256410
21,4395.897435,4171.282051,4486.153846,4261.025641,4478.974358,4176.923076,4409.743589,4177.435897,4201.538461,4524.102564,4162.564102,4617.435897,4009.230769,4010.256410
22,4401.025641,4171.794871,4487.692307,4257.435897,4480.512820,4175.897435,4410.256410,4185.641025,4208.717948,4528.205128,4166.666666,4620.000000,4015.384615,4011.282051
23,4411.794871,4173.846153,4494.871794,4256.923076,4482.051282,4177.435897,4414.871794,4200.000000,4223.589743,4537.435897,4175.897435,4628.205128,4025.641025,4021.538461
24,4414.358974,4175.897435,4495.897435,4250.769230,4479.487179,4176.410256,4414.871794,4199.487179,4225.128205,4535.384615,4182.051282,4633.846153,4018.974358,4024.615384
25,4412.307692,4177.948717,4491.794871,4259.487179,4480.512820,4177.948717,4409.230769,4185.641025,4211.282051,4527.692307,4177.948717,4628.717948,4011.794871,4016.923076
26,4410.256410,4177.435897,4490.769230,4270.256410,4487.179487,4185.128205,4412.307692,4182.564102,4203.589743,4528.205128,4168.717948,4623.076923,4017.435897,4014.871794
27,4407.692307,4175.897435,4491.794871,4265.641025,4490.256410,4190.256410,4418.974358,4187.692307,4207.692307,4530.769230,4161.025641,4619.487179,4015.384615,4016.923076
28,4410.769230,4179.487179,4491.794871,4260.512820,4488.717948,4191.282051,4418.461538,4186.153846,4212.307692,4530.769230,4163.589743,4617.435897,4007.692307,4015.384615
29,4416.410256,4188.205128,4490.256410,4256.923076,4488.205128,4190.256410,4417.435897,4183.076923,4211.282051,4528.205128,4176.410256,4625.128205,4015.384615,4015.897435
30,4414.871794,4181.538461,4489.743589,4252.820512,4485.641025,4184.102564,4418.461538,4186.666666,4212.307692,4526.666666,4178.974358,4632.307692,4026.153846,4018.461538
31,4412.307692,4170.256410,4491.282051,4263.076923,4483.076923,4182.051282,4417.948717,4192.307692,4215.384615,4530.256410,4175.384615,4626.153846,4024.102564,4017.948717
32,4415.897435,4178.974358,4492.307692,4275.384615,4484.102564,4184.102564,4416.410256,4194.871794,4214.358974,4534.871794,4178.461538,4622.564102,4021.538461,4018.461538
33,4417.435897,4190.769230,4491.794871,4270.769230,4483.589743,4181.025641,4417.435897,4194.358974,4214.871794,4536.923076,4178.974358,4629.743589,4024.615384,4021.538461
34,4415.384615,4183.076923,4489.230769,4254.871794,4476.410256,4172.307692,4416.410256,4188.717948,4211.794871,4525.641025,4171.794871,4626.666666,4022.051282,4017.435897
35,4411.794871,4173.846153,4487.692307,4252.307692,4469.230769,4169.230769,4411.794871,4180.000000,4198.461538,4508.205128,4164.615384,4613.333333,4010.256410,4009.743589
36,4413.333333,4175.897435,4489.230769,4262.051282,4473.846153,4173.333333,4410.769230,4180.512820,4194.358974,4513.846153,4163.076923,4615.384615,4005.641025,4009.230769
37,4420.512820,4176.923076,4490.256410,4267.179487,4482.051282,4178.974358,4410.256410,4190.769230,4208.717948,4532.307692,4166.666666,4624.102564,4008.717948,4014.358974
38,4426.153846,4182.051282,4497.948717,4268.717948,4481.538461,4179.487179,4409.743589,4196.410256,4221.538461,4534.871794,4172.307692,4627.179487,4016.410256,4023.589743
39,4430.769230,4191.794871,4505.128205,4271.794871,4481.538461,4179.487179,4415.384615,4197.948717,4220.512820,4528.205128,4181.538461,4632.307692,4027.692307,4031.282051
40,4429.743589,4189.743589,4498.461538,4269.230769,4481.538461,4178.974358,4415.897435,4195.384615,4210.769230,4525.128205,4181.538461,4632.307692,4027.692307,4025.128205
41,4423.589743,4184.102564,4489.230769,4261.025641,4476.923076,4173.846153,4407.692307,4185.128205,4200.000000,4521.538461,4166.666666,4621.025641,4020.512820,4017.435897
42,4424.102564,4183.076923,4490.769230,4260.000000,4474.871794,4173.846153,4407.179487,4177.948717,4195.897435,4518.974358,4158.461538,4615.897435,4020.000000,4020.000000
43,4423.076923,4180.000000,4490.256410,4260.512820,4478.461538,4177.948717,4409.230769,4176.410256,4195.384615,4516.410256,4160.000000,4615.897435,4016.410256,4016.410256
44,4413.846153,4184.102564,4486.153846,4262.051282,4480.000000,4174.358974,4402.051282,4178.461538,4198.461538,4515.897435,4165.128205,4613.333333,4012.307692,4007.692307
45,4414.871794,4190.769230,4489.230769,4269.743589,4481.538461,4173.333333,4401.538461,4185.128205,4204.615384,4518.461538,4175.384615,4618.461538,4022.051282,4013.333333
46,4426.666666,4188.205128,4491.794871,4271.794871,4484.102564,4182.564102,4409.230769,4188.717948,4208.205128,4522.564102,4174.871794,4625.128205,4031.794871,4023.076923
47,4430.256410,4191.282051,4489.743589,4267.179487,4486.666666,4185.641025,4411.794871,4184.615384,4210.256410,4527.179487,4166.666666,4628.205128,4029.230769,4024.615384
48,4429.743589,4199.487179,4491.282051,4265.641025,4490.256410,4186.153846,4411.794871,4180.000000,4211.794871,4530.769230,4172.820512,4632.307692,4025.128205,4024.615384
49,4428.717948,4194.871794,4493.333333,4264.615384,4490.256410,4191.794871,4411.282051,4179.487179,4210.769230,4529.230769,4173.333333,4629.230769,4025.641025,4026.153846
50,4424.615384,4189.230769,4491.282051,4259.487179,4485.128205,4186.666666,4408.205128,4176.923076,4200.512820,4519.487179,4157.435897,4620.512820,4027.692307,4019.487179
51,4423.589743,4196.410256,4490.256410,4256.410256,4483.076923,4181.025641,4406.153846,4178.974358,4192.820512,4513.846153,4158.974358,4621.025641,4018.974358,4015.384615
52,4428.205128,4206.153846,4498.461538,4258.461538,4483.589743,4186.666666,4411.794871,4190.256410,4204.615384,4524.102564,4169.230769,4631.282051,4002.051282,4022.564102
53,4436.410256,4211.794871,4507.692307,4258.974358,4484.615384,4189.230769,4416.410256,4197.948717,4217.948717,4534.358974,4169.743589,4635.384615,3993.846154,4027.179487
54,4437.948717,4211.282051,4505.128205,4262.051282,4485.641025,4186.666666,4416.410256,4201.025641,4216.410256,4529.743589,4174.358974,4635.384615,3991.794872,4023.589743
55,4435.897435,4210.769230,4503.076923,4268.717948,4488.205128,4189.743589,4422.564102,4207.692307,4218.974358,4530.256410,4169.743589,4636.923076,3991.794872,4023.076923
56,4434.871794,4214.871794,4507.179487,4267.179487,4494.871794,4196.923076,4433.846153,4213.846153,4229.230769,4538.974358,4162.564102,4637.948717,3998.461539,4023.076923
57,4428.717948,4212.307692,4501.025641,4257.948717,4498.974358,4200.512820,4436.410256,4208.205128,4228.717948,4537.948717,4170.769230,4634.358974,3996.923077,4016.410256
58,4420.512820,4205.128205,4490.769230,4254.358974,4495.384615,4197.948717,4433.333333,4200.512820,4219.487179,4530.256410,4173.333333,4626.153846,3988.205129,4009.230769
59,4424.102564,4213.333333,4491.794871,4249.230769,4494.871794,4197.948717,4432.307692,4200.512820,4216.923076,4529.230769,4168.717948,4624.102564,3997.948718,4012.307692
60,4433.333333,4228.717948,4495.384615,4250.769230,4502.051282,4203.076923,4437.435897,4206.666666,4222.564102,4535.384615,4169.743589,4631.282051,4014.871794,4021.025641
61,4426.666666,4222.564102,4492.820512,4258.974358,4502.564102,4201.025641,4438.461538,4209.743589,4222.564102,4533.846153,4165.128205,4632.307692,4016.410256,4019.487179
62,4416.923076,4205.128205,4490.256410,4255.897435,4497.435897,4197.435897,4434.358974,4207.692307,4214.871794,4526.666666,4167.179487,4627.179487,4011.282051,4012.820512
63,4421.538461,4204.615384,4490.256410,4251.282051,4498.461538,4201.025641,4435.897435,4210.769230,4216.410256,4527.179487,4180.512820,4628.205128,4009.743589,4015.384615
64,4422.051282,4206.666666,4492.820512,4250.769230,4494.871794,4195.897435,4435.384615,4209.230769,4217.948717,4525.128205,4176.923076,4627.692307,4001.025641,4015.384615
65,4411.282051,4198.461538,4490.769230,4243.076923,4483.076923,4183.076923,4423.589743,4197.948717,4210.256410,4518.461538,4161.538461,4624.615384,3996.410257,4008.205128
66,4414.871794,4198.974358,4488.717948,4239.487179,4479.487179,4180.000000,4420.000000,4198.461538,4212.307692,4524.102564,4160.512820,4630.769230,4006.666666,4014.358974
67,4427.179487,4207.179487,4498.974358,4249.743589,4481.025641,4179.487179,4425.641025,4208.717948,4225.128205,4535.384615,4169.743589,4637.435897,4011.282051,4025.641025
68,4421.538461,4203.589743,4504.102564,4253.333333,4477.948717,4176.410256,4422.051282,4208.717948,4221.025641,4530.769230,4177.435897,4632.820512,4004.615384,4021.025641
69,4414.871794,4202.564102,4495.897435,4251.794871,4480.512820,4179.487179,4417.435897,4200.512820,4206.666666,4522.051282,4173.333333,4626.153846,4004.102564,4015.897435
70,4414.871794,4209.230769,4490.769230,4252.820512,4485.641025,4188.205128,4420.512820,4193.333333,4201.538461,4515.897435,4161.538461,4622.051282,3995.897436,4013.333333
71,4412.307692,4211.282051,4490.256410,4245.128205,4486.153846,4192.820512,4422.051282,4186.153846,4201.538461,4509.743589,4155.897435,4621.025641,3982.564103,4008.205128
72,4422.051282,4216.923076,4494.871794,4244.615384,4492.820512,4192.820512,4422.564102,4188.717948,4205.128205,4518.461538,4165.128205,4628.205128,4003.076923,4017.435897
73,4436.410256,4219.487179,4501.025641,4253.333333,4494.871794,4192.820512,4421.025641,4196.410256,4210.769230,4532.307692,4170.256410,4632.307692,4033.333333,4029.230769
74,4436.410256,4214.871794,4501.538461,4258.974358,4489.230769,4192.820512,4416.923076,4194.358974,4212.820512,4533.333333,4163.589743,4630.769230,4030.256410,4027.692307
75,4435.897435,4220.000000,4503.076923,4262.564102,4493.846153,4196.410256,4418.974358,4195.384615,4218.461538,4533.846153,4175.897435,4638.461538,4022.051282,4030.769230
76,4442.564102,4228.717948,4510.769230,4264.615384,4497.435897,4196.410256,4426.153846,4206.153846,4225.128205,4541.538461,4199.487179,4649.743589,4034.358974,4042.564102
77,4445.641025,4223.589743,4511.282051,4265.641025,4490.256410,4192.307692,4432.307692,4213.846153,4225.128205,4544.102564,4197.435897,4648.717948,4043.589743,4041.538461
78,4445.128205,4220.000000,4507.692307,4267.692307,4492.307692,4193.846153,4431.794871,4213.846153,4226.153846,4542.051282,4186.153846,4643.589743,4042.564102,4036.923076
79,4443.589743,4227.179487,4508.205128,4266.153846,4499.487179,4200.000000,4428.717948,4211.794871,4226.153846,4543.076923,4191.282051,4640.512820,4035.384615,4038.461538
80,4442.564102,4223.076923,4504.615384,4262.051282,4496.923076,4200.512820,4430.256410,4210.256410,4223.076923,4543.589743,4189.743589,4637.435897,4029.743589,4034.358974
81,4443.589743,4221.538461,4504.102564,4269.743589,4497.948717,4197.435897,4429.743589,4210.256410,4229.230769,4545.641025,4186.666666,4640.000000,4044.102564,4034.358974
82,4446.153846,4234.871794,4510.769230,4275.384615,4502.051282,4200.512820,4427.179487,4216.410256,4240.512820,4553.333333,4200.000000,4648.205128,4062.564102,4045.128205
83,4451.282051,4238.974358,4511.282051,4269.743589,4501.025641,4202.564102,4431.794871,4220.000000,4236.410256,4555.897435,4206.153846,4650.769230,4060.512820,4050.256410
84,4456.410256,4229.230769,4510.769230,4266.666666,4500.512820,4198.974358,4437.948717,4216.410256,4229.230769,4549.743589,4201.538461,4650.256410,4051.794871,4047.179487
85,4448.205128,4225.641025,4507.692307,4261.025641,4500.000000,4195.384615,4429.230769,4209.743589,4228.717948,4543.076923,4191.794871,4644.102564,4047.692307,4043.076923
86,4436.923076,4225.641025,4496.410256,4253.333333,4493.846153,4191.794871,4416.410256,4200.000000,4218.461538,4537.948717,4181.538461,4632.307692,4036.923076,4034.871794
87,4438.974358,4217.948717,4492.307692,4257.435897,4489.743589,4188.205128,4412.820512,4196.923076,4209.743589,4531.794871,4180.512820,4629.743589,4034.871794,4025.128205
88,4446.153846,4219.487179,4501.025641,4259.487179,4487.692307,4186.666666,4418.461538,4207.179487,4217.435897,4535.384615,4189.230769,4637.435897,4052.307692,4030.256410
89,4443.589743,4226.666666,4508.205128,4250.256410,4487.179487,4189.743589,4424.615384,4215.897435,4227.179487,4546.153846,4197.948717,4642.051282,4056.410256,4040.512820
90,4436.410256,4225.128205,4502.051282,4247.692307,4492.307692,4189.230769,4420.512820,4210.769230,4225.641025,4545.128205,4193.846153,4637.435897,4040.512820,4035.384615
91,4434.358974,4220.000000,4493.333333,4253.846153,4490.769230,4189.230769,4416.923076,4202.564102,4218.461538,4537.435897,4181.538461,4630.769230,4037.948717,4028.205128
92,4433.846153,4217.948717,4495.897435,4255.897435,4487.179487,4189.230769,4418.974358,4196.410256,4210.256410,4532.307692,4178.461538,4632.307692,4045.128205,4029.230769
93,4436.923076,4221.025641,4504.615384,4257.948717,4492.820512,4190.256410,4418.461538,4195.384615,4213.846153,4532.307692,4186.153846,4636.923076,4045.128205,4032.307692
94,4442.051282,4225.128205,4506.666666,4257.948717,4497.948717,4193.333333,4417.435897,4201.538461,4226.153846,4536.410256,4185.128205,4634.871794,4046.153846,4033.846153
95,4440.000000,4223.589743,4502.564102,4252.307692,4493.846153,4192.307692,4420.512820,4204.615384,4225.128205,4536.923076,4180.512820,4631.794871,4052.307692,4032.820512
96,4438.974358,4225.128205,4506.666666,4248.205128,4495.897435,4192.820512,4424.102564,4206.666666,4222.051282,4538.461538,4192.307692,4635.384615,4053.333333,4031.282051
97,4440.000000,4231.282051,4505.128205,4248.205128,4503.076923,4198.461538,4427.692307,4211.282051,4227.692307,4543.589743,4198.461538,4635.897435,4045.641025,4031.282051
98,4432.820512,4225.128205,4494.358974,4249.743589,4497.435897,4195.384615,4426.153846,4210.256410,4225.641025,4539.487179,4186.666666,4628.205128,4036.923076,4026.666666
99,4427.179487,4214.871794,4490.256410,4248.205128,4490.256410,4187.179487,4416.410256,4198.461538,4212.820512,4530.769230,4174.871794,4624.102564,4035.897435,4022.051282
100,4431.282051,4217.435897,4491.794871,4241.538461,4489.743589,4187.179487,4411.282051,4188.205128,4206.666666,4530.256410,4173.846153,4624.102564,4035.384615,4024.615384
101,4430.769230,4221.538461,4491.794871,4238.461538,4489.743589,4187.179487,4412.820512,4190.256410,4209.230769,4531.282051,4177.948717,4623.076923,4032.307692,4025.128205
102,4427.179487,4222.564102,4490.769230,4238.461538,4489.230769,4184.615384,4411.794871,4194.358974,4210.769230,4529.743589,4182.051282,4621.538461,4037.948717,4022.051282
103,4429.743589,4224.102564,4490.769230,4240.000000,4490.769230,4188.205128,4413.846153,4192.820512,4210.769230,4530.256410,4189.743589,4624.615384,4047.692307,4026.666666
104,4432.820512,4222.564102,4494.871794,4247.179487,4495.384615,4190.769230,4417.948717,4193.846153,4211.794871,4529.743589,4183.589743,4628.717948,4038.461538,4031.282051
105,4440.512820,4228.717948,4504.615384,4260.000000,4499.487179,4191.794871,4418.974358,4202.051282,4216.923076,4533.846153,4175.897435,4634.358974,4033.846153,4035.897435
106,4446.666666,4238.461538,4509.743589,4262.051282,4498.974358,4195.897435,4420.512820,4206.153846,4224.615384,4547.179487,4197.435897,4640.000000,4058.974358,4043.589743
107,4442.564102,4232.820512,4504.102564,4249.230769,4495.384615,4193.333333,4418.461538,4202.051282,4226.666666,4548.205128,4214.871794,4637.435897,4071.282051,4043.076923
108,4441.538461,4223.076923,4502.051282,4246.153846,4495.384615,4187.179487,4414.358974,4203.076923,4225.641025,4542.051282,4204.102564,4633.846153,4053.846153,4036.923076
109,4444.615384,4225.641025,4506.153846,4255.384615,4494.871794,4188.717948,4417.948717,4206.153846,4225.128205,4544.102564,4197.948717,4637.948717,4050.769230,4036.923076
110,4444.615384,4229.230769,4507.179487,4254.358974,4491.282051,4190.256410,4420.000000,4202.564102,4221.538461,4546.153846,4198.974358,4640.000000,4067.179487,4038.974358
111,4444.615384,4230.256410,4505.641025,4247.692307,4494.358974,4188.717948,4417.948717,4203.589743,4223.076923,4542.051282,4191.282051,4634.871794,4071.794871,4040.000000
112,4446.666666,4234.358974,4505.128205,4249.230769,4501.538461,4190.769230,4422.051282,4211.282051,4231.794871,4543.076923,4195.897435,4636.923076,4070.256410,4041.538461
113,4445.641025,4237.435897,4506.666666,4251.282051,4497.948717,4191.794871,4421.025641,4209.743589,4230.769230,4544.102564,4209.743589,4638.461538,4066.666666,4041.025641
114,4443.589743,4234.871794,4506.153846,4248.205128,4492.820512,4190.769230,4415.384615,4198.461538,4222.051282,4541.025641,4202.564102,4631.282051,4056.410256,4036.410256
115,4441.538461,4228.205128,4505.128205,4250.256410,4495.897435,4191.794871,4416.923076,4196.410256,4220.000000,4542.051282,4188.205128,4630.256410,4056.410256,4035.384615
116,4441.538461,4224.102564,4506.153846,4250.256410,4498.461538,4192.820512,4417.948717,4202.051282,4224.615384,4543.076923,4190.256410,4636.410256,4067.179487,4038.974358
117,4450.256410,4233.333333,4507.179487,4252.820512,4498.461538,4193.846153,4418.461538,4205.128205,4230.769230,4544.102564,4202.051282,4638.461538,4070.256410,4044.102564
118,4458.461538,4248.717948,4511.794871,4264.102564,4504.615384,4201.538461,4427.692307,4210.769230,4236.410256,4553.333333,4208.205128,4642.564102,4065.128205,4048.717948
119,4462.564102,4251.282051,4518.461538,4268.717948,4510.256410,4206.666666,4435.384615,4224.615384,4242.051282,4561.025641,4212.307692,4651.794871,4066.666666,4052.820512
120,4460.000000,4245.641025,4514.871794,4262.051282,4508.205128,4201.025641,4434.358974,4225.128205,4241.025641,4553.846153,4215.897435,4651.282051,4069.743589,4051.794871
121,4449.743589,4241.025641,4504.615384,4254.358974,4501.025641,4192.820512,4427.179487,4207.179487,4226.153846,4541.025641,4200.000000,4637.435897,4064.102564,4041.025641
122,4446.153846,4232.307692,4504.102564,4247.179487,4498.461538,4193.333333,4421.538461,4198.974358,4218.974358,4538.461538,4183.589743,4630.769230,4055.384615,4032.820512
123,4453.333333,4228.205128,4507.692307,4244.615384,4502.564102,4198.974358,4427.179487,4206.666666,4231.794871,4541.025641,4188.205128,4636.923076,4056.410256,4036.923076
124,4457.948717,4234.358974,4505.128205,4256.410256,4508.205128,4200.000000,4431.794871,4212.307692,4234.871794,4542.051282,4196.923076,4642.051282,4062.051282,4042.564102
125,4460.000000,4243.076923,4509.743589,4268.717948,4510.256410,4200.000000,4426.153846,4210.769230,4226.153846,4542.051282,4204.615384,4641.538461,4062.051282,4042.051282
126,4464.615384,4249.230769,4522.051282,4270.256410,4513.333333,4209.743589,4427.179487,4211.794871,4232.820512,4546.153846,4211.282051,4645.641025,4064.102564,4048.205128
127,4465.128205,4248.717948,4520.512820,4270.256410,4518.974358,4217.435897,4436.923076,4213.846153,4241.025641,4552.307692,4203.589743,4648.717948,4069.230769,4054.358974
128,4457.948717,4244.615384,4506.666666,4268.205128,4520.512820,4213.846153,4435.384615,4213.846153,4233.333333,4550.256410,4192.307692,4642.564102,4066.666666,4046.153846
129,4460.000000,4245.641025,4510.256410,4269.230769,4522.051282,4212.820512,4432.820512,4220.512820,4237.948717,4548.205128,4200.000000,4641.538461,4064.615384,4042.564102
130,4470.769230,4246.666666,4523.589743,4278.974358,4523.076923,4216.410256,4440.512820,4227.179487,4254.358974,4558.461538,4213.846153,4649.230769,4075.897435,4054.871794
131,4470.256410,4246.153846,4521.025641,4282.051282,4518.461538,4212.307692,4439.487179,4223.589743,4249.743589,4564.102564,4213.333333,4650.256410,4081.538461,4060.512820
132,4463.589743,4252.820512,4515.897435,4273.333333,4514.358974,4207.179487,4430.256410,4222.051282,4241.538461,4560.512820,4211.282051,4647.692307,4077.948717,4053.333333
133,4470.769230,4255.384615,4521.025641,4269.230769,4514.871794,4207.692307,4433.333333,4229.743589,4255.384615,4564.615384,4213.846153,4655.384615,4080.512820,4053.846153
134,4477.948717,4247.179487,4523.076923,4272.307692,4515.897435,4209.743589,4440.512820,4231.794871,4260.512820,4566.153846,4210.769230,4661.025641,4076.923076,4058.974358
135,4471.282051,4240.000000,4520.000000,4273.846153,4514.871794,4210.769230,4441.025641,4226.153846,4244.615384,4550.769230,4204.615384,4654.358974,4065.641025,4057.435897
136,4469.230769,4245.128205,4521.025641,4279.487179,4521.538461,4216.410256,4444.102564,4223.589743,4238.974358,4545.641025,4206.666666,4650.769230,4065.128205,4055.897435
137,4473.846153,4254.358974,4524.102564,4283.589743,4525.128205,4218.974358,4444.615384,4223.589743,4242.564102,4553.333333,4209.743589,4654.871794,4065.641025,4053.846153
138,4476.410256,4257.948717,4524.102564,4283.076923,4517.948717,4214.358974,4438.974358,4223.076923,4243.076923,4554.871794,4209.230769,4654.871794,4063.076923,4055.897435
139,4476.923076,4255.384615,4522.564102,4281.538461,4517.948717,4213.333333,4441.025641,4228.205128,4249.743589,4558.974358,4216.410256,4655.897435,4066.153846,4059.487179
140,4475.897435,4248.717948,4524.102564,4278.461538,4519.487179,4212.820512,4440.512820,4232.307692,4253.333333,4567.179487,4222.564102,4662.051282,4065.641025,4058.461538
141,4476.923076,4244.615384,4524.615384,4276.923076,4512.307692,4206.153846,4432.307692,4223.076923,4245.641025,4561.538461,4217.435897,4661.025641,4065.641025,4056.410256
142,4477.435897,4249.743589,4521.538461,4276.923076,4511.794871,4205.128205,4433.846153,4207.692307,4232.820512,4547.179487,4207.692307,4654.358974,4078.461538,4056.923076
143,4475.897435,4256.410256,4520.000000,4279.487179,4516.923076,4211.282051,4441.025641,4209.230769,4227.179487,4547.692307,4203.076923,4656.410256,4082.564102,4056.923076
144,4476.923076,4255.384615,4520.512820,4280.512820,4513.333333,4209.743589,4437.948717,4220.512820,4233.846153,4558.974358,4208.717948,4657.435897,4076.923076,4057.948717
145,4478.974358,4255.384615,4521.538461,4278.461538,4510.769230,4206.666666,4431.794871,4215.897435,4241.025641,4557.948717,4215.384615,4649.743589,4071.282051,4059.487179
146,4475.897435,4254.358974,4518.974358,4272.820512,4512.820512,4207.692307,4432.820512,4205.641025,4233.333333,4546.153846,4215.384615,4646.153846,4062.051282,4053.846153
147,4473.333333,4251.794871,4511.794871,4268.717948,4513.333333,4209.230769,4432.307692,4209.230769,4228.205128,4543.076923,4209.230769,4648.205128,4058.974358,4050.256410
148,4474.358974,4253.846153,4507.692307,4269.230769,4512.820512,4209.743589,4429.230769,4214.358974,4234.358974,4549.230769,4198.461538,4644.102564,4060.512820,4051.282051
149,4472.820512,4253.333333,4507.692307,4270.769230,4510.769230,4207.179487,4428.717948,4207.179487,4233.333333,4547.179487,4191.794871,4635.384615,4049.743589,4047.179487
150,4472.820512,4247.692307,4507.692307,4270.256410,4511.794871,4206.666666,4432.307692,4204.615384,4229.743589,4544.615384,4195.897435,4631.282051,4036.410256,4045.128205
151,4473.846153,4247.179487,4506.666666,4267.179487,4515.384615,4210.769230,4436.410256,4209.230769,4228.717948,4546.153846,4204.615384,4632.307692,4037.948717,4049.230769
152,4477.948717,4257.948717,4509.230769,4267.692307,4514.871794,4213.333333,4438.974358,4213.846153,4230.769230,4548.205128,4205.641025,4638.461538,4042.051282,4054.358974
153,4485.641025,4266.666666,4511.282051,4265.128205,4513.846153,4210.769230,4440.512820,4224.102564,4240.000000,4555.897435,4199.487179,4648.205128,4040.512820,4057.435897
154,4484.615384,4260.000000,4509.230769,4257.948717,4511.794871,4207.692307,4436.410256,4225.641025,4240.000000,4559.487179,4193.846153,4648.717948,4034.871794,4052.820512
155,4471.794871,4251.794871,4505.641025,4256.410256,4502.564102,4200.512820,4429.230769,4211.282051,4224.102564,4546.666666,4192.820512,4639.487179,4015.897435,4038.461538
156,4468.205128,4256.410256,4505.641025,4257.435897,4501.538461,4197.948717,4430.256410,4206.153846,4224.102564,4536.923076,4198.461538,4641.025641,4009.743589,4034.871794
157,4476.923076,4257.435897,4507.179487,4257.435897,4511.282051,4206.153846,4434.871794,4214.358974,4236.410256,4546.666666,4205.128205,4649.743589,4026.666666,4047.179487
158,4476.410256,4247.692307,4507.179487,4253.846153,4514.871794,4210.769230,4430.256410,4212.307692,4230.769230,4550.256410,4201.025641,4649.230769,4032.820512,4050.769230
159,4473.846153,4248.717948,4508.717948,4251.282051,4511.794871,4206.666666,4424.615384,4207.692307,4228.205128,4545.128205,4191.794871,4646.666666,4024.102564,4041.538461
160,4476.410256,4258.974358,4508.717948,4254.358974,4505.641025,4201.025641,4424.615384,4210.769230,4234.358974,4547.692307,4192.820512,4645.641025,4020.512820,4039.487179
161,4475.897435,4259.487179,4508.717948,4258.974358,4503.076923,4199.487179,4428.205128,4215.897435,4235.897435,4551.282051,4201.025641,4645.641025,4024.102564,4044.102564
162,4477.435897,4252.820512,4515.384615,4261.025641,4508.717948,4202.564102,4432.820512,4218.974358,4235.384615,4549.743589,4204.615384,4648.205128,4025.128205,4046.153846
163,4482.051282,4249.743589,4522.051282,4255.897435,4511.794871,4205.641025,4430.256410,4216.410256,4231.282051,4546.153846,4200.512820,4649.230769,4031.282051,4049.230769
164,4481.025641,4252.307692,4521.538461,4250.256410,4509.743589,4206.666666,4428.205128,4212.307692,4230.256410,4544.102564,4203.076923,4647.692307,4034.358974,4054.358974
165,4482.564102,4256.923076,4521.025641,4253.846153,4508.205128,4204.615384,4430.769230,4214.358974,4236.410256,4547.179487,4210.256410,4651.282051,4028.717948,4054.358974
166,4487.179487,4257.948717,4521.025641,4259.487179,4504.615384,4200.000000,4425.641025,4211.282051,4229.743589,4548.717948,4204.615384,4652.307692,4024.615384,4049.743589
167,4486.666666,4262.051282,4518.974358,4261.538461,4501.538461,4196.923076,4424.102564,4206.666666,4224.102564,4548.717948,4199.487179,4651.282051,4028.717948,4049.230769
168,4488.717948,4267.692307,4521.538461,4263.076923,4505.641025,4202.051282,4434.358974,4211.794871,4237.948717,4551.282051,4210.769230,4656.923076,4037.948717,4053.846153
169,4488.205128,4262.051282,4524.102564,4257.948717,4507.179487,4207.692307,4434.871794,4209.743589,4236.923076,4548.717948,4216.923076,4655.897435,4035.384615,4051.282051
170,4483.076923,4252.307692,4511.282051,4250.769230,4501.025641,4202.051282,4422.051282,4198.974358,4221.538461,4540.512820,4207.692307,4645.641025,4026.153846,4043.589743
171,4481.025641,4257.948717,4505.641025,4254.871794,4502.564102,4197.435897,4423.589743,4202.051282,4224.102564,4541.538461,4200.000000,4642.564102,4027.692307,4042.051282
172,4485.128205,4269.743589,4517.948717,4258.974358,4511.282051,4203.076923,4432.820512,4211.282051,4231.794871,4545.641025,4198.461538,4647.692307,4034.871794,4045.641025
173,4486.153846,4264.102564,4520.512820,4254.871794,4507.179487,4203.589743,4429.230769,4212.820512,4229.743589,4542.564102,4200.512820,4645.641025,4029.230769,4047.179487
174,4488.205128,4257.435897,4514.871794,4261.538461,4502.051282,4197.948717,4427.179487,4213.333333,4232.820512,4545.128205,4210.256410,4647.692307,4023.589743,4051.794871
175,4492.307692,4265.128205,4516.923076,4266.666666,4507.179487,4201.538461,4432.307692,4217.435897,4236.923076,4547.179487,4212.820512,4651.794871,4027.179487,4053.846153
176,4484.615384,4268.205128,4513.333333,4253.333333,4508.205128,4207.692307,4428.717948,4211.282051,4227.179487,4535.897435,4199.487179,4638.461538,4021.025641,4043.076923
177,4475.384615,4264.102564,4505.641025,4255.384615,4507.179487,4206.666666,4426.153846,4205.641025,4220.000000,4529.743589,4188.717948,4630.256410,4017.435897,4036.410256
178,4484.102564,4270.769230,4508.717948,4268.205128,4511.282051,4208.717948,4434.871794,4209.743589,4220.512820,4537.948717,4193.846153,4638.461538,4025.128205,4041.538461
179,4490.256410,4274.358974,4511.794871,4260.512820,4509.230769,4210.256410,4437.435897,4208.717948,4217.435897,4537.435897,4195.384615,4638.974358,4029.230769,4044.102564
180,4482.051282,4261.538461,4507.179487,4254.358974,4503.076923,4201.538461,4429.743589,4204.615384,4217.948717,4533.333333,4194.358974,4635.897435,4032.307692,4043.589743
181,4480.000000,4259.487179,4507.179487,4261.025641,4501.025641,4194.871794,4426.153846,4208.717948,4225.128205,4539.487179,4202.564102,4645.128205,4032.307692,4044.615384
182,4488.717948,4269.230769,4512.307692,4255.897435,4497.435897,4197.948717,4428.205128,4211.282051,4223.589743,4541.538461,4203.589743,4647.179487,4022.564102,4042.051282
183,4491.282051,4272.820512,4514.871794,4255.897435,4501.538461,4201.025641,4434.871794,4212.820512,4224.615384,4542.051282,4198.461538,4646.666666,4026.666666,4045.128205
184,4485.128205,4266.153846,4510.769230,4264.615384,4505.641025,4197.435897,4436.923076,4215.384615,4232.820512,4544.102564,4195.897435,4651.282051,4041.025641,4054.871794
185,4476.410256,4255.384615,4501.538461,4252.307692,4500.000000,4195.897435,4428.205128,4208.205128,4223.589743,4535.897435,4193.846153,4640.000000,4030.256410,4048.717948
186,4476.410256,4253.846153,4504.615384,4248.717948,4501.538461,4201.538461,4429.743589,4208.205128,4215.897435,4534.358974,4201.025641,4633.846153,4023.589743,4042.051282
187,4491.794871,4268.205128,4518.461538,4267.692307,4511.794871,4206.666666,4441.538461,4223.076923,4230.769230,4548.205128,4216.410256,4650.769230,4042.051282,4058.461538
188,4504.102564,4281.538461,4523.589743,4275.384615,4515.897435,4208.717948,4443.589743,4229.743589,4242.051282,4552.820512,4227.692307,4662.564102,4045.128205,4072.820512
189,4506.666666,4283.589743,4526.153846,4281.538461,4519.487179,4215.897435,4445.128205,4230.256410,4241.538461,4555.897435,4227.692307,4663.076923,4031.282051,4073.333333
190,4508.717948,4287.692307,4535.897435,4291.282051,4526.153846,4222.051282,4450.256410,4238.974358,4252.820512,4573.333333,4225.128205,4669.743589,4037.948717,4078.974358
191,4508.205128,4290.769230,4536.923076,4279.487179,4523.589743,4219.487179,4448.205128,4243.589743,4262.564102,4577.435897,4230.769230,4672.307692,4055.384615,4083.076923
192,4506.153846,4282.051282,4525.641025,4266.666666,4517.435897,4212.820512,4439.487179,4232.820512,4248.205128,4558.974358,4240.000000,4663.589743,4056.923076,4076.410256
193,4505.641025,4276.923076,4521.025641,4272.820512,4517.948717,4211.794871,4435.897435,4222.051282,4234.871794,4548.205128,4230.769230,4658.974358,4047.179487,4072.307692
194,4504.615384,4281.025641,4523.076923,4275.384615,4520.000000,4215.384615,4438.461538,4222.564102,4238.974358,4549.230769,4218.461538,4657.948717,4042.051282,4073.333333
195,4505.128205,4283.589743,4526.666666,4275.384615,4522.564102,4217.948717,4442.564102,4228.205128,4242.051282,4554.871794,4229.230769,4657.948717,4045.641025,4075.897435
196,4513.846153,4283.076923,4535.384615,4286.153846,4526.153846,4220.000000,4448.205128,4231.282051,4242.051282,4560.512820,4237.948717,4665.128205,4053.846153,4083.589743
197,4518.974358,4286.666666,4539.487179,4290.256410,4527.179487,4222.051282,4452.820512,4230.769230,4244.615384,4557.435897,4234.358974,4670.256410,4055.897435,4087.692307
198,4513.846153,4293.846153,4537.948717,4284.615384,4528.205128,4226.666666,4450.769230,4230.769230,4245.641025,4552.820512,4233.846153,4665.641025,4057.948717,4083.589743
199,4511.282051,4292.307692,4534.871794,4277.435897,4529.230769,4227.179487,4445.641025,4229.743589,4242.051282,4556.410256,4228.205128,4660.000000,4060.000000,4079.487179
200,4509.743589,4286.153846,4526.666666,4269.230769,4526.153846,4220.000000,4444.102564,4227.692307,4240.512820,4555.384615,4218.974358,4659.487179,4050.769230,4075.897435
201,4505.128205,4283.076923,4523.076923,4271.794871,4520.000000,4219.487179,4446.153846,4228.205128,4240.512820,4551.794871,4222.564102,4664.102564,4044.102564,4072.820512
202,4507.179487,4278.461538,4526.666666,4280.512820,4524.615384,4226.153846,4448.717948,4236.410256,4244.615384,4553.333333,4224.102564,4669.743589,4049.743589,4073.846153
203,4510.256410,4275.384615,4524.615384,4273.333333,4529.743589,4226.153846,4450.256410,4240.000000,4249.743589,4552.307692,4217.435897,4667.179487,4052.820512,4076.410256
204,4505.128205,4277.948717,4521.538461,4264.102564,4522.051282,4218.974358,4447.179487,4231.794871,4246.666666,4550.256410,4221.538461,4660.512820,4052.307692,4076.410256
205,4506.153846,4278.974358,4523.076923,4269.743589,4519.487179,4217.948717,4440.512820,4225.128205,4242.051282,4551.794871,4226.666666,4659.487179,4053.846153,4074.871794
206,4506.666666,4277.435897,4522.051282,4269.743589,4521.538461,4217.435897,4432.820512,4218.461538,4233.333333,4548.717948,4223.589743,4654.871794,4050.769230,4071.794871
207,4502.564102,4280.512820,4519.487179,4266.666666,4520.512820,4215.897435,4433.333333,4210.769230,4226.666666,4544.615384,4226.666666,4651.794871,4049.743589,4071.282051
208,4506.666666,4286.153846,4523.589743,4278.974358,4523.589743,4220.512820,4444.615384,4218.974358,4233.333333,4551.794871,4227.179487,4660.000000,4055.897435,4076.923076
209,4508.717948,4282.564102,4523.076923,4285.641025,4524.615384,4218.974358,4448.205128,4229.230769,4238.461538,4551.282051,4213.333333,4661.025641,4057.435897,4075.897435
210,4499.487179,4271.794871,4513.333333,4275.897435,4515.897435,4211.282051,4438.974358,4218.974358,4231.794871,4538.974358,4207.692307,4651.794871,4051.794871,4066.153846
211,4489.743589,4265.128205,4505.641025,4262.564102,4510.256410,4209.230769,4428.717948,4205.641025,4224.102564,4533.333333,4211.282051,4647.179487,4046.153846,4060.000000
212,4488.717948,4267.692307,4502.564102,4255.384615,4511.282051,4207.692307,4425.641025,4206.666666,4223.076923,4537.948717,4214.358974,4646.153846,4042.564102,4058.461538
213,4497.948717,4272.307692,4511.282051,4262.564102,4510.769230,4205.641025,4428.717948,4213.846153,4229.230769,4547.179487,4220.000000,4649.743589,4043.076923,4062.564102
214,4508.717948,4274.358974,4520.000000,4277.435897,4515.897435,4211.282051,4431.794871,4220.000000,4238.974358,4549.743589,4222.051282,4656.923076,4047.179487,4070.769230
215,4507.179487,4280.000000,4510.769230,4278.461538,4516.410256,4212.820512,4429.743589,4217.948717,4233.846153,4543.589743,4209.743589,4656.923076,4053.333333,4071.794871
216,4505.641025,4283.589743,4506.153846,4272.307692,4511.282051,4207.692307,4428.205128,4213.333333,4226.666666,4541.538461,4206.153846,4657.948717,4056.410256,4072.820512
217,4514.871794,4281.025641,4519.487179,4274.871794,4514.358974,4208.717948,4433.846153,4218.974358,4235.897435,4553.333333,4231.282051,4666.666666,4053.333333,4078.974358
218,4517.948717,4276.923076,4529.230769,4276.923076,4518.461538,4216.410256,4442.564102,4227.179487,4244.615384,4563.076923,4249.743589,4670.256410,4055.897435,4085.641025
219,4512.820512,4273.846153,4520.512820,4275.384615,4518.461538,4217.948717,4442.564102,4222.564102,4243.076923,4559.487179,4238.974358,4667.179487,4057.948717,4086.153846
220,4508.717948,4271.794871,4510.769230,4272.820512,4514.358974,4210.769230,4432.820512,4216.410256,4240.000000,4550.256410,4222.564102,4660.512820,4049.230769,4078.461538
221,4509.230769,4274.871794,4512.820512,4273.333333,4511.794871,4206.666666,4430.256410,4217.435897,4238.461538,4544.615384,4214.871794,4655.897435,4048.717948,4072.307692
222,4512.820512,4277.435897,4520.000000,4277.435897,4514.871794,4211.282051,4440.512820,4222.051282,4239.487179,4547.692307,4220.512820,4655.384615,4055.897435,4074.358974
223,4512.820512,4272.307692,4520.512820,4274.358974,4517.948717,4217.435897,4444.615384,4225.128205,4240.512820,4549.230769,4228.205128,4651.794871,4050.769230,4075.897435
224,4510.769230,4269.230769,4516.923076,4269.743589,4516.923076,4218.461538,4446.153846,4224.102564,4237.948717,4546.153846,4223.076923,4645.641025,4045.641025,4072.820512
225,4517.435897,4275.384615,4521.538461,4282.051282,4521.538461,4219.487179,4451.282051,4228.205128,4241.538461,4550.256410,4222.051282,4653.333333,4056.410256,4076.410256
226,4526.153846,4282.564102,4525.641025,4298.461538,4527.692307,4222.564102,4453.333333,4236.410256,4251.794871,4558.974358,4237.435897,4668.205128,4069.743589,4087.692307
227,4525.641025,4287.179487,4525.128205,4291.794871,4522.564102,4221.538461,4451.794871,4233.333333,4252.307692,4562.051282,4237.435897,4668.717948,4070.769230,4090.769230
228,4519.487179,4283.076923,4524.615384,4280.512820,4516.923076,4213.333333,4448.717948,4220.512820,4243.589743,4556.410256,4222.564102,4659.487179,4064.615384,4084.615384
229,4515.384615,4273.333333,4522.564102,4278.461538,4515.897435,4208.717948,4444.102564,4217.948717,4240.000000,4551.282051,4225.128205,4656.923076,4061.025641,4081.025641
230,4516.410256,4270.256410,4520.000000,4273.333333,4515.384615,4211.794871,4444.615384,4223.589743,4244.615384,4555.384615,4230.769230,4661.025641,4062.564102,4085.128205
231,4525.641025,4278.974358,4527.692307,4276.410256,4522.051282,4219.487179,4454.358974,4230.256410,4256.923076,4566.153846,4231.794871,4664.102564,4069.230769,4093.333333
232,4535.897435,4294.358974,4538.974358,4291.282051,4531.794871,4226.666666,4461.538461,4237.948717,4263.589743,4570.769230,4245.641025,4669.230769,4073.846153,4098.974358
233,4540.000000,4298.461538,4534.358974,4291.794871,4530.769230,4226.666666,4457.948717,4237.948717,4255.897435,4564.102564,4249.743589,4672.820512,4072.307692,4098.461538
234,4537.435897,4283.076923,4523.589743,4284.102564,4527.692307,4226.666666,4454.871794,4230.769230,4249.743589,4559.487179,4233.846153,4669.230769,4075.384615,4093.846153
235,4535.897435,4278.461538,4525.128205,4285.641025,4532.307692,4230.256410,4457.435897,4230.769230,4253.333333,4564.102564,4231.282051,4668.205128,4080.512820,4094.871794
236,4541.538461,4296.410256,4528.717948,4286.153846,4535.384615,4229.230769,4458.461538,4236.923076,4254.871794,4565.128205,4242.051282,4669.230769,4073.846153,4099.487179
237,4542.564102,4300.000000,4523.589743,4282.051282,4530.256410,4224.615384,4448.205128,4233.333333,4250.769230,4557.948717,4240.512820,4664.102564,4066.666666,4095.384615
238,4538.461538,4290.256410,4521.538461,4284.102564,4525.641025,4222.564102,4442.051282,4221.025641,4245.641025,4551.794871,4237.435897,4660.000000,4064.102564,4089.743589
239,4542.051282,4294.358974,4523.076923,4290.256410,4525.128205,4222.051282,4445.128205,4220.000000,4244.102564,4549.230769,4235.897435,4661.025641,4055.897435,4089.230769
240,4548.205128,4297.435897,4520.000000,4289.230769,4526.153846,4221.538461,4443.589743,4225.641025,4247.179487,4549.230769,4227.692307,4660.512820,4049.230769,4091.282051
241,4551.794871,4294.871794,4526.153846,4287.692307,4529.230769,4224.615384,4444.102564,4225.641025,4251.282051,4555.384615,4229.230769,4663.589743,4052.820512,4093.846153
242,4558.974358,4302.564102,4535.897435,4288.717948,4532.307692,4231.282051,4454.358974,4225.641025,4253.846153,4558.461538,4244.102564,4670.769230,4058.461538,4098.461538
243,4561.025641,4311.282051,4531.794871,4285.641025,4540.000000,4236.410256,4458.461538,4231.794871,4252.307692,4556.410256,4249.230769,4670.256410,4058.974358,4101.025641
244,4561.538461,4311.282051,4524.102564,4288.205128,4542.051282,4235.897435,4455.384615,4236.923076,4253.333333,4556.923076,4245.641025,4664.615384,4052.307692,4100.512820
245,4564.615384,4305.641025,4525.641025,4294.358974,4536.410256,4235.384615,4456.923076,4237.948717,4259.487179,4562.051282,4240.512820,4662.564102,4035.384615,4096.923076
246,4561.538461,4303.076923,4527.179487,4292.820512,4537.435897,4237.948717,4459.487179,4238.461538,4261.025641,4564.102564,4235.897435,4664.615384,4018.461538,4095.384615
247,4560.000000,4308.205128,4524.102564,4288.717948,4541.538461,4234.358974,4457.948717,4240.512820,4260.512820,4563.589743,4239.487179,4668.717948,4011.794871,4097.948717
248,4565.128205,4310.769230,4523.589743,4286.153846,4536.923076,4230.769230,4455.897435,4241.538461,4264.615384,4567.179487,4244.615384,4670.769230,4006.666666,4099.487179
249,4568.717948,4305.641025,4525.128205,4280.512820,4533.333333,4230.256410,4452.307692,4238.461538,4270.256410,4566.666666,4246.153846,4667.179487,3996.923077,4096.410256
250,4565.641025,4306.153846,4524.615384,4284.615384,4533.846153,4227.692307,4453.333333,4234.871794,4268.717948,4563.076923,4243.589743,4668.205128,3997.435898,4095.384615
251,4561.025641,4306.666666,4522.051282,4291.282051,4530.256410,4225.641025,4456.923076,4235.384615,4262.051282,4563.076923,4235.384615,4672.307692,4006.153846,4094.358974
252,4559.487179,4300.512820,4520.512820,4281.025641,4528.717948,4227.179487,4455.384615,4232.307692,4256.410256,4563.589743,4226.666666,4665.641025,3997.948718,4088.205128
253,4563.589743,4300.000000,4522.564102,4273.846153,4532.820512,4227.692307,4451.794871,4226.153846,4254.358974,4558.974358,4226.153846,4657.948717,3982.564103,4084.615384
254,4569.743589,4304.102564,4522.051282,4277.948717,4534.871794,4230.256410,4450.256410,4228.205128,4252.820512,4557.948717,4234.871794,4665.641025,3987.179488,4089.230769
255,4573.333333,4306.666666,4526.153846,4277.948717,4535.384615,4233.333333,4452.307692,4237.948717,4255.384615,4560.512820,4236.923076,4674.871794,3998.974359,4092.820512
