,AF3,F7,F3,FC5,T7,P7,O1,O2,P8,T8,FC6,F4,F8,AF4
0,4375.897435,4392.820512,4543.589743,4270.769230,4514.871794,4193.846153,4358.461538,4229.230769,4244.102564,4520.000000,4195.897435,4641.025641,4000.000000,4090.256410
1,4380.000000,4396.923076,4544.102564,4271.282051,4515.384615,4194.871794,4351.794871,4229.743589,4246.666666,4519.487179,4203.076923,4642.564102,3994.358975,4085.641025
2,4384.615384,4403.076923,4544.102564,4264.102564,4516.410256,4193.333333,4354.358974,4233.846153,4255.897435,4516.410256,4206.666666,4647.179487,4000.512820,4082.051282
3,4378.974358,4396.923076,4543.589743,4260.000000,4514.871794,4190.256410,4356.923076,4229.230769,4253.333333,4514.358974,4205.128205,4647.179487,4005.128205,4083.076923
4,4384.102564,4393.333333,4547.692307,4264.102564,4516.410256,4195.897435,4344.102564,4225.641025,4250.256410,4518.461538,4208.205128,4646.666666,4008.205128,4095.897435
5,4393.846153,4401.538461,4549.230769,4268.205128,4526.666666,4203.589743,4330.769230,4229.743589,4258.974358,4529.743589,4214.358974,4646.666666,4010.256410,4105.641025
6,4386.153846,4397.435897,4543.076923,4267.179487,4526.666666,4198.461538,4333.333333,4227.179487,4258.974358,4529.743589,4210.769230,4643.589743,4004.102564,4088.205128
7,4375.384615,4388.205128,4538.461538,4262.564102,4514.358974,4191.794871,4343.589743,4222.051282,4247.692307,4516.410256,4198.461538,4642.564102,3997.435898,4073.846153
8,4377.948717,4388.205128,4541.538461,4260.512820,4510.769230,4192.307692,4343.589743,4222.564102,4244.615384,4512.307692,4195.384615,4645.641025,3999.487180,4085.128205
9,4381.538461,4388.717948,4546.666666,4261.538461,4514.358974,4191.794871,4335.897435,4224.615384,4246.666666,4513.846153,4200.000000,4645.641025,3999.487180,4090.769230
10,4380.000000,4389.230769,4544.102564,4260.512820,4512.820512,4189.743589,4333.846153,4225.128205,4245.641025,4512.307692,4195.897435,4643.076923,3995.897436,4078.974358
11,4377.435897,4389.743589,4536.410256,4261.538461,4512.820512,4190.256410,4328.717948,4222.564102,4242.051282,4512.820512,4192.820512,4641.538461,3996.410257,4073.846153
12,4374.358974,4389.743589,4538.461538,4263.589743,4516.410256,4190.769230,4305.641025,4214.358974,4240.000000,4507.692307,4196.923076,4640.000000,3993.846154,4075.897435
13,4374.358974,4389.743589,4541.025641,4263.076923,4515.897435,4192.820512,4285.128205,4210.769230,4240.512820,4503.076923,4193.333333,4636.410256,3989.743590,4078.974358
14,4376.923076,4392.307692,4536.923076,4263.076923,4513.846153,4194.871794,4282.051282,4217.948717,4245.128205,4508.717948,4190.769230,4637.948717,3993.333334,4083.076923
15,4375.384615,4390.256410,4537.435897,4262.564102,4513.333333,4194.358974,4280.512820,4217.948717,4245.641025,4509.230769,4195.897435,4641.538461,3996.923077,4075.384615
16,4374.871794,4385.641025,4538.461538,4260.512820,4515.384615,4192.820512,4283.076923,4211.282051,4237.435897,4505.128205,4191.794871,4637.948717,3994.871795,4069.230769
17,4378.974358,4386.153846,4536.410256,4261.025641,4517.435897,4194.871794,4294.871794,4210.256410,4235.897435,4510.769230,4187.692307,4633.333333,3994.358975,4078.974358
18,4381.025641,4390.256410,4540.000000,4263.076923,4517.435897,4198.461538,4303.589743,4215.384615,4245.641025,4517.948717,4193.846153,4639.487179,3995.384616,4087.692307
19,4380.512820,4391.282051,4545.641025,4261.538461,4515.384615,4196.410256,4308.717948,4221.025641,4249.743589,4513.846153,4195.384615,4646.666666,3996.923077,4083.076923
20,4383.589743,4386.666666,4543.076923,4263.589743,4508.205128,4190.256410,4312.820512,4224.102564,4243.076923,4508.717948,4192.307692,4645.128205,4000.512820,4074.871794
21,4382.564102,4380.512820,4535.897435,4264.615384,4504.102564,4188.205128,4317.435897,4221.025641,4238.461538,4508.717948,4194.358974,4637.948717,3997.948718,4073.333333
22,4375.384615,4380.512820,4532.307692,4258.974358,4503.076923,4186.666666,4327.692307,4212.307692,4235.384615,4502.564102,4189.743589,4632.820512,3988.717949,4073.846153
23,4374.871794,4387.179487,4532.820512,4262.051282,4504.102564,4185.641025,4344.102564,4210.769230,4234.871794,4497.948717,4179.487179,4634.871794,3987.692308,4071.794871
24,4383.589743,4387.179487,4536.410256,4272.307692,4508.717948,4190.769230,4352.820512,4218.461538,4246.666666,4506.666666,4183.589743,4637.948717,3993.846154,4069.230769
25,4383.589743,4378.974358,4538.974358,4270.256410,4507.179487,4190.769230,4347.692307,4221.025641,4251.794871,4511.794871,4194.871794,4637.435897,3994.871795,4067.179487
26,4374.358974,4378.461538,4538.461538,4259.487179,4504.615384,4184.615384,4345.128205,4213.846153,4239.487179,4499.487179,4192.307692,4634.358974,3987.692308,4067.179487
27,4371.282051,4380.512820,4532.820512,4260.000000,4507.692307,4188.717948,4350.769230,4211.282051,4233.846153,4496.410256,4186.153846,4629.230769,3984.615385,4072.307692
28,4374.871794,4377.948717,4529.743589,4262.051282,4509.743589,4195.897435,4356.410256,4215.897435,4242.051282,4511.282051,4195.384615,4630.256410,3991.794872,4076.923076
29,4381.025641,4376.410256,4535.897435,4256.923076,4506.153846,4192.820512,4368.717948,4219.487179,4246.153846,4515.384615,4201.025641,4639.487179,4001.025641,4073.846153
30,4384.102564,4376.410256,4540.000000,4254.358974,4508.717948,4190.256410,4392.820512,4225.128205,4246.153846,4508.205128,4191.794871,4641.025641,4000.512820,4069.230769
31,4379.487179,4375.897435,4535.897435,4251.794871,4514.871794,4193.846153,4402.564102,4231.794871,4249.230769,4511.794871,4190.256410,4636.923076,3993.846154,4067.692307
32,4373.333333,4376.923076,4530.256410,4249.230769,4515.897435,4195.384615,4386.666666,4225.641025,4244.615384,4514.358974,4192.307692,4635.897435,3991.282052,4069.743589
33,4371.794871,4375.897435,4527.692307,4253.846153,4513.333333,4191.282051,4372.307692,4213.846153,4235.384615,4503.589743,4186.666666,4635.897435,3989.230770,4065.641025
34,4373.846153,4374.871794,4531.282051,4258.974358,4512.820512,4190.256410,4379.487179,4214.871794,4244.102564,4504.102564,4187.692307,4637.948717,3992.820513,4054.358974
35,4378.974358,4376.923076,4535.384615,4260.512820,4518.974358,4194.871794,4398.461538,4226.153846,4258.974358,4514.358974,4189.230769,4641.538461,3995.384616,4057.435897
36,4378.974358,4375.897435,4532.820512,4258.974358,4517.948717,4195.384615,4400.512820,4226.666666,4250.256410,4504.615384,4181.538461,4636.923076,3988.205129,4070.769230
37,4370.769230,4373.846153,4528.205128,4254.358974,4510.256410,4189.743589,4385.128205,4220.000000,4237.435897,4491.794871,4181.025641,4632.820512,3983.076924,4066.153846
38,4368.717948,4374.871794,4527.692307,4249.743589,4509.230769,4187.179487,4377.948717,4218.974358,4241.025641,4503.076923,4185.128205,4635.384615,3989.230770,4051.794871
39,4368.717948,4367.692307,4524.102564,4247.692307,4511.794871,4188.717948,4374.871794,4220.512820,4240.000000,4508.205128,4179.487179,4632.820512,3991.282052,4053.333333
40,4369.230769,4361.025641,4518.974358,4244.615384,4505.128205,4182.564102,4368.717948,4216.410256,4234.871794,4498.974358,4181.025641,4628.717948,3986.153847,4065.641025
41,4374.871794,4365.641025,4523.076923,4243.589743,4501.538461,4180.512820,4381.538461,4213.333333,4240.512820,4498.461538,4191.282051,4633.846153,3992.820513,4072.820512
42,4374.871794,4370.256410,4528.717948,4248.717948,4510.256410,4188.205128,4393.846153,4217.435897,4246.666666,4504.615384,4192.820512,4638.461538,4000.512820,4068.717948
43,4370.256410,4366.666666,4526.666666,4254.358974,4511.282051,4186.666666,4380.512820,4216.410256,4237.435897,4496.923076,4187.179487,4635.384615,3989.230770,4054.871794
44,4376.410256,4367.692307,4527.179487,4255.897435,4507.692307,4182.564102,4369.743589,4213.846153,4232.820512,4491.794871,4189.230769,4634.871794,3981.538462,4052.820512
45,4381.538461,4376.923076,4534.358974,4254.358974,4507.179487,4185.641025,4364.102564,4219.487179,4244.615384,4503.589743,4191.794871,4637.435897,3991.282052,4065.641025
46,4374.871794,4375.897435,4530.769230,4248.717948,4507.179487,4185.641025,4343.589743,4217.948717,4248.717948,4511.794871,4185.641025,4631.794871,3992.307693,4071.794871
47,4371.794871,4370.256410,4520.000000,4247.692307,4506.666666,4184.615384,4334.871794,4210.256410,4239.487179,4509.230769,4177.435897,4626.153846,3978.461539,4060.512820
48,4374.871794,4370.256410,4521.025641,4255.897435,4507.179487,4188.205128,4342.051282,4211.794871,4238.461538,4505.128205,4174.871794,4627.179487,3978.974359,4051.282051
49,4375.384615,4372.307692,4528.205128,4256.410256,4507.692307,4189.230769,4338.461538,4211.794871,4236.923076,4498.974358,4177.435897,4629.743589,3991.794872,4060.512820
50,4377.435897,4373.333333,4529.743589,4249.743589,4508.205128,4187.692307,4340.512820,4202.564102,4226.153846,4491.794871,4179.487179,4633.333333,3994.871795,4075.384615
51,4381.025641,4374.358974,4529.230769,4251.282051,4510.256410,4190.256410,4357.948717,4203.589743,4227.692307,4496.410256,4182.051282,4637.435897,3992.307693,4074.358974
52,4381.538461,4375.897435,4533.333333,4255.897435,4510.769230,4191.282051,4365.128205,4210.256410,4238.461538,4506.666666,4187.692307,4640.000000,3993.333334,4065.128205
53,4380.000000,4373.846153,4534.871794,4255.897435,4508.205128,4186.153846,4357.435897,4207.179487,4234.358974,4504.615384,4187.179487,4637.435897,3992.820513,4065.641025
54,4378.461538,4372.307692,4531.282051,4252.820512,4504.615384,4182.051282,4349.743589,4200.000000,4226.153846,4496.923076,4181.025641,4635.384615,3989.743590,4069.230769
55,4380.000000,4375.897435,4532.307692,4250.769230,4506.153846,4184.102564,4336.410256,4203.076923,4230.769230,4493.846153,4188.205128,4638.461538,3990.769231,4067.692307
56,4380.512820,4376.923076,4538.461538,4252.820512,4512.307692,4188.717948,4316.923076,4212.307692,4239.487179,4497.435897,4194.358974,4642.051282,3992.820513,4066.153846
57,4378.974358,4374.358974,4540.000000,4261.538461,4511.794871,4188.717948,4324.615384,4214.358974,4242.051282,4504.102564,4182.051282,4644.102564,3989.743590,4063.076923
58,4373.846153,4370.769230,4532.307692,4260.000000,4504.102564,4185.128205,4357.435897,4208.205128,4234.871794,4499.487179,4170.769230,4637.435897,3982.051283,4055.384615
59,4361.025641,4363.076923,4523.589743,4248.205128,4502.564102,4183.076923,4375.384615,4204.615384,4224.615384,4485.641025,4168.205128,4627.179487,3976.923077,4053.333333
60,4360.000000,4361.025641,4520.512820,4251.282051,4507.179487,4185.641025,4384.615384,4212.307692,4232.820512,4491.794871,4172.820512,4628.205128,3981.025642,4062.564102
61,4377.435897,4371.282051,4528.205128,4264.615384,4507.179487,4190.256410,4407.692307,4222.051282,4247.179487,4506.666666,4187.692307,4640.000000,3987.179488,4068.205128
62,4381.025641,4376.410256,4534.871794,4266.153846,4504.102564,4189.743589,4422.051282,4222.564102,4241.025641,4498.461538,4193.333333,4643.076923,3989.230770,4062.564102
63,4362.564102,4361.538461,4524.102564,4252.307692,4504.615384,4186.666666,4399.487179,4215.897435,4234.358974,4491.282051,4181.538461,4631.794871,3981.538462,4053.333333
64,4352.820512,4347.692307,4510.769230,4243.076923,4501.538461,4183.076923,4370.769230,4212.307692,4244.615384,4498.461538,4174.358974,4624.102564,3968.205129,4047.692307
65,4362.564102,4357.948717,4514.358974,4253.333333,4499.487179,4184.102564,4378.461538,4215.897435,4246.666666,4499.487179,4176.410256,4628.205128,3967.179488,4047.179487
66,4374.871794,4378.461538,4527.179487,4266.153846,4506.666666,4190.769230,4408.205128,4221.538461,4242.564102,4499.487179,4180.512820,4637.435897,3983.076924,4056.410256
67,4377.435897,4384.102564,4531.794871,4266.666666,4510.256410,4193.846153,4416.923076,4221.538461,4243.589743,4502.051282,4184.615384,4637.948717,3992.307693,4066.153846
68,4370.256410,4382.051282,4526.153846,4263.076923,4508.205128,4194.358974,4405.128205,4216.410256,4240.512820,4496.410256,4178.461538,4630.256410,3984.615385,4064.615384
69,4364.102564,4378.461538,4519.487179,4262.051282,4511.282051,4196.410256,4384.615384,4212.307692,4236.410256,4493.333333,4167.692307,4625.641025,3974.871795,4056.410256
70,4364.102564,4368.205128,4516.410256,4255.384615,4510.769230,4192.307692,4368.205128,4210.256410,4236.923076,4501.025641,4171.282051,4626.153846,3975.897436,4051.794871
71,4370.769230,4369.230769,4523.076923,4256.923076,4510.769230,4190.256410,4388.205128,4211.794871,4242.051282,4509.743589,4184.102564,4630.256410,3987.179488,4061.025641
72,4373.333333,4381.025641,4528.717948,4265.128205,4514.871794,4191.282051,4415.384615,4215.384615,4248.717948,4508.717948,4186.153846,4633.846153,3992.820513,4072.307692
73,4369.230769,4377.948717,4523.589743,4257.435897,4513.333333,4192.820512,4405.128205,4213.333333,4248.717948,4501.538461,4179.487179,4632.307692,3982.564103,4063.076923
74,4371.794871,4369.743589,4524.102564,4253.333333,4508.205128,4193.846153,4395.897435,4211.794871,4243.076923,4498.461538,4180.512820,4632.820512,3975.384616,4056.410256
75,4374.358974,4371.794871,4531.282051,4265.128205,4509.230769,4192.820512,4415.384615,4214.871794,4241.538461,4500.512820,4184.102564,4636.410256,3981.538462,4067.692307
76,4367.692307,4374.358974,4529.743589,4268.717948,4508.205128,4190.769230,4407.179487,4213.846153,4238.974358,4498.461538,4182.564102,4635.384615,3982.564103,4061.538461
77,4361.025641,4370.769230,4522.564102,4260.512820,4503.589743,4190.769230,4356.410256,4206.153846,4233.333333,4496.923076,4172.820512,4630.256410,3972.307693,4044.615384
78,4361.538461,4365.641025,4521.538461,4257.435897,4506.153846,4189.230769,4346.666666,4201.538461,4233.846153,4496.410256,4165.128205,4629.743589,3966.666667,4051.794871
79,4366.666666,4363.076923,4526.153846,4261.025641,4511.794871,4191.282051,4395.384615,4204.615384,4237.435897,4495.384615,4174.358974,4633.846153,3968.717949,4065.641025
80,4371.282051,4366.153846,4527.692307,4266.153846,4514.358974,4196.410256,4426.153846,4208.717948,4240.512820,4499.487179,4185.641025,4635.897435,3976.410257,4065.128205
81,4367.692307,4369.230769,4525.641025,4265.128205,4510.256410,4195.897435,4421.025641,4205.641025,4240.000000,4497.948717,4174.358974,4629.230769,3978.461539,4053.846153
82,4360.000000,4365.641025,4521.025641,4258.974358,4505.641025,4191.794871,4414.871794,4195.384615,4229.230769,4485.128205,4161.538461,4620.512820,3969.230770,4041.538461
83,4361.025641,4364.102564,4521.025641,4261.025641,4506.666666,4191.282051,4418.461538,4189.230769,4220.000000,4480.512820,4169.743589,4624.615384,3965.641026,4042.564102
84,4368.205128,4366.666666,4524.615384,4264.102564,4506.666666,4189.743589,4424.615384,4190.256410,4224.615384,4487.179487,4176.410256,4631.794871,3972.820513,4056.410256
85,4370.769230,4370.769230,4522.051282,4259.487179,4502.564102,4186.666666,4426.666666,4188.717948,4227.692307,4491.282051,4172.820512,4629.743589,3973.846154,4059.487179
86,4371.794871,4375.897435,4516.923076,4260.000000,4500.512820,4185.128205,4412.307692,4189.743589,4226.153846,4494.871794,4173.333333,4628.205128,3975.384616,4054.871794
87,4368.205128,4372.307692,4517.948717,4263.589743,4504.615384,4188.205128,4402.564102,4192.820512,4226.153846,4498.974358,4174.358974,4626.666666,3979.487180,4055.384615
88,4364.102564,4364.102564,4516.410256,4256.923076,4508.717948,4191.282051,4413.846153,4190.769230,4225.128205,4494.358974,4167.692307,4618.974358,3971.282052,4057.435897
89,4366.153846,4364.615384,4511.794871,4251.282051,4507.692307,4185.128205,4415.897435,4187.692307,4224.102564,4486.153846,4162.051282,4615.897435,3966.666667,4055.384615
90,4367.692307,4368.205128,4516.923076,4253.846153,4501.538461,4183.076923,4398.461538,4188.717948,4224.102564,4487.692307,4167.179487,4621.538461,3972.307693,4047.179487
91,4362.051282,4370.769230,4519.487179,4249.743589,4498.974358,4186.153846,4396.923076,4194.358974,4230.256410,4493.846153,4173.333333,4623.589743,3969.230770,4042.051282
92,4357.948717,4374.358974,4513.333333,4244.102564,4497.948717,4184.102564,4415.897435,4196.410256,4236.923076,4495.384615,4169.743589,4621.025641,3963.076924,4045.641025
93,4362.051282,4374.871794,4515.384615,4248.205128,4495.897435,4184.615384,4426.666666,4194.358974,4232.307692,4495.384615,4162.564102,4623.589743,3966.666667,4051.794871
94,4363.589743,4372.820512,4525.128205,4250.256410,4500.000000,4188.717948,4430.256410,4193.846153,4223.589743,4490.256410,4159.487179,4630.256410,3970.256411,4048.205128
95,4361.538461,4378.974358,4525.641025,4247.692307,4502.564102,4186.666666,4435.384615,4195.384615,4223.589743,4484.615384,4156.923076,4628.205128,3965.641026,4042.051282
96,4361.025641,4382.051282,4521.538461,4249.230769,4500.000000,4181.538461,4434.358974,4195.384615,4223.076923,4488.717948,4160.512820,4615.897435,3964.615385,4047.179487
97,4359.487179,4377.948717,4519.487179,4247.692307,4497.435897,4180.512820,4432.820512,4193.846153,4218.974358,4493.846153,4162.564102,4612.820512,3965.128206,4051.282051
98,4357.948717,4382.051282,4518.461538,4246.666666,4497.435897,4185.641025,4434.358974,4200.512820,4226.153846,4491.794871,4160.512820,4623.589743,3967.179488,4044.615384
99,4360.000000,4386.153846,4521.025641,4249.230769,4502.051282,4188.205128,4429.743589,4203.076923,4232.820512,4491.282051,4163.076923,4626.153846,3969.230770,4036.410256
100,4360.512820,4383.589743,4522.051282,4249.230769,4502.564102,4184.102564,4430.769230,4198.974358,4229.743589,4495.897435,4163.589743,4620.000000,3967.692308,4037.948717
101,4361.538461,4385.128205,4519.487179,4247.179487,4496.923076,4183.076923,4437.948717,4200.512820,4232.307692,4498.461538,4164.615384,4622.564102,3971.282052,4043.589743
102,4364.615384,4391.282051,4519.487179,4252.307692,4498.974358,4188.205128,4433.333333,4202.564102,4241.025641,4501.538461,4171.282051,4627.179487,3981.025642,4049.230769
103,4367.179487,4394.358974,4528.205128,4258.974358,4509.230769,4188.205128,4424.102564,4201.538461,4238.974358,4508.717948,4174.358974,4628.717948,3985.641026,4050.769230
104,4371.794871,4396.410256,4535.384615,4261.025641,4510.769230,4190.769230,4417.435897,4205.641025,4235.384615,4511.794871,4176.410256,4633.333333,3985.641026,4054.358974
105,4376.923076,4402.564102,4535.384615,4262.564102,4509.743589,4197.948717,4406.666666,4213.846153,4240.000000,4505.641025,4181.538461,4636.923076,3988.717949,4065.128205
106,4372.307692,4403.076923,4534.358974,4265.641025,4511.794871,4194.871794,4410.769230,4209.743589,4241.025641,4500.512820,4173.846153,4633.846153,3984.615385,4061.025641
107,4369.230769,4396.410256,4534.871794,4264.102564,4507.179487,4189.230769,4440.000000,4205.128205,4236.923076,4501.538461,4164.615384,4630.769230,3978.974359,4047.692307
108,4379.487179,4395.384615,4542.051282,4261.025641,4504.102564,4191.282051,4462.051282,4214.358974,4240.512820,4509.230769,4180.512820,4638.974358,3989.230770,4060.000000
109,4388.717948,4403.589743,4548.717948,4271.794871,4509.743589,4193.846153,4460.000000,4221.538461,4243.589743,4516.410256,4197.435897,4646.666666,4001.025641,4084.102564
110,4387.179487,4408.717948,4549.230769,4280.512820,4514.358974,4195.384615,4461.538461,4220.512820,4242.051282,4515.384615,4193.846153,4647.692307,3997.435898,4077.435897
111,4386.666666,4405.128205,4547.179487,4271.282051,4513.846153,4200.000000,4475.384615,4223.076923,4250.769230,4512.307692,4188.717948,4649.230769,3991.282052,4059.487179
112,4386.666666,4397.948717,4545.641025,4266.153846,4516.410256,4203.589743,4482.051282,4227.179487,4260.000000,4515.897435,4189.743589,4651.282051,3992.820513,4066.153846
113,4379.487179,4393.846153,4540.512820,4269.743589,4520.512820,4198.461538,4474.358974,4223.076923,4248.205128,4515.897435,4191.794871,4645.641025,3989.743590,4073.846153
114,4373.333333,4393.846153,4536.410256,4264.102564,4513.846153,4195.384615,4462.051282,4213.846153,4234.871794,4503.589743,4187.179487,4640.000000,3983.076924,4061.538461
115,4377.435897,4396.410256,4540.512820,4260.000000,4505.128205,4194.871794,4454.871794,4209.230769,4239.487179,4496.410256,4180.000000,4642.564102,3985.641026,4050.769230
116,4381.025641,4398.974358,4542.051282,4262.564102,4507.179487,4190.769230,4456.923076,4215.897435,4246.153846,4505.641025,4182.564102,4646.153846,3990.769231,4055.384615
117,4374.871794,4396.923076,4536.410256,4260.512820,4509.230769,4190.256410,4461.025641,4220.000000,4240.512820,4509.230769,4188.205128,4643.589743,3985.641026,4062.564102
118,4366.666666,4385.641025,4532.307692,4253.846153,4506.153846,4194.871794,4464.615384,4212.307692,4235.384615,4500.000000,4184.102564,4638.974358,3978.974359,4058.461538
119,4366.666666,4378.461538,4529.743589,4256.923076,4505.641025,4192.820512,4473.333333,4209.230769,4236.410256,4496.923076,4177.435897,4638.461538,3978.974359,4048.717948
120,4371.282051,4386.153846,4530.769230,4261.025641,4504.615384,4188.205128,4474.871794,4212.820512,4237.948717,4500.000000,4176.410256,4640.512820,3978.461539,4046.153846
121,4368.205128,4391.794871,4530.769230,4255.897435,4503.589743,4188.717948,4463.076923,4209.743589,4239.487179,4495.897435,4177.948717,4635.897435,3975.384616,4048.717948
122,4360.000000,4387.692307,4526.666666,4253.333333,4504.102564,4188.717948,4458.974358,4207.692307,4234.871794,4492.820512,4171.794871,4628.205128,3971.282052,4052.307692
123,4362.564102,4381.025641,4525.128205,4260.000000,4503.076923,4183.076923,4469.230769,4211.794871,4229.743589,4493.333333,4166.666666,4629.743589,3966.666667,4052.307692
124,4370.256410,4380.000000,4527.179487,4266.153846,4501.025641,4182.051282,4473.333333,4210.256410,4232.307692,4494.358974,4172.820512,4635.384615,3965.128206,4041.538461
125,4371.794871,4386.666666,4529.230769,4265.128205,4503.589743,4190.256410,4475.897435,4209.743589,4242.051282,4500.000000,4180.512820,4636.410256,3968.717949,4038.974358
126,4371.282051,4392.307692,4532.820512,4262.051282,4509.230769,4199.487179,4472.307692,4214.358974,4246.153846,4504.615384,4176.923076,4637.435897,3977.435898,4052.307692
127,4373.333333,4388.205128,4535.384615,4264.102564,4512.307692,4197.948717,4450.769230,4214.871794,4238.461538,4500.512820,4177.435897,4639.487179,3976.410257,4057.948717
128,4370.769230,4381.538461,4534.871794,4264.102564,4508.205128,4192.820512,4444.102564,4210.769230,4230.769230,4493.333333,4182.564102,4637.948717,3965.128206,4042.051282
129,4365.128205,4381.025641,4531.794871,4257.435897,4500.512820,4192.307692,4465.128205,4204.615384,4223.589743,4486.153846,4175.897435,4633.846153,3961.538462,4030.256410
130,4362.564102,4378.461538,4527.179487,4250.256410,4498.461538,4185.641025,4467.692307,4200.000000,4223.076923,4482.564102,4170.256410,4632.307692,3967.179488,4041.538461
131,4367.692307,4378.461538,4530.256410,4257.435897,4503.589743,4179.487179,4449.743589,4208.717948,4236.923076,4492.820512,4182.564102,4639.487179,3971.794872,4058.461538
132,4377.948717,4389.230769,4542.051282,4266.153846,4509.230769,4189.743589,4451.794871,4221.025641,4251.794871,4508.717948,4194.871794,4648.717948,3976.923077,4055.384615
133,4380.512820,4398.461538,4545.128205,4263.589743,4511.282051,4198.461538,4463.076923,4221.025641,4248.205128,4514.358974,4182.051282,4648.205128,3981.538462,4045.641025
134,4378.974358,4398.974358,4542.051282,4261.538461,4511.794871,4193.846153,4459.487179,4217.948717,4237.435897,4510.769230,4171.794871,4645.128205,3983.076924,4058.974358
135,4380.512820,4394.871794,4543.076923,4265.641025,4509.743589,4195.384615,4443.076923,4218.974358,4238.461538,4505.128205,4186.153846,4647.692307,3986.153847,4070.769230
136,4374.871794,4389.230769,4538.974358,4266.153846,4505.128205,4197.948717,4426.153846,4217.435897,4244.102564,4500.512820,4192.307692,4642.564102,3986.666667,4057.948717
137,4366.153846,4386.153846,4530.769230,4256.923076,4501.025641,4190.256410,4426.153846,4209.743589,4240.000000,4498.974358,4180.512820,4633.846153,3980.000000,4042.051282
138,4368.717948,4389.230769,4526.153846,4248.205128,4501.538461,4186.153846,4441.538461,4201.538461,4226.153846,4498.461538,4177.948717,4633.846153,3975.384616,4037.435897
139,4374.871794,4390.769230,4523.589743,4248.717948,4506.153846,4191.282051,4446.666666,4203.589743,4227.179487,4498.461538,4179.487179,4634.358974,3976.410257,4043.076923
140,4370.769230,4386.153846,4522.564102,4251.282051,4506.153846,4191.282051,4444.615384,4210.769230,4245.128205,4500.000000,4174.871794,4630.256410,3980.000000,4051.794871
141,4363.589743,4381.025641,4524.615384,4248.717948,4504.615384,4186.153846,4443.076923,4205.128205,4243.076923,4500.000000,4181.025641,4628.717948,3980.000000,4049.230769
142,4364.102564,4382.564102,4526.666666,4251.794871,4506.666666,4186.666666,4423.589743,4198.974358,4229.230769,4498.974358,4188.717948,4631.794871,3978.461539,4040.000000
143,4369.230769,4391.282051,4529.230769,4261.025641,4506.666666,4191.282051,4391.794871,4205.641025,4233.846153,4500.512820,4180.000000,4635.897435,3982.051283,4042.051282
144,4370.256410,4387.179487,4529.230769,4255.384615,4504.615384,4192.307692,4377.948717,4207.692307,4240.000000,4502.051282,4173.333333,4633.333333,3982.564103,4046.153846
145,4364.615384,4376.410256,4527.179487,4246.666666,4503.589743,4188.205128,4390.769230,4203.589743,4229.743589,4499.487179,4176.410256,4628.205128,3977.435898,4042.051282
146,4367.692307,4382.564102,4528.717948,4254.358974,4504.615384,4188.205128,4412.307692,4207.179487,4228.205128,4495.897435,4182.564102,4633.846153,3981.025642,4041.538461
147,4379.487179,4392.820512,4535.897435,4260.000000,4505.641025,4189.743589,4418.974358,4210.256410,4240.000000,4498.974358,4185.128205,4643.076923,3984.615385,4046.153846
148,4380.000000,4389.230769,4541.025641,4254.871794,4506.666666,4187.179487,4400.000000,4207.692307,4244.615384,4507.692307,4185.641025,4644.102564,3985.641026,4055.384615
149,4375.897435,4386.666666,4541.025641,4255.384615,4503.076923,4186.666666,4356.923076,4207.692307,4237.948717,4509.743589,4189.743589,4644.102564,3991.282052,4062.051282
150,4374.871794,4384.102564,4535.384615,4254.358974,4501.025641,4184.615384,4318.461538,4203.589743,4229.230769,4501.538461,4182.051282,4640.000000,3983.589744,4056.410256
151,4367.692307,4374.871794,4525.641025,4244.102564,4499.487179,4180.512820,4307.692307,4192.820512,4220.512820,4493.333333,4163.076923,4631.282051,3967.692308,4045.641025
152,4362.051282,4375.384615,4524.615384,4245.128205,4497.948717,4184.102564,4314.358974,4193.846153,4217.948717,4493.846153,4165.128205,4631.282051,3972.820513,4046.153846
153,4371.794871,4383.076923,4536.923076,4257.435897,4502.051282,4189.230769,4327.692307,4205.128205,4227.692307,4505.128205,4186.666666,4635.897435,3987.179488,4053.333333
154,4380.000000,4382.564102,4543.589743,4263.589743,4506.153846,4189.230769,4338.974358,4205.128205,4237.948717,4508.205128,4191.794871,4637.948717,3987.692308,4056.410256
155,4377.948717,4380.512820,4542.564102,4262.051282,4506.153846,4188.205128,4336.923076,4203.589743,4237.948717,4500.512820,4185.641025,4642.051282,3988.717949,4051.282051
156,4376.410256,4382.051282,4541.538461,4262.051282,4505.641025,4188.205128,4345.641025,4210.256410,4240.512820,4507.179487,4188.717948,4643.076923,3992.820513,4045.641025
157,4374.871794,4382.564102,4540.512820,4266.666666,4506.153846,4187.179487,4389.230769,4211.282051,4244.615384,4514.871794,4192.307692,4637.948717,3987.179488,4053.333333
158,4371.794871,4377.948717,4538.461538,4264.102564,4508.717948,4190.769230,4421.025641,4207.692307,4236.923076,4503.076923,4186.666666,4635.897435,3975.384616,4057.435897
159,4372.820512,4368.205128,4536.923076,4258.461538,4511.282051,4194.871794,4411.794871,4209.743589,4231.794871,4501.538461,4183.589743,4636.410256,3973.333334,4054.358974
160,4377.948717,4372.307692,4536.410256,4263.589743,4510.769230,4193.846153,4411.282051,4210.256410,4237.948717,4513.846153,4188.205128,4635.897435,3984.102565,4061.538461
161,4377.435897,4389.230769,4540.000000,4271.282051,4508.717948,4190.256410,4435.384615,4207.692307,4237.435897,4508.717948,4186.153846,4635.384615,3987.692308,4062.564102
162,4365.641025,4384.102564,4536.923076,4260.000000,4504.615384,4184.102564,4434.871794,4203.589743,4226.666666,4491.794871,4173.333333,4630.769230,3977.948718,4043.076923
163,4360.512820,4362.564102,4526.666666,4247.179487,4498.461538,4177.435897,4406.666666,4194.871794,4219.487179,4488.717948,4168.205128,4625.128205,3973.846154,4036.923076
164,4367.692307,4363.076923,4525.641025,4253.333333,4495.897435,4175.897435,4418.461538,4192.307692,4221.538461,4493.846153,4178.974358,4629.743589,3979.487180,4053.846153
165,4370.769230,4371.794871,4534.358974,4257.948717,4496.923076,4179.487179,4463.589743,4201.538461,4224.615384,4497.435897,4188.717948,4635.897435,3982.051283,4058.461538
166,4369.743589,4371.282051,4538.974358,4255.897435,4501.025641,4183.076923,4453.333333,4206.666666,4228.205128,4495.384615,4189.743589,4635.897435,3980.000000,4049.743589
167,4375.897435,4376.923076,4537.435897,4258.974358,4506.666666,4188.205128,4405.641025,4207.179487,4236.410256,4494.871794,4188.717948,4637.948717,3983.076924,4052.820512
168,4378.974358,4379.487179,4538.461538,4262.564102,4508.717948,4189.743589,4393.333333,4210.256410,4237.435897,4501.538461,4192.307692,4638.974358,3994.358975,4068.205128
169,4374.871794,4373.846153,4538.974358,4259.487179,4505.128205,4180.000000,4389.743589,4206.153846,4226.666666,4498.974358,4193.846153,4636.410256,3994.358975,4069.230769
170,4375.897435,4377.948717,4536.923076,4262.564102,4505.128205,4178.974358,4372.820512,4199.487179,4223.076923,4491.794871,4187.179487,4634.358974,3983.589744,4055.384615
171,4380.512820,4390.256410,4538.461538,4270.256410,4508.717948,4188.205128,4392.307692,4202.564102,4230.256410,4500.000000,4185.128205,4636.410256,3984.102565,4057.948717
172,4379.487179,4390.769230,4538.974358,4269.743589,4510.256410,4189.743589,4435.384615,4208.205128,4232.307692,4509.743589,4185.128205,4638.974358,3992.307693,4067.179487
173,4377.948717,4380.512820,4536.410256,4264.102564,4508.205128,4188.205128,4455.897435,4205.128205,4228.717948,4504.615384,4179.487179,4637.435897,3991.282052,4065.641025
174,4377.948717,4375.897435,4536.410256,4260.512820,4505.128205,4189.743589,4462.051282,4198.974358,4229.230769,4495.384615,4179.487179,4634.871794,3982.564103,4063.589743
175,4378.974358,4378.461538,4538.974358,4262.051282,4507.179487,4191.794871,4464.102564,4202.051282,4236.410256,4496.410256,4187.692307,4637.948717,3979.487180,4061.538461
176,4381.538461,4380.000000,4539.487179,4262.564102,4511.794871,4193.333333,4459.487179,4209.743589,4237.948717,4497.948717,4190.256410,4643.076923,3984.615385,4057.435897
177,4383.076923,4380.512820,4540.512820,4263.076923,4510.256410,4192.820512,4455.384615,4212.307692,4235.384615,4494.871794,4182.564102,4642.051282,3991.282052,4063.589743
178,4378.974358,4383.076923,4538.461538,4263.589743,4508.205128,4192.820512,4450.769230,4205.641025,4232.307692,4494.358974,4175.897435,4636.923076,3989.230770,4069.743589
179,4375.897435,4381.025641,4533.846153,4262.564102,4512.307692,4196.410256,4445.641025,4197.948717,4230.256410,4496.410256,4177.435897,4634.358974,3983.076924,4061.025641
180,4374.871794,4378.974358,4534.358974,4262.564102,4511.282051,4195.384615,4447.179487,4198.974358,4233.333333,4495.897435,4178.461538,4630.769230,3984.615385,4054.358974
181,4374.358974,4379.487179,4535.384615,4262.564102,4511.282051,4193.333333,4447.179487,4199.487179,4232.307692,4494.358974,4176.410256,4629.743589,3988.205129,4057.948717
182,4381.025641,4381.025641,4538.461538,4265.641025,4516.410256,4193.846153,4456.923076,4199.487179,4230.256410,4497.435897,4178.461538,4633.846153,3984.102565,4061.538461
183,4380.512820,4381.538461,4538.461538,4264.615384,4513.846153,4194.871794,4480.000000,4203.076923,4233.846153,4500.000000,4181.538461,4634.871794,3979.487180,4057.435897
184,4366.666666,4371.282051,4527.179487,4254.871794,4504.615384,4192.307692,4456.410256,4201.538461,4232.820512,4494.871794,4177.948717,4623.589743,3976.923077,4049.230769
185,4366.153846,4362.564102,4523.076923,4252.307692,4504.102564,4191.794871,4392.307692,4200.512820,4230.769230,4491.282051,4180.000000,4620.512820,3979.487180,4055.384615
186,4383.076923,4374.358974,4538.461538,4264.102564,4510.256410,4192.307692,4386.666666,4211.794871,4240.000000,4506.666666,4194.871794,4634.871794,3990.256411,4075.384615
187,4387.692307,4388.205128,4550.769230,4267.692307,4502.564102,4189.743589,4443.589743,4216.923076,4248.205128,4518.974358,4202.051282,4646.153846,4000.512820,4077.948717
188,4376.410256,4376.923076,4541.538461,4255.897435,4495.384615,4184.615384,4474.358974,4206.666666,4241.025641,4504.102564,4195.384615,4640.000000,3995.897436,4061.025641
189,4365.128205,4363.589743,4527.692307,4247.692307,4500.000000,4180.512820,4457.948717,4195.384615,4231.794871,4491.282051,4180.000000,4626.153846,3983.589744,4051.794871
190,4355.384615,4363.589743,4521.538461,4247.179487,4500.512820,4180.512820,4446.666666,4189.230769,4223.076923,4489.230769,4166.153846,4616.410256,3971.282052,4052.820512
191,4353.333333,4367.692307,4520.512820,4252.820512,4494.871794,4177.435897,4449.230769,4182.564102,4216.923076,4484.615384,4162.051282,4613.333333,3964.102565,4046.666666
192,4365.128205,4371.794871,4524.615384,4260.512820,4499.487179,4178.461538,4438.461538,4178.461538,4222.051282,4487.179487,4164.615384,4615.384615,3968.205129,4042.051282
193,4375.897435,4379.487179,4532.307692,4268.205128,4510.769230,4185.641025,4414.871794,4187.179487,4233.333333,4496.923076,4174.358974,4623.589743,3980.512821,4051.794871
194,4377.948717,4387.179487,4540.000000,4274.871794,4517.435897,4192.307692,4407.179487,4200.000000,4238.461538,4504.615384,4184.615384,4634.358974,3988.205129,4068.717948
195,4379.487179,4389.743589,4540.000000,4273.846153,4523.076923,4200.000000,4413.333333,4203.076923,4238.974358,4512.820512,4189.230769,4636.410256,3992.307693,4076.923076
196,4380.000000,4392.820512,4537.435897,4271.794871,4525.641025,4204.102564,4412.820512,4206.153846,4244.615384,4515.897435,4188.717948,4633.333333,3995.897436,4066.153846
197,4374.358974,4395.384615,4539.487179,4275.897435,4524.102564,4203.589743,4415.897435,4209.743589,4246.666666,4512.820512,4186.153846,4636.410256,3995.384616,4053.333333
198,4366.153846,4387.179487,4536.410256,4271.282051,4517.948717,4197.435897,4421.025641,4200.512820,4239.487179,4506.666666,4178.461538,4634.871794,3986.666667,4058.461538
199,4362.564102,4371.794871,4525.128205,4261.025641,4506.153846,4186.153846,4428.205128,4187.692307,4231.794871,4490.769230,4166.666666,4622.564102,3976.923077,4060.000000
200,4360.512820,4363.076923,4525.641025,4257.948717,4503.076923,4183.589743,4451.282051,4186.153846,4229.230769,4482.051282,4166.666666,4618.461538,3977.435898,4052.307692
201,4361.538461,4364.615384,4532.307692,4257.435897,4507.179487,4189.230769,4471.282051,4191.282051,4231.282051,4493.846153,4174.358974,4624.615384,3982.564103,4053.333333
202,4356.410256,4365.128205,4523.076923,4252.307692,4504.102564,4186.666666,4465.128205,4195.384615,4234.871794,4498.461538,4171.282051,4624.102564,3976.923077,4053.333333
203,4345.128205,4361.025641,4512.307692,4248.205128,4497.435897,4182.564102,4449.743589,4190.769230,4235.897435,4492.820512,4158.461538,4615.897435,3968.205129,4045.128205
204,4349.230769,4363.589743,4518.974358,4249.743589,4500.000000,4186.666666,4446.153846,4187.179487,4232.820512,4488.717948,4154.871794,4616.923076,3970.769231,4046.153846
205,4362.051282,4380.000000,4531.794871,4256.410256,4504.615384,4185.128205,4446.153846,4188.717948,4230.769230,4488.717948,4165.128205,4625.128205,3982.564103,4061.025641
206,4366.153846,4391.282051,4534.871794,4262.051282,4503.076923,4180.000000,4444.102564,4190.256410,4234.871794,4493.846153,4172.820512,4629.230769,3990.256411,4065.641025
207,4364.615384,4390.256410,4533.846153,4262.564102,4502.564102,4183.589743,4442.564102,4192.307692,4237.948717,4500.512820,4174.871794,4631.794871,3990.769231,4058.974358
208,4365.641025,4391.282051,4534.871794,4257.435897,4506.666666,4187.692307,4438.974358,4192.307692,4234.871794,4498.461538,4173.333333,4633.333333,3990.256411,4058.974358
209,4364.102564,4396.410256,4534.358974,4254.358974,4512.307692,4192.307692,4440.000000,4188.717948,4233.333333,4490.256410,4171.282051,4629.743589,3988.205129,4065.641025
210,4359.487179,4401.025641,4529.230769,4257.948717,4515.897435,4196.410256,4440.000000,4192.307692,4239.487179,4490.769230,4169.230769,4625.641025,3984.615385,4062.564102
211,4354.871794,4397.948717,4521.025641,4255.897435,4512.820512,4192.307692,4431.282051,4193.333333,4239.487179,4494.871794,4159.487179,4624.102564,3978.461539,4047.692307
212,4352.307692,4387.692307,4520.000000,4245.128205,4504.102564,4186.666666,4431.794871,4190.256410,4230.769230,4493.333333,4153.333333,4622.564102,3976.410257,4043.589743
213,4357.948717,4390.769230,4528.717948,4246.153846,4504.615384,4187.692307,4453.333333,4196.923076,4231.794871,4496.923076,4163.589743,4626.666666,3987.692308,4057.948717
214,4365.641025,4404.102564,4535.897435,4254.358974,4509.230769,4192.820512,4471.794871,4207.692307,4244.102564,4503.076923,4173.846153,4632.820512,3995.897436,4070.256410
215,4367.692307,4405.641025,4532.820512,4249.230769,4507.179487,4193.333333,4472.820512,4211.282051,4250.769230,4502.564102,4171.282051,4632.820512,3989.230770,4060.512820
216,4370.256410,4402.564102,4533.333333,4249.230769,4506.666666,4191.794871,4477.948717,4216.923076,4252.820512,4508.205128,4173.846153,4636.923076,3993.333334,4053.333333
217,4372.820512,4399.487179,4538.974358,4258.974358,4507.692307,4190.769230,4482.564102,4220.512820,4259.487179,4517.948717,4181.025641,4641.025641,4007.179487,4068.717948
218,4368.205128,4391.282051,4536.923076,4256.923076,4506.666666,4189.743589,4466.153846,4214.358974,4260.512820,4513.333333,4176.410256,4636.410256,4003.076923,4074.358974
219,4364.615384,4396.410256,4535.384615,4254.358974,4506.666666,4187.692307,4448.205128,4210.769230,4252.820512,4508.717948,4174.358974,4634.358974,3995.384616,4060.512820
220,4363.589743,4407.179487,4532.820512,4260.000000,4507.692307,4183.589743,4449.743589,4210.769230,4246.153846,4504.615384,4180.512820,4632.820512,3992.307693,4047.692307
221,4356.923076,4398.461538,4522.564102,4252.820512,4505.128205,4184.102564,4458.461538,4202.564102,4239.487179,4488.205128,4174.358974,4621.025641,3981.538462,4044.615384
222,4352.307692,4387.179487,4519.487179,4245.128205,4506.153846,4188.205128,4460.512820,4194.358974,4231.282051,4482.051282,4164.102564,4615.384615,3976.923077,4052.307692
223,4360.512820,4392.820512,4524.615384,4255.897435,4509.743589,4191.282051,4454.358974,4196.923076,4231.282051,4493.846153,4166.153846,4627.692307,3983.076924,4060.512820
224,4363.076923,4396.923076,4523.076923,4257.948717,4504.102564,4185.641025,4444.102564,4197.948717,4235.384615,4491.794871,4168.717948,4630.769230,3980.512821,4049.743589
225,4356.923076,4391.794871,4520.512820,4250.256410,4498.974358,4176.923076,4440.512820,4194.358974,4231.282051,4480.000000,4164.102564,4621.538461,3974.358975,4038.974358
226,4364.102564,4396.923076,4529.230769,4260.000000,4504.615384,4181.025641,4437.435897,4201.025641,4233.846153,4488.717948,4166.666666,4625.128205,3981.538462,4054.358974
227,4378.461538,4407.179487,4535.384615,4269.230769,4509.230769,4187.692307,4418.461538,4210.769230,4247.179487,4506.666666,4175.897435,4637.435897,3991.794872,4073.846153
228,4379.487179,4406.666666,4532.820512,4264.615384,4503.589743,4183.076923,4402.564102,4207.179487,4246.666666,4506.666666,4178.461538,4638.461538,3994.358975,4072.820512
229,4371.282051,4403.076923,4530.769230,4263.076923,4500.000000,4178.461538,4407.179487,4200.512820,4238.461538,4497.435897,4174.358974,4632.307692,3995.384616,4057.435897
230,4369.743589,4403.589743,4533.333333,4266.666666,4507.692307,4188.717948,4421.025641,4205.641025,4247.179487,4503.076923,4177.435897,4636.410256,3995.384616,4052.307692
231,4383.076923,4408.205128,4542.564102,4268.205128,4515.384615,4197.435897,4431.282051,4219.487179,4256.410256,4512.820512,4189.743589,4645.128205,3994.871795,4068.717948
232,4387.692307,4409.230769,4545.128205,4267.179487,4511.282051,4195.384615,4432.307692,4217.948717,4245.641025,4503.589743,4192.820512,4640.000000,3991.282052,4075.897435
233,4371.794871,4401.025641,4530.256410,4261.538461,4504.615384,4191.794871,4430.769230,4203.076923,4231.282051,4493.846153,4178.974358,4625.128205,3985.128206,4057.948717
234,4358.974358,4390.769230,4516.410256,4255.897435,4504.102564,4189.743589,4431.794871,4198.461538,4232.307692,4494.358974,4166.666666,4616.923076,3981.538462,4045.641025
235,4360.512820,4392.820512,4520.512820,4252.820512,4507.179487,4188.717948,4430.256410,4201.538461,4237.948717,4494.358974,4169.743589,4616.923076,3976.923077,4045.128205
236,4364.102564,4399.487179,4523.076923,4251.794871,4506.666666,4187.692307,4428.205128,4201.025641,4232.307692,4493.846153,4175.384615,4617.435897,3973.333334,4044.615384
237,4368.205128,4401.025641,4519.487179,4255.897435,4509.230769,4191.794871,4432.307692,4198.461538,4227.692307,4497.435897,4171.282051,4622.051282,3981.025642,4049.743589
238,4377.948717,4404.102564,4529.230769,4262.564102,4514.358974,4195.897435,4433.846153,4204.102564,4233.333333,4496.410256,4175.384615,4633.846153,3996.923077,4056.923076
239,4384.615384,4404.102564,4537.948717,4266.153846,4514.871794,4194.871794,4431.282051,4211.282051,4241.538461,4498.461538,4188.205128,4639.487179,4001.538461,4063.589743
240,4376.410256,4394.871794,4529.230769,4264.102564,4508.717948,4190.769230,4428.205128,4211.282051,4243.589743,4506.666666,4186.666666,4630.769230,3991.794872,4067.179487
241,4364.615384,4385.641025,4521.025641,4257.435897,4503.076923,4188.205128,4426.666666,4205.128205,4237.948717,4503.076923,4174.871794,4622.564102,3983.076924,4056.923076
242,4371.282051,4386.666666,4531.794871,4256.410256,4507.179487,4188.205128,4428.205128,4203.076923,4238.461538,4499.487179,4177.948717,4631.794871,3989.743590,4052.307692
243,4382.051282,4393.333333,4541.538461,4260.512820,4512.307692,4188.717948,4421.538461,4206.666666,4243.589743,4509.230769,4187.179487,4643.589743,4000.512820,4068.717948
244,4377.435897,4392.820512,4537.948717,4263.589743,4508.717948,4188.717948,4400.512820,4203.589743,4239.487179,4509.230769,4180.512820,4639.487179,3996.923077,4074.871794
245,4375.384615,4388.717948,4536.923076,4265.641025,4504.102564,4184.102564,4380.000000,4203.589743,4235.384615,4500.000000,4174.871794,4634.358974,3990.256411,4071.282051
246,4374.358974,4387.692307,4540.000000,4269.743589,4505.641025,4182.564102,4368.205128,4204.102564,4238.461538,4500.000000,4180.000000,4634.358974,3989.743590,4066.666666
247,4363.076923,4388.205128,4533.333333,4265.128205,4507.179487,4185.641025,4364.615384,4198.461538,4230.256410,4497.435897,4176.923076,4630.256410,3982.051283,4048.717948
248,4362.564102,4388.717948,4528.717948,4260.000000,4504.615384,4187.692307,4374.871794,4198.461538,4226.666666,4492.307692,4170.769230,4629.743589,3978.974359,4044.615384
249,4373.846153,4390.769230,4535.897435,4265.128205,4506.666666,4190.256410,4385.641025,4208.205128,4242.051282,4498.461538,4175.897435,4637.435897,3990.256411,4063.589743
250,4374.871794,4390.769230,4536.410256,4268.717948,4512.820512,4189.230769,4377.435897,4206.153846,4247.692307,4504.102564,4183.076923,4635.897435,3994.358975,4066.153846
251,4369.230769,4389.230769,4531.282051,4263.589743,4513.333333,4186.153846,4366.153846,4196.923076,4240.512820,4502.051282,4178.461538,4628.205128,3985.641026,4047.179487
252,4371.794871,4391.794871,4531.794871,4262.564102,4512.307692,4187.692307,4367.179487,4202.051282,4238.974358,4502.564102,4176.410256,4630.256410,3983.589744,4049.743589
253,4376.923076,4395.384615,4531.282051,4266.153846,4517.435897,4191.282051,4363.076923,4202.051282,4237.948717,4503.589743,4182.051282,4636.410256,3989.743590,4067.692307
254,4375.897435,4392.820512,4531.282051,4265.128205,4516.410256,4191.282051,4345.128205,4189.230769,4234.871794,4504.102564,4178.461538,4632.820512,3989.743590,4066.153846
255,4373.333333,4389.743589,4533.846153,4264.615384,4513.333333,4187.692307,4350.769230,4190.256410,4235.384615,4505.641025,4172.307692,4629.230769,3985.641026,4055.897435
256,4376.410256,4391.794871,4534.871794,4266.153846,4515.897435,4185.128205,4382.564102,4198.461538,4231.794871,4498.974358,4175.897435,4630.256410,3983.589744,4055.384615
257,4378.974358,4394.358974,4531.282051,4260.512820,4512.820512,4184.615384,4398.974358,4194.358974,4221.538461,4486.153846,4174.358974,4630.769230,3980.512821,4057.948717
258,4374.871794,4389.230769,4528.717948,4256.410256,4505.128205,4185.641025,4396.923076,4191.282051,4221.025641,4480.000000,4162.051282,4630.256410,3978.461539,4055.384615
259,4371.794871,4380.000000,4533.333333,4260.512820,4506.153846,4186.666666,4394.871794,4198.461538,4228.717948,4487.179487,4162.051282,4631.282051,3979.487180,4054.358974
260,4374.358974,4376.410256,4534.358974,4264.615384,4513.846153,4190.769230,4391.794871,4204.615384,4229.743589,4500.000000,4178.974358,4631.794871,3980.000000,4054.358974
