,AF3,F7,F3,FC5,T7,P7,O1,O2,P8,T8,FC6,F4,F8,AF4
0,4423.589743,4462.051282,4542.564102,4254.358974,4489.743589,4144.615384,4473.846153,4234.358974,4253.333333,4509.743589,4210.769230,4645.128205,4025.128205,3987.179488
1,4426.153846,4460.000000,4548.717948,4258.461538,4491.794871,4150.769230,4477.435897,4247.692307,4261.538461,4516.923076,4211.794871,4654.358974,4026.153846,3989.743590
2,4430.769230,4461.538461,4553.846153,4267.179487,4492.820512,4147.692307,4479.487179,4251.282051,4272.820512,4517.948717,4222.051282,4662.564102,4025.128205,3997.948718
3,4429.230769,4461.025641,4551.794871,4259.487179,4489.230769,4138.461538,4476.410256,4238.974358,4262.564102,4507.179487,4219.487179,4656.923076,4022.051282,3997.435898
4,4422.564102,4457.948717,4543.589743,4250.769230,4485.641025,4138.974358,4474.358974,4229.230769,4251.282051,4502.051282,4198.461538,4649.743589,4019.487179,3990.769231
5,4420.000000,4455.897435,4540.512820,4249.743589,4486.153846,4143.076923,4471.794871,4226.153846,4249.743589,4496.923076,4192.820512,4647.692307,4015.384615,3988.205129
6,4421.538461,4456.923076,4544.102564,4247.179487,4485.641025,4138.974358,4464.615384,4222.051282,4245.641025,4488.717948,4210.769230,4646.666666,4008.717948,3988.205129
7,4418.974358,4456.410256,4537.948717,4249.743589,4483.076923,4135.384615,4457.948717,4218.974358,4243.589743,4495.384615,4213.333333,4645.641025,4006.666666,3984.102565
8,4419.487179,4460.512820,4534.871794,4260.000000,4486.666666,4140.512820,4461.538461,4222.051282,4250.256410,4505.641025,4203.076923,4647.179487,4015.384615,3988.717949
9,4428.205128,4467.179487,4547.692307,4267.179487,4492.820512,4147.179487,4470.256410,4229.743589,4255.897435,4508.205128,4210.256410,4654.358974,4028.205128,4000.512820
10,4431.282051,4464.102564,4551.794871,4263.076923,4494.358974,4147.179487,4473.846153,4234.358974,4252.307692,4507.179487,4213.846153,4657.435897,4026.666666,4000.512820
11,4426.666666,4456.410256,4543.589743,4262.051282,4491.282051,4144.102564,4470.769230,4230.256410,4245.128205,4504.615384,4201.538461,4652.820512,4020.000000,3992.307693
12,4425.128205,4454.871794,4540.512820,4264.102564,4489.230769,4143.589743,4465.128205,4228.205128,4246.666666,4503.589743,4198.461538,4647.692307,4025.128205,3989.743590
13,4426.666666,4456.410256,4543.589743,4255.384615,4490.256410,4142.051282,4464.615384,4232.307692,4255.384615,4508.205128,4210.769230,4647.692307,4026.153846,3993.846154
14,4425.128205,4451.794871,4541.025641,4244.615384,4487.179487,4138.461538,4469.743589,4233.333333,4256.923076,4506.666666,4214.358974,4650.256410,4017.948717,3995.897436
15,4421.025641,4446.666666,4536.923076,4247.179487,4482.564102,4138.974358,4472.820512,4232.307692,4248.205128,4500.000000,4208.205128,4649.743589,4017.435897,3993.333334
16,4422.564102,4451.794871,4540.000000,4257.435897,4486.666666,4142.051282,4474.871794,4230.256410,4245.128205,4502.051282,4207.692307,4648.205128,4022.051282,3991.282052
17,4426.153846,4454.871794,4538.974358,4256.410256,4491.794871,4140.512820,4470.769230,4222.564102,4247.179487,4498.974358,4204.615384,4649.743589,4020.512820,3990.769231
18,4426.153846,4450.769230,4535.384615,4252.307692,4489.743589,4140.512820,4465.641025,4220.000000,4246.153846,4489.743589,4199.487179,4648.717948,4021.025641,3992.820513
19,4427.692307,4454.358974,4542.564102,4255.897435,4490.769230,4147.179487,4470.256410,4226.666666,4248.205128,4498.461538,4208.717948,4651.282051,4027.692307,3998.974359
20,4431.282051,4460.512820,4550.769230,4261.025641,4493.333333,4147.179487,4470.256410,4227.692307,4253.333333,4512.820512,4228.717948,4658.974358,4034.358974,4003.076923
21,4430.256410,4455.897435,4546.153846,4260.512820,4488.205128,4136.410256,4460.000000,4221.538461,4250.256410,4508.717948,4232.307692,4656.410256,4034.358974,3998.461539
22,4429.230769,4453.846153,4544.102564,4253.846153,4478.974358,4135.384615,4458.461538,4218.461538,4247.179487,4505.128205,4221.538461,4648.205128,4029.743589,3996.410257
23,4430.256410,4457.435897,4549.230769,4248.205128,4478.974358,4137.948717,4463.589743,4223.589743,4253.846153,4510.256410,4216.410256,4654.871794,4026.666666,3998.974359
24,4428.717948,4451.794871,4548.717948,4248.205128,4480.512820,4135.384615,4461.538461,4225.641025,4255.384615,4508.205128,4214.358974,4659.487179,4026.666666,3996.410257
25,4426.666666,4446.153846,4546.666666,4251.282051,4477.435897,4135.384615,4461.538461,4221.025641,4249.230769,4505.641025,4211.794871,4650.256410,4024.615384,3993.333334
26,4424.102564,4443.589743,4542.051282,4248.205128,4481.025641,4136.923076,4462.564102,4215.384615,4245.641025,4506.666666,4200.512820,4645.128205,4020.512820,3989.230770
27,4420.000000,4440.512820,4538.974358,4246.666666,4484.615384,4135.384615,4459.487179,4209.743589,4237.435897,4501.025641,4194.358974,4648.205128,4018.461538,3986.153847
28,4421.538461,4441.538461,4543.589743,4250.769230,4483.076923,4136.410256,4461.538461,4209.230769,4234.358974,4501.025641,4206.153846,4647.179487,4016.410256,3988.205129
29,4425.641025,4443.076923,4546.153846,4250.256410,4481.538461,4136.410256,4461.538461,4212.307692,4244.102564,4502.564102,4208.717948,4643.589743,4014.871794,3988.717949
30,4421.538461,4440.512820,4541.025641,4248.717948,4484.102564,4135.897435,4461.025641,4217.435897,4244.615384,4493.846153,4198.461538,4645.128205,4019.487179,3987.692308
31,4422.564102,4438.461538,4541.538461,4250.769230,4488.205128,4138.974358,4466.666666,4221.538461,4238.461538,4502.051282,4203.076923,4648.205128,4024.615384,3991.794872
32,4424.102564,4442.564102,4540.512820,4250.256410,4489.230769,4138.461538,4467.179487,4222.564102,4244.615384,4522.051282,4211.794871,4645.641025,4017.435897,3988.717949
33,4418.974358,4444.615384,4535.897435,4246.666666,4484.102564,4131.794871,4458.974358,4217.948717,4248.205128,4516.410256,4201.538461,4639.487179,4009.743589,3978.461539
34,4418.974358,4442.564102,4538.974358,4249.230769,4485.128205,4131.794871,4457.948717,4215.897435,4243.589743,4502.051282,4193.846153,4639.487179,4018.974358,3982.564103
35,4423.076923,4439.487179,4540.512820,4252.820512,4491.282051,4136.923076,4462.564102,4218.974358,4245.128205,4506.153846,4199.487179,4644.102564,4024.615384,3988.205129
36,4420.512820,4437.435897,4536.410256,4249.230769,4487.692307,4137.435897,4461.538461,4220.512820,4253.846153,4515.384615,4195.897435,4640.512820,4012.307692,3976.410257
37,4417.435897,4441.025641,4536.410256,4250.769230,4486.666666,4136.923076,4466.153846,4223.076923,4257.948717,4516.410256,4192.820512,4640.512820,4010.256410,3972.307693
38,4421.538461,4445.641025,4541.025641,4258.461538,4494.358974,4141.025641,4475.384615,4227.692307,4254.358974,4516.410256,4203.589743,4647.179487,4023.589743,3984.615385
39,4421.538461,4443.589743,4542.051282,4256.923076,4493.846153,4144.102564,4476.923076,4231.282051,4251.794871,4512.307692,4206.153846,4643.076923,4018.974358,3984.615385
40,4416.923076,4436.410256,4538.461538,4245.641025,4489.230769,4140.512820,4471.282051,4229.743589,4253.846153,4507.179487,4202.051282,4636.923076,4006.153846,3971.794872
41,4417.435897,4434.871794,4537.948717,4246.153846,4488.717948,4136.923076,4464.102564,4221.538461,4249.743589,4509.743589,4206.153846,4643.589743,4017.435897,3974.358975
42,4424.102564,4436.923076,4538.974358,4256.923076,4488.717948,4134.358974,4460.000000,4216.410256,4243.076923,4514.871794,4203.076923,4649.743589,4027.179487,3983.076924
43,4426.153846,4435.384615,4538.461538,4256.410256,4490.256410,4134.871794,4458.461538,4220.000000,4250.256410,4516.410256,4193.333333,4648.205128,4018.974358,3986.153847
44,4419.487179,4428.717948,4538.461538,4248.205128,4491.282051,4135.384615,4456.410256,4217.948717,4251.282051,4513.333333,4196.923076,4646.153846,4014.871794,3985.641026
45,4413.333333,4420.000000,4538.974358,4244.102564,4486.153846,4130.256410,4453.846153,4212.820512,4237.435897,4506.666666,4201.538461,4640.512820,4015.897435,3978.461539
46,4412.307692,4418.974358,4532.820512,4244.615384,4483.589743,4127.692307,4455.384615,4212.820512,4239.487179,4505.641025,4204.615384,4637.948717,4013.846153,3974.358975
47,4412.307692,4423.589743,4528.717948,4247.692307,4485.128205,4132.307692,4458.974358,4214.358974,4247.692307,4504.615384,4200.000000,4642.051282,4014.358974,3978.461539
48,4413.846153,4420.512820,4532.820512,4248.205128,4482.564102,4134.871794,4460.512820,4214.871794,4241.025641,4499.487179,4174.871794,4641.025641,4014.358974,3980.512821
49,4416.410256,4416.410256,4533.846153,4246.666666,4482.564102,4134.871794,4461.025641,4215.384615,4236.923076,4499.487179,4172.820512,4638.461538,4009.230769,3980.000000
50,4423.076923,4421.025641,4534.358974,4246.153846,4487.692307,4133.846153,4459.487179,4214.358974,4245.128205,4513.333333,4209.230769,4643.076923,4014.358974,3986.666667
51,4429.230769,4426.666666,4539.487179,4251.282051,4488.205128,4132.307692,4460.512820,4221.025641,4252.820512,4528.205128,4232.307692,4652.820512,4035.897435,3993.333334
52,4429.230769,4428.717948,4545.641025,4258.461538,4488.205128,4135.384615,4465.128205,4233.333333,4261.025641,4526.153846,4225.641025,4656.923076,4050.769230,3996.410257
53,4428.717948,4430.256410,4546.666666,4262.051282,4494.358974,4141.025641,4465.641025,4230.256410,4261.025641,4513.846153,4221.538461,4652.307692,4042.564102,3996.410257
54,4428.205128,4426.666666,4541.538461,4261.538461,4493.333333,4136.923076,4458.974358,4215.384615,4249.743589,4511.282051,4218.974358,4645.128205,4029.743589,3989.743590
55,4426.666666,4427.179487,4538.974358,4262.564102,4489.230769,4133.333333,4455.897435,4211.794871,4244.615384,4515.897435,4207.692307,4644.102564,4027.179487,3987.179488
56,4423.589743,4433.333333,4536.923076,4267.179487,4493.846153,4138.974358,4458.974358,4217.948717,4248.717948,4518.461538,4202.564102,4645.128205,4027.179487,3991.794872
57,4418.974358,4429.230769,4531.794871,4262.051282,4493.333333,4138.974358,4461.538461,4218.461538,4248.717948,4516.923076,4202.564102,4642.051282,4022.051282,3985.641026
58,4413.846153,4417.435897,4530.769230,4250.769230,4486.666666,4134.871794,4460.000000,4215.384615,4241.538461,4506.666666,4201.025641,4634.358974,4011.794871,3973.846154
59,4418.461538,4412.820512,4533.846153,4253.333333,4486.666666,4136.923076,4460.000000,4215.384615,4235.384615,4494.871794,4198.974358,4631.282051,4006.666666,3974.358975
60,4422.564102,4413.333333,4533.846153,4264.615384,4490.256410,4139.487179,4467.179487,4215.897435,4236.410256,4498.974358,4199.487179,4633.333333,4013.333333,3979.487180
61,4415.384615,4412.307692,4527.179487,4263.076923,4491.794871,4137.948717,4474.871794,4215.897435,4240.512820,4508.717948,4191.282051,4629.743589,4015.897435,3974.871795
62,4414.358974,4414.871794,4525.641025,4257.948717,4499.487179,4144.615384,4474.358974,4220.512820,4245.128205,4512.307692,4185.128205,4625.128205,4011.282051,3969.230770
63,4421.538461,4416.923076,4533.333333,4264.102564,4504.615384,4152.307692,4474.358974,4229.743589,4253.333333,4517.948717,4198.974358,4631.794871,4018.974358,3974.358975
64,4421.538461,4413.846153,4536.410256,4267.692307,4502.051282,4148.205128,4477.948717,4235.384615,4262.564102,4515.897435,4211.282051,4638.461538,4025.641025,3980.000000
65,4415.384615,4409.743589,4529.743589,4258.461538,4497.435897,4141.025641,4472.307692,4227.179487,4256.923076,4502.051282,4209.743589,4636.410256,4018.974358,3977.435898
66,4415.897435,4409.230769,4530.769230,4254.358974,4493.846153,4139.487179,4465.641025,4217.435897,4247.179487,4503.589743,4213.846153,4637.435897,4019.487179,3977.435898
67,4420.512820,4415.384615,4540.512820,4260.512820,4496.923076,4139.487179,4469.230769,4222.564102,4250.769230,4520.000000,4226.153846,4646.666666,4029.230769,3985.128206
68,4428.717948,4427.692307,4542.564102,4267.179487,4502.051282,4141.025641,4476.410256,4226.666666,4255.384615,4525.641025,4225.128205,4652.307692,4037.948717,3992.820513
69,4430.769230,4434.358974,4536.923076,4265.128205,4501.025641,4142.051282,4474.358974,4225.641025,4255.384615,4513.846153,4209.230769,4650.256410,4033.846153,3989.743590
70,4417.948717,4427.692307,4530.256410,4252.820512,4496.410256,4136.410256,4463.076923,4223.589743,4257.435897,4505.641025,4196.923076,4641.538461,4018.974358,3980.512821
71,4409.743589,4421.538461,4528.205128,4243.589743,4494.358974,4135.384615,4460.000000,4220.000000,4254.871794,4507.692307,4200.512820,4634.871794,4015.897435,3975.897436
72,4416.923076,4428.717948,4533.333333,4247.179487,4497.435897,4142.051282,4470.769230,4222.051282,4248.205128,4508.205128,4214.358974,4639.487179,4027.179487,3974.871795
73,4426.666666,4441.025641,4536.923076,4257.435897,4500.512820,4143.589743,4476.923076,4231.794871,4255.897435,4507.692307,4221.025641,4646.666666,4032.307692,3975.384616
74,4428.717948,4447.179487,4534.358974,4260.512820,4500.000000,4141.025641,4472.307692,4234.871794,4265.641025,4511.282051,4211.282051,4646.153846,4032.307692,3974.871795
75,4428.205128,4448.717948,4532.820512,4261.538461,4495.384615,4139.487179,4470.256410,4234.358974,4262.564102,4516.923076,4205.128205,4645.128205,4041.025641,3974.871795
76,4429.743589,4448.205128,4535.897435,4264.102564,4498.461538,4138.974358,4472.820512,4239.487179,4265.641025,4526.153846,4217.435897,4647.692307,4043.076923,3975.897436
77,4435.897435,4445.641025,4540.512820,4263.589743,4502.051282,4142.564102,4472.307692,4237.435897,4268.717948,4524.615384,4226.666666,4648.717948,4037.435897,3974.871795
78,4441.025641,4446.153846,4542.564102,4262.051282,4504.102564,4144.102564,4472.820512,4231.794871,4256.410256,4509.743589,4213.333333,4649.743589,4042.051282,3974.358975
79,4435.897435,4450.256410,4538.461538,4262.564102,4505.641025,4143.076923,4473.846153,4233.333333,4245.641025,4502.564102,4199.487179,4648.205128,4045.128205,3974.871795
80,4427.692307,4449.230769,4536.410256,4262.051282,4505.128205,4146.666666,4472.820512,4232.820512,4252.820512,4504.615384,4207.179487,4638.974358,4029.230769,3972.307693
81,4427.179487,4445.128205,4538.461538,4263.076923,4508.717948,4148.205128,4471.794871,4227.692307,4256.410256,4498.461538,4209.230769,4635.384615,4017.435897,3964.615385
82,4430.256410,4444.615384,4534.871794,4265.641025,4509.230769,4144.102564,4471.282051,4226.666666,4247.179487,4490.769230,4192.820512,4638.461538,4027.692307,3960.512821
83,4427.179487,4443.589743,4529.743589,4262.051282,4504.615384,4143.076923,4471.794871,4229.230769,4243.076923,4490.769230,4187.179487,4635.897435,4033.846153,3957.948718
84,4427.179487,4443.076923,4533.846153,4256.923076,4504.615384,4143.076923,4473.846153,4232.820512,4252.820512,4494.358974,4206.153846,4636.410256,4026.666666,3958.974359
85,4437.435897,4447.179487,4539.487179,4260.512820,4505.641025,4138.974358,4473.846153,4232.820512,4259.487179,4501.538461,4221.025641,4647.692307,4025.641025,3966.666667
86,4446.153846,4449.230769,4542.564102,4265.641025,4503.589743,4135.384615,4471.282051,4230.256410,4253.333333,4503.076923,4219.487179,4650.769230,4034.871794,3972.820513
87,4444.615384,4446.666666,4547.692307,4266.153846,4504.615384,4140.512820,4470.256410,4231.794871,4252.307692,4502.564102,4216.410256,4646.666666,4044.102564,3976.410257
88,4442.564102,4443.589743,4548.717948,4260.000000,4504.615384,4146.153846,4473.333333,4233.333333,4257.948717,4504.102564,4214.358974,4652.820512,4041.538461,3979.487180
89,4445.128205,4442.564102,4549.230769,4256.923076,4495.897435,4141.538461,4474.871794,4232.307692,4253.846153,4499.487179,4218.974358,4657.948717,4031.794871,3978.974359
90,4445.128205,4441.025641,4553.333333,4263.589743,4494.871794,4137.948717,4475.384615,4236.923076,4249.743589,4494.871794,4219.487179,4657.435897,4035.384615,3978.461539
91,4442.051282,4441.538461,4552.307692,4259.487179,4504.102564,4144.615384,4474.871794,4240.512820,4254.358974,4495.384615,4204.102564,4654.871794,4041.025641,3978.974359
92,4440.000000,4442.564102,4544.615384,4249.230769,4507.179487,4148.205128,4476.410256,4237.948717,4257.435897,4496.923076,4202.564102,4651.282051,4029.230769,3975.897436
93,4434.871794,4440.512820,4541.025641,4250.769230,4504.615384,4144.615384,4475.897435,4233.333333,4252.820512,4491.282051,4214.358974,4646.666666,4015.897435,3967.692308
94,4428.205128,4439.487179,4538.461538,4257.948717,4505.641025,4141.025641,4470.256410,4224.615384,4250.256410,4481.025641,4202.051282,4640.512820,4012.820512,3961.025642
95,4431.794871,4445.128205,4535.897435,4260.512820,4506.153846,4138.461538,4467.179487,4222.051282,4247.692307,4480.512820,4192.820512,4641.025641,4017.435897,3963.589744
96,4442.564102,4452.820512,4543.589743,4262.564102,4504.615384,4140.000000,4474.871794,4234.871794,4252.820512,4498.461538,4215.384615,4650.256410,4030.769230,3973.846154
97,4446.153846,4451.794871,4548.717948,4257.948717,4506.666666,4141.025641,4479.487179,4242.051282,4261.538461,4514.871794,4225.641025,4651.794871,4039.487179,3977.435898
98,4442.051282,4441.025641,4543.076923,4247.692307,4503.589743,4137.948717,4475.384615,4233.333333,4255.384615,4502.564102,4213.333333,4641.025641,4033.846153,3973.333334
99,4437.435897,4435.384615,4538.461538,4246.666666,4494.871794,4137.435897,4473.333333,4231.794871,4247.692307,4489.230769,4212.820512,4642.051282,4029.743589,3972.820513
100,4436.923076,4442.564102,4542.051282,4248.205128,4490.256410,4140.000000,4475.384615,4235.897435,4252.820512,4495.897435,4208.717948,4649.230769,4028.717948,3971.794872
101,4436.923076,4440.512820,4541.538461,4248.205128,4492.820512,4137.948717,4474.871794,4234.358974,4254.871794,4500.000000,4193.333333,4644.615384,4026.153846,3971.282052
102,4434.871794,4430.769230,4535.384615,4249.743589,4492.307692,4133.333333,4471.794871,4233.333333,4249.230769,4492.307692,4200.512820,4641.025641,4027.179487,3972.307693
103,4433.846153,4432.307692,4536.923076,4249.230769,4488.205128,4131.794871,4472.307692,4232.820512,4249.230769,4488.205128,4216.410256,4646.153846,4031.794871,3972.820513
104,4434.871794,4439.487179,4540.512820,4249.743589,4489.230769,4131.794871,4470.256410,4231.282051,4251.282051,4491.794871,4214.358974,4646.666666,4034.358974,3973.846154
105,4428.717948,4435.897435,4533.333333,4249.230769,4492.307692,4129.743589,4462.564102,4229.743589,4251.794871,4490.256410,4197.435897,4636.410256,4027.179487,3968.205129
106,4422.051282,4426.153846,4525.128205,4247.692307,4489.743589,4127.692307,4457.435897,4225.641025,4251.794871,4488.205128,4184.102564,4629.230769,4013.846153,3956.410257
107,4423.076923,4425.641025,4528.205128,4247.179487,4490.769230,4130.769230,4458.461538,4217.948717,4243.589743,4492.820512,4188.717948,4630.256410,4013.846153,3954.871795
108,4427.692307,4437.435897,4535.384615,4248.205128,4498.461538,4137.435897,4460.512820,4218.461538,4238.974358,4494.358974,4202.564102,4633.846153,4028.205128,3966.666667
109,4426.153846,4442.564102,4536.410256,4247.179487,4495.384615,4134.358974,4458.461538,4215.384615,4240.512820,4485.128205,4200.000000,4632.820512,4027.692307,3967.692308
110,4422.564102,4429.743589,4531.794871,4246.666666,4489.743589,4126.666666,4457.435897,4206.666666,4239.487179,4475.897435,4187.692307,4630.769230,4014.871794,3957.948718
111,4425.128205,4424.615384,4530.256410,4247.692307,4495.897435,4129.743589,4458.461538,4209.230769,4240.512820,4480.512820,4197.435897,4634.358974,4015.897435,3954.871795
112,4426.666666,4436.923076,4533.333333,4244.102564,4499.487179,4138.461538,4460.512820,4216.923076,4247.179487,4490.769230,4205.641025,4635.897435,4025.128205,3961.538462
113,4428.205128,4443.589743,4536.923076,4244.102564,4499.487179,4142.564102,4466.153846,4220.512820,4251.794871,4498.461538,4196.410256,4638.974358,4029.743589,3970.769231
114,4439.487179,4443.589743,4544.102564,4256.923076,4507.692307,4145.128205,4473.846153,4229.230769,4253.333333,4507.179487,4204.615384,4650.256410,4036.410256,3976.410257
115,4448.205128,4445.641025,4552.820512,4267.179487,4510.256410,4147.179487,4475.897435,4235.897435,4255.384615,4511.794871,4225.128205,4659.487179,4046.153846,3981.538462
116,4445.128205,4445.641025,4555.897435,4262.051282,4501.538461,4145.641025,4473.846153,4232.820512,4257.435897,4508.717948,4226.666666,4657.948717,4045.641025,3988.205129
117,4443.589743,4445.128205,4554.871794,4260.512820,4502.564102,4144.615384,4476.923076,4235.384615,4264.615384,4505.641025,4216.923076,4658.974358,4040.512820,3989.743590
118,4450.769230,4446.666666,4555.897435,4264.615384,4509.230769,4143.589743,4480.512820,4238.461538,4266.153846,4511.282051,4224.102564,4664.615384,4048.717948,3991.282052
119,4450.769230,4442.051282,4554.358974,4257.948717,4500.512820,4142.051282,4470.769230,4226.666666,4257.948717,4511.282051,4223.076923,4660.000000,4055.897435,3989.230770
120,4436.923076,4436.410256,4545.641025,4247.692307,4494.871794,4139.487179,4456.923076,4213.333333,4247.692307,4498.461538,4205.641025,4647.692307,4043.589743,3977.435898
121,4424.615384,4437.948717,4536.410256,4247.692307,4500.512820,4136.923076,4454.358974,4207.692307,4239.487179,4487.179487,4195.384615,4637.435897,4025.128205,3968.717949
122,4425.641025,4435.897435,4534.871794,4252.307692,4497.948717,4140.000000,4458.974358,4205.128205,4237.948717,4485.128205,4189.743589,4632.820512,4024.102564,3968.205129
123,4430.256410,4432.307692,4534.871794,4250.769230,4494.871794,4139.487179,4456.923076,4206.153846,4235.384615,4486.153846,4192.307692,4633.333333,4028.205128,3965.641026
124,4426.153846,4432.820512,4532.820512,4246.666666,4499.487179,4135.384615,4451.794871,4205.128205,4230.256410,4486.153846,4206.153846,4638.461538,4025.128205,3963.589744
125,4425.128205,4435.384615,4537.435897,4247.179487,4500.512820,4136.410256,4454.871794,4203.589743,4233.846153,4491.794871,4215.384615,4641.025641,4028.205128,3971.282052
126,4436.923076,4440.000000,4547.179487,4256.410256,4502.051282,4140.512820,4461.025641,4210.769230,4247.179487,4500.512820,4210.769230,4644.102564,4040.512820,3980.512821
127,4439.487179,4441.538461,4543.076923,4257.948717,4502.564102,4140.000000,4460.000000,4218.461538,4250.256410,4503.076923,4207.692307,4645.128205,4044.615384,3978.461539
128,4426.153846,4435.897435,4533.846153,4249.230769,4497.948717,4137.948717,4461.538461,4215.384615,4241.538461,4497.435897,4203.589743,4640.512820,4034.358974,3969.230770
129,4423.076923,4430.769230,4541.538461,4248.205128,4497.435897,4140.512820,4473.333333,4215.384615,4242.564102,4485.641025,4203.076923,4641.025641,4028.205128,3967.692308
130,4432.307692,4432.820512,4551.282051,4257.435897,4498.974358,4141.025641,4474.358974,4221.025641,4251.282051,4480.000000,4213.333333,4645.128205,4028.717948,3972.820513
131,4432.307692,4429.743589,4546.666666,4260.512820,4492.307692,4136.410256,4461.538461,4218.461538,4247.692307,4484.615384,4210.256410,4642.564102,4029.743589,3971.282052
132,4424.615384,4427.692307,4542.051282,4254.871794,4489.743589,4137.435897,4458.461538,4214.871794,4236.410256,4494.871794,4202.564102,4638.974358,4031.282051,3969.230770
133,4423.589743,4428.717948,4545.128205,4250.769230,4497.435897,4140.000000,4463.076923,4216.410256,4239.487179,4497.435897,4205.128205,4643.589743,4031.794871,3971.282052
134,4426.153846,4425.641025,4541.538461,4246.666666,4500.000000,4137.948717,4461.538461,4212.820512,4246.153846,4491.282051,4201.025641,4642.564102,4030.769230,3966.153847
135,4424.102564,4425.128205,4534.871794,4244.102564,4496.410256,4137.435897,4459.487179,4205.128205,4240.000000,4489.743589,4197.948717,4636.923076,4029.230769,3958.974359
136,4422.564102,4435.384615,4536.410256,4251.794871,4499.487179,4141.538461,4462.564102,4207.692307,4237.948717,4489.743589,4209.230769,4641.538461,4030.256410,3964.102565
137,4426.153846,4440.000000,4543.076923,4255.897435,4504.102564,4142.051282,4462.051282,4215.384615,4246.666666,4489.743589,4214.871794,4650.256410,4033.333333,3975.384616
138,4429.230769,4432.820512,4543.589743,4250.256410,4501.025641,4138.461538,4456.410256,4214.871794,4249.230769,4490.256410,4202.051282,4648.717948,4033.846153,3974.871795
139,4429.230769,4431.794871,4543.589743,4251.794871,4496.410256,4135.384615,4454.358974,4212.307692,4246.666666,4493.846153,4196.410256,4646.153846,4035.384615,3971.282052
140,4432.307692,4445.641025,4548.717948,4256.410256,4501.025641,4136.410256,4457.435897,4213.846153,4248.205128,4494.871794,4208.717948,4652.820512,4044.615384,3978.974359
141,4431.794871,4447.179487,4548.205128,4249.230769,4505.641025,4140.512820,4457.435897,4215.897435,4247.692307,4498.974358,4221.025641,4653.846153,4044.615384,3982.564103
142,4428.205128,4431.794871,4543.589743,4245.641025,4503.076923,4141.538461,4457.948717,4213.846153,4246.153846,4505.128205,4224.615384,4647.179487,4038.974358,3975.897436
143,4428.205128,4426.153846,4544.102564,4249.743589,4498.974358,4138.974358,4461.538461,4210.769230,4246.666666,4497.435897,4218.974358,4647.179487,4042.564102,3973.846154
144,4426.666666,4429.230769,4543.589743,4246.666666,4496.923076,4140.000000,4461.025641,4210.769230,4243.589743,4488.717948,4213.846153,4647.179487,4043.589743,3973.846154
145,4426.666666,4429.743589,4543.589743,4246.153846,4497.948717,4141.025641,4459.487179,4213.846153,4243.589743,4493.846153,4219.487179,4646.153846,4038.461538,3973.333334
146,4430.256410,4430.769230,4547.692307,4252.307692,4493.846153,4138.461538,4461.538461,4220.512820,4254.358974,4494.871794,4221.538461,4648.205128,4038.461538,3978.461539
147,4431.794871,4432.307692,4549.230769,4251.282051,4488.717948,4137.948717,4460.512820,4224.615384,4262.051282,4488.205128,4214.358974,4650.769230,4041.025641,3984.102565
148,4432.820512,4432.820512,4548.205128,4248.717948,4492.307692,4139.487179,4461.025641,4224.615384,4257.948717,4496.923076,4212.307692,4653.333333,4041.538461,3982.564103
149,4431.794871,4429.743589,4548.205128,4248.205128,4498.974358,4140.000000,4465.128205,4224.102564,4253.333333,4504.615384,4215.384615,4652.307692,4040.000000,3977.948718
150,4422.051282,4420.512820,4538.974358,4245.641025,4495.897435,4136.923076,4464.615384,4221.538461,4251.282051,4494.358974,4208.205128,4643.589743,4031.794871,3972.307693
151,4414.358974,4416.410256,4534.871794,4245.128205,4494.358974,4140.512820,4460.512820,4215.897435,4247.692307,4487.179487,4203.589743,4633.846153,4022.051282,3967.692308
152,4416.923076,4421.538461,4539.487179,4245.128205,4501.025641,4146.153846,4459.487179,4213.333333,4246.666666,4488.717948,4212.820512,4632.307692,4022.051282,3965.641026
153,4416.410256,4420.512820,4537.435897,4239.487179,4501.025641,4143.589743,4461.025641,4214.871794,4249.743589,4491.282051,4209.743589,4635.384615,4029.743589,3963.589744
154,4414.358974,4416.923076,4534.871794,4238.461538,4498.461538,4138.461538,4461.025641,4212.820512,4246.666666,4493.846153,4199.487179,4637.435897,4036.923076,3966.153847
155,4421.538461,4424.615384,4541.538461,4250.769230,4500.512820,4137.435897,4458.974358,4214.358974,4246.666666,4496.410256,4208.205128,4644.102564,4040.512820,3973.333334
156,4432.307692,4436.410256,4550.769230,4262.051282,4503.589743,4143.589743,4465.641025,4220.000000,4254.871794,4496.923076,4223.589743,4654.358974,4041.025641,3980.000000
157,4429.230769,4434.358974,4548.717948,4257.435897,4502.564102,4146.666666,4473.333333,4220.000000,4254.871794,4492.820512,4216.923076,4655.384615,4034.871794,3982.051283
158,4416.923076,4421.025641,4538.974358,4246.153846,4498.461538,4143.076923,4465.641025,4215.384615,4246.153846,4490.769230,4207.692307,4644.615384,4030.769230,3975.384616
159,4415.897435,4417.435897,4535.897435,4243.076923,4495.897435,4138.461538,4456.410256,4212.820512,4246.666666,4498.974358,4217.435897,4642.564102,4035.897435,3972.307693
160,4423.076923,4425.641025,4544.102564,4248.717948,4502.051282,4139.487179,4459.487179,4215.897435,4251.282051,4501.538461,4217.948717,4648.717948,4038.461538,3978.461539
161,4427.179487,4434.358974,4548.717948,4252.307692,4508.205128,4146.666666,4461.538461,4217.435897,4253.333333,4497.435897,4206.666666,4650.256410,4040.000000,3985.641026
162,4427.179487,4432.307692,4543.076923,4250.769230,4507.179487,4147.692307,4456.410256,4213.333333,4253.846153,4500.000000,4209.743589,4647.692307,4046.153846,3986.153847
163,4428.205128,4428.205128,4544.102564,4249.743589,4506.666666,4143.589743,4456.410256,4213.846153,4253.846153,4501.538461,4222.564102,4647.179487,4045.641025,3984.102565
164,4428.717948,4432.820512,4549.230769,4249.743589,4506.666666,4138.461538,4457.948717,4216.923076,4252.820512,4492.820512,4226.153846,4648.205128,4036.923076,3985.641026
165,4428.717948,4438.461538,4547.692307,4255.384615,4505.128205,4138.461538,4457.435897,4207.692307,4242.051282,4481.538461,4221.538461,4647.179487,4033.333333,3986.153847
166,4429.743589,4435.897435,4544.615384,4263.589743,4505.128205,4141.538461,4456.410256,4198.461538,4231.794871,4481.025641,4207.692307,4645.641025,4040.000000,3983.076924
167,4427.692307,4434.358974,4543.589743,4266.666666,4504.615384,4140.000000,4455.384615,4203.076923,4237.948717,4490.769230,4196.923076,4645.128205,4044.615384,3983.076924
168,4428.205128,4441.538461,4545.641025,4263.076923,4505.128205,4143.076923,4456.923076,4203.589743,4247.179487,4497.435897,4213.333333,4645.641025,4040.512820,3988.205129
169,4431.794871,4450.769230,4549.743589,4262.564102,4511.794871,4149.743589,4460.000000,4203.589743,4251.794871,4497.948717,4228.717948,4647.692307,4036.923076,3990.769231
170,4433.333333,4453.333333,4551.794871,4265.641025,4518.461538,4154.358974,4461.538461,4210.769230,4257.948717,4501.538461,4217.948717,4646.666666,4041.538461,3987.179488
171,4429.743589,4449.743589,4546.153846,4265.641025,4511.794871,4153.333333,4460.000000,4212.307692,4259.487179,4500.000000,4210.769230,4641.538461,4044.102564,3980.512821
172,4427.179487,4449.743589,4543.589743,4262.564102,4504.615384,4151.794871,4457.435897,4210.256410,4249.230769,4491.282051,4220.000000,4640.000000,4040.000000,3976.410257
173,4428.717948,4458.461538,4548.205128,4256.410256,4509.230769,4152.307692,4463.076923,4211.282051,4240.000000,4485.128205,4211.282051,4640.000000,4031.282051,3974.871795
174,4429.230769,4462.051282,4548.205128,4251.282051,4510.256410,4153.846153,4472.307692,4209.743589,4240.000000,4482.564102,4194.871794,4640.000000,4025.128205,3969.743590
175,4427.179487,4458.461538,4546.666666,4247.692307,4504.615384,4150.256410,4468.205128,4213.333333,4245.641025,4487.179487,4204.102564,4643.076923,4030.256410,3968.717949
176,4427.692307,4458.461538,4548.205128,4247.692307,4503.589743,4142.564102,4457.948717,4218.461538,4252.820512,4492.307692,4211.794871,4645.641025,4030.256410,3972.307693
177,4432.307692,4466.153846,4548.717948,4254.358974,4506.153846,4145.128205,4459.487179,4218.974358,4253.846153,4488.717948,4200.512820,4643.589743,4023.589743,3970.769231
178,4432.820512,4473.333333,4548.205128,4255.897435,4507.692307,4150.769230,4463.076923,4217.435897,4249.230769,4483.589743,4198.974358,4644.615384,4028.205128,3970.769231
179,4429.230769,4471.794871,4548.205128,4247.692307,4506.666666,4144.615384,4457.948717,4209.743589,4241.538461,4486.666666,4206.666666,4645.128205,4036.923076,3970.769231
180,4425.641025,4462.564102,4543.589743,4242.564102,4505.128205,4138.461538,4455.897435,4196.923076,4234.358974,4486.666666,4196.923076,4637.948717,4030.256410,3962.564103
181,4422.564102,4461.538461,4536.923076,4246.153846,4505.641025,4140.512820,4454.871794,4197.948717,4233.333333,4475.897435,4190.769230,4634.358974,4021.025641,3956.410257
182,4422.564102,4468.717948,4538.461538,4248.205128,4506.153846,4142.564102,4448.205128,4201.538461,4230.769230,4468.205128,4197.948717,4635.897435,4024.102564,3961.025642
183,4424.615384,4473.846153,4541.025641,4246.666666,4506.666666,4136.923076,4444.102564,4196.923076,4230.256410,4473.846153,4202.564102,4637.435897,4029.743589,3966.666667
184,4428.205128,4475.384615,4547.179487,4248.205128,4507.692307,4141.538461,4451.282051,4204.615384,4238.974358,4483.589743,4208.717948,4645.128205,4034.871794,3970.769231
185,4437.948717,4475.384615,4555.897435,4257.435897,4508.205128,4149.230769,4460.512820,4217.435897,4247.692307,4486.153846,4216.923076,4654.871794,4036.923076,3977.948718
186,4443.589743,4475.897435,4555.384615,4265.641025,4505.128205,4142.564102,4458.974358,4220.000000,4250.769230,4489.230769,4218.974358,4660.000000,4042.051282,3983.076924
187,4442.051282,4475.897435,4554.871794,4258.974358,4505.128205,4141.025641,4461.538461,4223.589743,4249.743589,4492.307692,4214.358974,4660.512820,4054.871794,3988.205129
188,4440.000000,4475.897435,4557.435897,4246.153846,4506.153846,4149.230769,4471.794871,4225.128205,4249.230769,4492.307692,4213.333333,4656.923076,4055.384615,3989.743590
189,4440.000000,4475.897435,4554.871794,4250.256410,4507.179487,4149.230769,4471.794871,4220.512820,4248.717948,4491.794871,4223.589743,4653.333333,4043.076923,3983.589744
190,4435.897435,4474.358974,4549.230769,4260.512820,4509.743589,4147.692307,4463.076923,4220.512820,4249.743589,4489.743589,4229.230769,4654.871794,4038.974358,3977.435898
191,4430.769230,4473.846153,4546.153846,4253.846153,4511.282051,4152.820512,4460.512820,4222.564102,4250.769230,4490.769230,4211.794871,4651.282051,4043.589743,3975.384616
192,4428.205128,4471.794871,4541.025641,4244.615384,4510.769230,4150.769230,4460.000000,4216.923076,4251.282051,4491.282051,4198.461538,4639.487179,4037.435897,3972.307693
193,4425.641025,4471.282051,4537.948717,4247.692307,4506.666666,4148.205128,4456.410256,4211.282051,4249.743589,4489.743589,4205.128205,4637.948717,4028.205128,3970.256411
194,4428.717948,4474.358974,4545.128205,4250.256410,4508.205128,4152.307692,4455.384615,4213.333333,4245.128205,4489.230769,4211.282051,4647.692307,4030.769230,3973.333334
195,4437.435897,4476.923076,4553.846153,4252.820512,4516.923076,4152.820512,4462.564102,4220.000000,4249.230769,4493.333333,4210.769230,4651.282051,4040.512820,3982.051283
196,4439.487179,4476.923076,4556.410256,4261.538461,4518.974358,4155.384615,4469.743589,4225.128205,4252.307692,4488.717948,4206.153846,4649.743589,4045.128205,3988.717949
197,4431.282051,4475.384615,4551.282051,4258.461538,4510.256410,4155.384615,4465.641025,4219.487179,4246.153846,4480.000000,4207.179487,4648.205128,4040.000000,3983.076924
198,4424.615384,4464.615384,4545.641025,4244.102564,4504.102564,4145.128205,4456.923076,4211.282051,4240.512820,4482.051282,4211.794871,4645.641025,4031.282051,3972.307693
199,4428.717948,4459.487179,4547.179487,4244.102564,4506.666666,4141.025641,4457.948717,4214.358974,4248.717948,4492.307692,4211.794871,4646.666666,4031.282051,3975.384616
200,4432.307692,4470.256410,4553.846153,4247.179487,4508.717948,4145.641025,4464.102564,4226.666666,4259.487179,4500.512820,4206.666666,4655.897435,4040.000000,3986.666667
201,4430.256410,4471.794871,4555.897435,4248.205128,4501.538461,4143.076923,4464.615384,4230.769230,4263.589743,4500.000000,4206.666666,4660.000000,4044.102564,3989.743590
202,4428.717948,4459.487179,4551.282051,4248.205128,4498.461538,4137.435897,4461.538461,4222.051282,4263.076923,4498.461538,4210.769230,4656.410256,4039.487179,3987.692308
203,4426.666666,4453.333333,4547.692307,4237.948717,4497.948717,4137.948717,4462.051282,4216.410256,4255.384615,4498.974358,4216.923076,4653.333333,4034.358974,3986.153847
204,4421.538461,4448.717948,4548.205128,4229.230769,4493.333333,4139.487179,4463.076923,4218.974358,4246.153846,4495.384615,4221.025641,4648.717948,4028.717948,3980.512821
205,4420.512820,4446.666666,4550.769230,4238.461538,4495.384615,4137.435897,4462.564102,4220.000000,4249.743589,4490.769230,4211.794871,4647.179487,4022.051282,3973.846154
206,4422.051282,4450.256410,4553.333333,4249.230769,4501.538461,4139.487179,4463.076923,4219.487179,4251.794871,4487.692307,4196.923076,4649.230769,4020.000000,3974.871795
207,4414.871794,4450.769230,4548.205128,4245.641025,4500.512820,4139.487179,4456.410256,4217.435897,4238.974358,4478.461538,4189.230769,4641.025641,4018.461538,3973.846154
208,4409.230769,4450.256410,4541.025641,4245.128205,4500.512820,4137.435897,4447.179487,4213.846153,4235.384615,4471.282051,4196.923076,4631.794871,4015.897435,3967.692308
209,4413.846153,4454.358974,4543.076923,4247.692307,4507.179487,4138.974358,4446.666666,4213.846153,4245.641025,4475.897435,4209.743589,4633.846153,4015.897435,3969.743590
210,4413.333333,4453.846153,4541.025641,4240.512820,4506.666666,4139.487179,4448.717948,4211.282051,4241.025641,4474.871794,4204.102564,4632.307692,4012.820512,3968.717949
211,4406.153846,4449.230769,4530.769230,4230.769230,4500.000000,4136.923076,4445.128205,4202.564102,4229.743589,4470.769230,4188.205128,4624.102564,4012.307692,3960.000000
212,4406.153846,4451.282051,4529.743589,4231.794871,4497.948717,4137.435897,4446.153846,4200.000000,4235.384615,4475.384615,4185.128205,4626.153846,4016.410256,3961.538462
213,4414.358974,4457.435897,4540.000000,4241.538461,4501.538461,4140.000000,4452.820512,4207.692307,4246.666666,4485.128205,4195.897435,4637.948717,4023.589743,3974.871795
214,4425.641025,4461.538461,4547.692307,4249.230769,4508.205128,4141.538461,4458.461538,4216.923076,4247.692307,4493.333333,4204.615384,4642.051282,4034.871794,3986.666667
215,4429.743589,4467.179487,4549.743589,4251.794871,4509.743589,4147.179487,4461.538461,4219.487179,4250.256410,4498.974358,4208.717948,4642.051282,4041.025641,3990.256411
216,4425.641025,4472.307692,4549.230769,4249.230769,4506.666666,4149.230769,4454.871794,4214.871794,4260.512820,4504.102564,4209.230769,4646.666666,4035.384615,3987.179488
217,4429.743589,4474.871794,4549.743589,4248.717948,4509.743589,4146.666666,4448.205128,4214.871794,4266.666666,4507.179487,4217.948717,4654.358974,4040.512820,3991.282052
218,4437.948717,4472.307692,4554.871794,4250.769230,4510.769230,4148.717948,4454.358974,4220.512820,4264.102564,4506.666666,4235.897435,4658.461538,4056.410256,4001.538461
219,4435.897435,4471.282051,4555.897435,4253.333333,4508.205128,4147.179487,4460.000000,4224.102564,4263.589743,4504.615384,4234.871794,4658.974358,4057.435897,4002.564102
220,4428.717948,4464.102564,4550.256410,4247.179487,4507.692307,4140.000000,4454.358974,4221.538461,4258.974358,4500.000000,4215.384615,4655.897435,4046.666666,3993.846154
221,4418.461538,4444.615384,4543.589743,4230.256410,4502.051282,4135.897435,4445.641025,4217.435897,4247.179487,4488.717948,4206.666666,4648.717948,4033.333333,3983.076924
222,4411.282051,4440.512820,4544.615384,4228.205128,4497.948717,4136.923076,4444.615384,4214.358974,4244.102564,4486.153846,4214.871794,4645.128205,4023.589743,3977.435898
223,4418.974358,4462.564102,4549.743589,4245.641025,4505.128205,4140.000000,4446.153846,4216.410256,4248.717948,4497.435897,4224.615384,4648.717948,4033.846153,3987.692308
224,4430.769230,4475.897435,4552.307692,4250.769230,4506.153846,4140.000000,4446.153846,4216.410256,4250.769230,4501.538461,4226.153846,4654.358974,4044.615384,3994.358975
225,4425.128205,4462.051282,4546.666666,4237.435897,4498.461538,4132.820512,4444.102564,4206.666666,4249.230769,4493.846153,4213.333333,4649.230769,4031.282051,3983.589744
226,4414.871794,4451.794871,4542.564102,4229.230769,4497.948717,4129.743589,4443.589743,4197.948717,4242.564102,4488.717948,4198.461538,4641.538461,4021.025641,3973.846154
227,4418.974358,4459.487179,4545.128205,4230.256410,4498.461538,4136.923076,4443.589743,4201.538461,4234.358974,4483.589743,4201.538461,4641.538461,4032.307692,3978.461539
228,4424.615384,4463.589743,4544.615384,4237.435897,4498.974358,4138.461538,4449.230769,4206.666666,4231.794871,4475.384615,4214.358974,4642.564102,4037.948717,3985.128206
229,4423.076923,4455.897435,4543.589743,4243.076923,4500.000000,4135.384615,4458.461538,4203.589743,4230.256410,4478.461538,4217.948717,4642.564102,4028.717948,3984.102565
230,4418.974358,4448.717948,4544.615384,4238.461538,4497.948717,4138.974358,4458.461538,4204.102564,4236.410256,4494.358974,4204.102564,4642.564102,4020.512820,3977.948718
231,4421.025641,4453.333333,4546.666666,4231.794871,4500.000000,4143.076923,4456.410256,4215.384615,4251.794871,4500.512820,4200.000000,4646.153846,4026.153846,3980.512821
232,4428.717948,4462.564102,4550.769230,4235.384615,4507.692307,4141.538461,4462.564102,4222.564102,4258.461538,4495.384615,4218.461538,4653.846153,4041.538461,3992.307693
233,4430.256410,4461.025641,4556.410256,4245.128205,4508.717948,4144.615384,4463.589743,4217.435897,4248.717948,4489.230769,4218.461538,4654.358974,4038.461538,3991.282052
234,4426.153846,4454.358974,4553.333333,4246.666666,4502.564102,4147.692307,4457.435897,4213.333333,4245.641025,4490.769230,4206.153846,4649.230769,4026.153846,3985.641026
235,4427.179487,4450.769230,4550.769230,4237.435897,4497.948717,4142.564102,4457.435897,4216.410256,4252.307692,4495.384615,4222.564102,4653.846153,4033.333333,3989.230770
236,4427.692307,4445.128205,4556.923076,4230.256410,4495.897435,4137.435897,4461.025641,4217.948717,4250.256410,4494.871794,4233.333333,4657.948717,4038.974358,3989.743590
237,4420.512820,4440.512820,4557.948717,4233.846153,4503.076923,4140.512820,4463.076923,4218.974358,4244.102564,4490.256410,4220.512820,4650.769230,4025.128205,3987.692308
238,4418.461538,4449.743589,4549.743589,4236.923076,4509.743589,4145.128205,4465.128205,4221.538461,4247.692307,4490.769230,4216.410256,4647.692307,4019.487179,3989.743590
239,4420.000000,4455.384615,4544.615384,4232.307692,4500.512820,4140.512820,4463.076923,4217.948717,4248.205128,4491.794871,4208.717948,4646.666666,4028.205128,3984.615385
240,4414.358974,4448.205128,4544.615384,4229.743589,4494.871794,4134.358974,4454.871794,4214.871794,4241.025641,4490.769230,4191.794871,4641.025641,4027.179487,3976.923077
241,4411.282051,4443.589743,4544.102564,4233.846153,4498.974358,4134.358974,4448.205128,4214.358974,4241.538461,4488.205128,4192.307692,4639.487179,4018.974358,3981.538462
242,4413.333333,4444.615384,4537.948717,4234.358974,4495.897435,4135.897435,4444.102564,4207.179487,4240.000000,4477.435897,4202.564102,4636.410256,4018.974358,3981.025642
243,4410.769230,4446.666666,4534.358974,4229.743589,4494.871794,4134.871794,4445.128205,4199.487179,4231.794871,4475.384615,4200.000000,4633.333333,4019.487179,3972.820513
244,4414.871794,4452.307692,4543.076923,4231.794871,4503.076923,4136.923076,4449.743589,4201.538461,4233.846153,4484.102564,4195.897435,4640.512820,4018.461538,3978.461539
245,4426.153846,4456.410256,4554.358974,4236.410256,4500.000000,4140.000000,4448.205128,4202.564102,4240.000000,4487.179487,4201.538461,4649.743589,4026.666666,3989.743590
246,4428.205128,4456.923076,4554.871794,4238.461538,4494.871794,4136.923076,4447.179487,4204.102564,4245.641025,4494.358974,4216.410256,4653.333333,4038.461538,3994.871795
247,4428.205128,4460.000000,4558.461538,4245.641025,4503.589743,4138.461538,4455.384615,4213.846153,4259.487179,4509.743589,4236.923076,4658.461538,4046.153846,4002.051282
248,4433.333333,4462.051282,4564.615384,4249.230769,4509.743589,4148.717948,4464.102564,4222.051282,4267.692307,4515.897435,4237.435897,4665.641025,4048.205128,4009.230769
249,4431.282051,4460.512820,4559.487179,4235.897435,4505.128205,4150.769230,4461.538461,4217.948717,4252.820512,4504.102564,4221.025641,4663.076923,4044.615384,4003.589743
250,4424.102564,4456.923076,4552.307692,4230.256410,4499.487179,4140.000000,4452.307692,4206.153846,4236.923076,4491.794871,4216.410256,4651.794871,4039.487179,3994.358975
251,4425.128205,4454.871794,4552.820512,4242.051282,4498.461538,4136.923076,4452.820512,4201.538461,4240.000000,4492.820512,4222.051282,4646.666666,4041.538461,3996.923077
252,4421.538461,4450.256410,4550.256410,4241.025641,4502.564102,4140.512820,4454.358974,4202.051282,4241.538461,4487.692307,4212.307692,4649.230769,4035.897435,3997.948718
253,4412.820512,4446.153846,4545.128205,4229.230769,4506.153846,4142.051282,4449.230769,4200.000000,4233.333333,4471.794871,4201.025641,4647.179487,4023.589743,3988.717949
254,4418.461538,4453.333333,4550.256410,4231.794871,4505.128205,4144.615384,4450.256410,4202.051282,4238.974358,4482.564102,4217.435897,4645.128205,4028.205128,3992.307693
255,4427.179487,4456.410256,4555.384615,4237.435897,4506.666666,4145.641025,4454.871794,4207.179487,4253.333333,4508.205128,4239.487179,4650.256410,4042.564102,4001.538461
256,4422.564102,4446.666666,4549.743589,4234.871794,4507.179487,4139.487179,4448.717948,4206.666666,4247.692307,4503.589743,4229.743589,4649.743589,4039.487179,3993.846154
257,4413.333333,4443.076923,4546.153846,4231.282051,4500.512820,4136.410256,4442.051282,4198.974358,4229.743589,4483.076923,4196.923076,4641.538461,4023.589743,3984.615385
258,4413.333333,4446.666666,4547.692307,4224.615384,4494.358974,4138.461538,4444.102564,4195.897435,4232.820512,4483.589743,4187.692307,4639.487179,4020.000000,3987.179488
259,4415.897435,4441.538461,4544.615384,4216.923076,4493.333333,4136.410256,4448.717948,4198.974358,4244.102564,4491.794871,4206.666666,4639.487179,4026.153846,3987.692308
