,AF3,F7,F3,FC5,T7,P7,O1,O2,P8,T8,FC6,F4,F8,AF4
0,4376.923076,4521.538461,4524.615384,4270.769230,4494.871794,4202.051282,4442.564102,4213.333333,4211.794871,4483.589743,4191.282051,4663.076923,3980.000000,3971.794872
1,4380.000000,4527.179487,4523.076923,4269.230769,4488.717948,4204.102564,4441.538461,4214.358974,4212.307692,4480.512820,4204.615384,4665.128205,3968.717949,3970.769231
2,4392.820512,4534.871794,4532.820512,4278.461538,4490.769230,4212.820512,4446.153846,4219.487179,4220.512820,4489.230769,4214.871794,4669.230769,3971.794872,3978.974359
3,4399.487179,4537.948717,4540.000000,4284.102564,4494.358974,4213.333333,4447.692307,4218.461538,4220.512820,4497.435897,4205.641025,4670.256410,3983.589744,3988.717949
4,4391.794871,4532.820512,4530.769230,4278.461538,4489.230769,4207.692307,4445.641025,4213.333333,4211.282051,4487.692307,4194.871794,4665.641025,3987.179488,3986.666667
5,4382.564102,4528.205128,4522.051282,4280.512820,4488.717948,4207.179487,4445.128205,4213.333333,4212.307692,4479.487179,4189.230769,4662.051282,3979.487180,3974.871795
6,4382.564102,4526.666666,4523.589743,4278.974358,4494.358974,4207.692307,4444.102564,4217.948717,4219.487179,4483.076923,4187.692307,4661.025641,3967.692308,3969.743590
7,4384.102564,4522.051282,4521.538461,4264.615384,4490.769230,4204.615384,4442.051282,4214.871794,4215.897435,4478.974358,4192.820512,4660.512820,3962.051283,3968.717949
8,4387.692307,4525.128205,4520.512820,4265.641025,4484.615384,4207.179487,4449.743589,4216.923076,4216.410256,4482.051282,4199.487179,4662.051282,3969.743590,3973.846154
9,4393.846153,4534.871794,4527.179487,4280.512820,4487.179487,4215.897435,4460.512820,4229.743589,4228.205128,4500.512820,4211.794871,4666.153846,3990.769231,3988.717949
10,4390.769230,4533.333333,4527.692307,4275.897435,4493.333333,4220.512820,4459.487179,4228.205128,4231.794871,4500.512820,4211.794871,4668.717948,3997.435898,3990.769231
11,4387.692307,4524.102564,4522.564102,4263.076923,4491.794871,4216.923076,4455.384615,4217.435897,4226.153846,4490.769230,4195.897435,4666.666666,3981.025642,3977.948718
12,4386.666666,4521.538461,4521.025641,4263.076923,4488.205128,4212.820512,4456.923076,4216.410256,4222.051282,4497.435897,4191.282051,4658.974358,3969.743590,3971.794872
13,4383.589743,4522.564102,4521.025641,4264.102564,4492.307692,4211.794871,4458.974358,4220.512820,4220.000000,4498.974358,4195.384615,4653.333333,3973.333334,3972.307693
14,4385.128205,4530.256410,4522.564102,4269.743589,4492.307692,4211.794871,4457.948717,4223.076923,4220.000000,4487.692307,4196.923076,4658.461538,3981.538462,3976.923077
15,4385.128205,4537.435897,4525.641025,4281.538461,4488.205128,4215.384615,4459.487179,4223.076923,4222.051282,4488.717948,4199.487179,4665.641025,3987.692308,3980.512821
16,4383.589743,4532.820512,4524.615384,4281.025641,4495.897435,4217.948717,4457.948717,4220.000000,4222.564102,4495.384615,4198.974358,4659.487179,3990.256411,3978.974359
17,4390.769230,4529.743589,4524.615384,4276.410256,4504.102564,4214.871794,4449.743589,4215.384615,4214.358974,4491.282051,4191.282051,4652.307692,3984.615385,3974.871795
18,4397.435897,4538.461538,4530.769230,4281.538461,4496.923076,4208.205128,4443.076923,4212.820512,4203.589743,4482.564102,4193.846153,4657.435897,3976.410257,3976.410257
19,4389.743589,4538.974358,4530.256410,4281.538461,4491.794871,4204.102564,4442.564102,4206.666666,4196.410256,4473.846153,4198.974358,4661.025641,3978.974359,3976.923077
20,4381.538461,4527.692307,4523.076923,4270.769230,4492.820512,4201.538461,4442.564102,4201.538461,4198.974358,4468.717948,4191.282051,4652.307692,3987.692308,3972.307693
21,4382.564102,4528.717948,4522.051282,4272.307692,4491.282051,4202.564102,4443.589743,4211.282051,4210.769230,4484.615384,4187.179487,4649.230769,3990.769231,3971.794872
22,4384.102564,4531.794871,4525.641025,4274.358974,4490.256410,4204.615384,4444.615384,4220.000000,4217.435897,4507.179487,4192.820512,4657.948717,3990.769231,3972.820513
23,4387.179487,4524.615384,4525.128205,4266.153846,4487.692307,4206.153846,4448.205128,4221.025641,4218.974358,4502.564102,4203.076923,4663.589743,3994.358975,3975.897436
24,4389.230769,4527.179487,4526.666666,4269.230769,4491.282051,4211.282051,4457.435897,4225.128205,4221.025641,4495.384615,4203.076923,4667.692307,4000.000000,3983.589744
25,4384.102564,4536.410256,4532.307692,4279.487179,4498.974358,4213.333333,4459.487179,4228.205128,4222.564102,4505.128205,4191.794871,4668.205128,4001.538461,3986.153847
26,4374.358974,4527.692307,4526.153846,4275.897435,4499.487179,4206.153846,4447.692307,4219.487179,4218.461538,4505.641025,4190.769230,4660.512820,3993.846154,3977.435898
27,4368.717948,4514.871794,4518.974358,4271.282051,4492.820512,4200.000000,4441.025641,4210.256410,4213.846153,4493.846153,4198.461538,4657.435897,3981.025642,3965.128206
28,4380.512820,4527.692307,4530.769230,4280.000000,4490.256410,4206.666666,4449.230769,4214.358974,4220.512820,4499.487179,4202.564102,4665.641025,3991.794872,3973.333334
29,4393.333333,4545.641025,4542.051282,4287.179487,4496.923076,4215.897435,4458.974358,4225.128205,4231.794871,4509.743589,4207.692307,4672.307692,4011.282051,3989.230770
30,4390.256410,4544.615384,4540.512820,4284.615384,4500.512820,4217.948717,4458.974358,4230.256410,4231.794871,4504.615384,4215.897435,4672.820512,4007.692307,3989.230770
31,4390.769230,4541.025641,4546.666666,4285.128205,4501.025641,4220.000000,4458.461538,4234.871794,4236.410256,4512.820512,4220.000000,4679.487179,4009.743589,3990.256411
32,4398.461538,4546.666666,4552.307692,4288.717948,4501.538461,4222.051282,4461.538461,4239.487179,4247.179487,4531.282051,4219.487179,4686.666666,4024.102564,4003.076923
33,4390.256410,4544.615384,4541.025641,4285.128205,4497.435897,4220.512820,4461.025641,4230.769230,4238.974358,4525.641025,4210.769230,4677.948717,4014.871794,3997.948718
34,4381.538461,4540.512820,4533.333333,4280.512820,4496.923076,4215.384615,4455.897435,4215.897435,4217.435897,4503.589743,4203.589743,4665.128205,3996.923077,3980.000000
35,4388.717948,4546.666666,4538.461538,4282.564102,4502.051282,4216.410256,4456.410256,4214.871794,4213.846153,4494.358974,4208.205128,4663.589743,4004.102564,3983.589744
36,4390.256410,4549.230769,4538.974358,4284.102564,4501.025641,4218.461538,4458.461538,4217.948717,4223.076923,4501.538461,4206.666666,4668.205128,4011.794871,3992.820513
37,4389.230769,4546.153846,4536.410256,4284.615384,4497.948717,4214.358974,4453.333333,4218.974358,4227.692307,4511.282051,4202.051282,4671.794871,4006.153846,3987.692308
38,4397.948717,4550.769230,4539.487179,4288.205128,4505.128205,4214.871794,4451.794871,4224.102564,4231.282051,4518.974358,4213.846153,4674.871794,4008.205128,3988.205129
39,4392.307692,4546.666666,4536.410256,4284.102564,4503.589743,4218.461538,4450.256410,4223.076923,4224.615384,4512.307692,4219.487179,4671.282051,4010.256410,3990.256411
40,4377.435897,4532.820512,4528.717948,4274.358974,4490.769230,4214.871794,4446.153846,4214.358974,4212.820512,4498.461538,4211.282051,4664.615384,4000.000000,3982.051283
41,4381.538461,4534.871794,4531.282051,4277.948717,4490.256410,4214.358974,4451.282051,4217.435897,4220.000000,4505.128205,4214.358974,4666.666666,3997.435898,3979.487180
42,4390.769230,4541.538461,4538.974358,4290.256410,4500.512820,4223.589743,4463.076923,4228.717948,4232.820512,4519.487179,4218.974358,4670.769230,4008.717948,3987.179488
43,4388.717948,4541.025641,4538.974358,4292.307692,4505.641025,4226.153846,4464.102564,4229.743589,4229.743589,4511.794871,4207.692307,4666.666666,4011.282051,3990.769231
44,4379.487179,4536.923076,4532.307692,4281.538461,4499.487179,4216.410256,4453.333333,4221.538461,4224.615384,4497.435897,4196.410256,4659.487179,4003.589743,3986.666667
45,4381.538461,4532.307692,4529.230769,4273.333333,4492.820512,4210.256410,4445.128205,4216.410256,4225.128205,4500.512820,4200.512820,4660.000000,4003.589743,3984.615385
46,4392.820512,4534.358974,4533.333333,4277.948717,4493.333333,4211.794871,4444.615384,4216.923076,4219.487179,4507.179487,4210.769230,4665.128205,4007.179487,3985.641026
47,4400.000000,4547.179487,4539.487179,4285.641025,4493.333333,4214.358974,4447.179487,4218.461538,4220.512820,4514.358974,4223.589743,4669.743589,4012.307692,3992.307693
48,4398.461538,4556.923076,4542.051282,4287.692307,4490.256410,4212.307692,4447.179487,4217.948717,4227.179487,4514.358974,4225.641025,4672.820512,4018.974358,4001.538461
49,4389.743589,4547.692307,4534.871794,4284.615384,4491.794871,4209.230769,4445.128205,4213.846153,4223.076923,4493.846153,4202.051282,4667.179487,4012.307692,3991.794872
50,4383.589743,4535.897435,4526.666666,4282.564102,4495.384615,4212.307692,4448.205128,4214.871794,4225.128205,4491.794871,4191.794871,4660.512820,3995.897436,3972.820513
51,4381.538461,4536.923076,4521.538461,4282.564102,4496.923076,4218.461538,4448.205128,4220.000000,4230.256410,4512.820512,4216.923076,4656.923076,3993.333334,3976.410257
52,4384.102564,4543.076923,4521.025641,4278.461538,4497.435897,4216.923076,4446.153846,4221.538461,4223.589743,4510.769230,4224.102564,4656.410256,4004.615384,3990.256411
53,4390.256410,4551.282051,4527.179487,4282.051282,4498.461538,4215.384615,4451.794871,4225.641025,4224.615384,4502.051282,4200.512820,4662.051282,4016.410256,3987.179488
54,4397.435897,4556.923076,4536.410256,4294.358974,4500.512820,4218.974358,4459.487179,4231.282051,4233.846153,4509.743589,4201.025641,4665.641025,4025.641025,3986.153847
55,4401.538461,4557.948717,4541.025641,4300.000000,4505.641025,4219.487179,4455.897435,4229.743589,4231.282051,4507.692307,4221.538461,4667.179487,4029.230769,3998.461539
56,4400.000000,4554.871794,4538.461538,4291.794871,4507.179487,4217.435897,4450.769230,4223.589743,4231.282051,4502.564102,4223.589743,4669.743589,4025.641025,3998.974359
57,4393.333333,4545.641025,4536.923076,4283.076923,4502.051282,4215.384615,4445.128205,4218.974358,4233.333333,4512.820512,4217.435897,4668.205128,4022.564102,3988.717949
58,4390.256410,4542.051282,4535.384615,4278.974358,4497.435897,4214.358974,4442.051282,4214.871794,4230.256410,4517.435897,4213.333333,4663.589743,4023.076923,3991.794872
59,4398.461538,4553.333333,4538.461538,4282.051282,4497.948717,4216.410256,4451.794871,4222.564102,4232.820512,4509.230769,4215.384615,4668.717948,4027.179487,3997.948718
60,4404.102564,4556.923076,4541.538461,4291.794871,4502.564102,4220.512820,4459.487179,4231.282051,4235.897435,4504.102564,4223.076923,4673.846153,4031.794871,3996.410257
61,4391.794871,4540.000000,4531.282051,4291.282051,4500.000000,4218.461538,4448.717948,4222.051282,4229.230769,4505.128205,4217.435897,4661.025641,4022.051282,3988.205129
62,4377.948717,4530.256410,4520.000000,4280.000000,4494.358974,4213.846153,4442.051282,4211.794871,4224.615384,4507.179487,4204.102564,4646.153846,4008.205128,3979.487180
63,4381.538461,4534.871794,4523.589743,4275.897435,4496.923076,4217.948717,4454.358974,4221.025641,4232.820512,4507.692307,4207.692307,4648.717948,4014.871794,3980.512821
64,4395.384615,4542.564102,4534.358974,4283.076923,4504.102564,4228.205128,4463.076923,4233.333333,4245.641025,4506.153846,4224.102564,4661.538461,4030.256410,3989.743590
65,4398.974358,4547.692307,4537.435897,4288.717948,4503.076923,4235.384615,4462.051282,4236.923076,4251.794871,4514.871794,4231.794871,4667.179487,4034.358974,3990.769231
66,4394.358974,4541.538461,4538.461538,4284.615384,4504.615384,4231.282051,4461.025641,4237.948717,4250.256410,4527.179487,4224.615384,4666.666666,4032.820512,3987.692308
67,4395.897435,4540.000000,4535.384615,4283.076923,4508.717948,4225.128205,4459.487179,4235.897435,4247.692307,4518.461538,4218.974358,4665.128205,4027.692307,3990.769231
68,4398.974358,4550.256410,4528.717948,4288.717948,4500.000000,4225.128205,4456.923076,4230.769230,4244.102564,4504.102564,4212.820512,4662.564102,4021.025641,3990.769231
69,4396.410256,4549.743589,4528.205128,4286.666666,4491.794871,4224.102564,4457.435897,4230.769230,4236.923076,4507.692307,4204.102564,4660.512820,4024.615384,3987.179488
70,4389.230769,4535.897435,4527.692307,4276.410256,4493.333333,4218.974358,4458.974358,4227.179487,4234.871794,4509.743589,4207.692307,4658.974358,4028.717948,3983.076924
71,4380.512820,4534.358974,4522.564102,4274.871794,4494.871794,4214.871794,4452.820512,4217.435897,4230.256410,4497.435897,4213.846153,4651.794871,4017.948717,3975.897436
72,4377.948717,4538.461538,4518.461538,4278.461538,4492.307692,4215.897435,4444.615384,4212.307692,4221.025641,4488.717948,4207.692307,4644.615384,4007.692307,3972.820513
73,4383.076923,4535.384615,4523.589743,4278.974358,4489.230769,4215.384615,4444.102564,4212.820512,4219.487179,4490.769230,4204.615384,4649.230769,4012.820512,3980.000000
74,4387.692307,4538.974358,4532.307692,4281.538461,4490.769230,4213.846153,4445.128205,4212.820512,4223.589743,4492.307692,4208.717948,4655.897435,4022.564102,3989.743590
75,4390.256410,4542.564102,4530.256410,4281.538461,4492.307692,4213.333333,4442.051282,4215.897435,4224.615384,4494.358974,4208.717948,4652.820512,4024.615384,3989.743590
76,4392.820512,4536.410256,4526.153846,4279.487179,4492.820512,4215.384615,4447.179487,4221.025641,4228.717948,4505.641025,4220.000000,4654.358974,4023.589743,3986.153847
77,4396.410256,4537.435897,4532.820512,4280.512820,4492.820512,4219.487179,4455.384615,4228.205128,4236.923076,4515.897435,4235.897435,4665.128205,4031.282051,3993.846154
78,4401.538461,4547.179487,4542.564102,4282.051282,4494.871794,4218.974358,4450.256410,4229.743589,4236.923076,4510.769230,4230.256410,4672.307692,4037.435897,4003.076923
79,4401.538461,4545.641025,4537.435897,4281.025641,4491.794871,4215.384615,4442.051282,4222.564102,4226.666666,4493.846153,4215.897435,4666.153846,4024.102564,3994.358975
80,4391.794871,4537.948717,4524.615384,4277.948717,4493.846153,4213.846153,4442.051282,4215.897435,4220.512820,4485.128205,4204.102564,4654.358974,4007.692307,3978.461539
81,4384.102564,4537.435897,4522.051282,4280.512820,4499.487179,4215.384615,4447.179487,4220.000000,4227.179487,4493.846153,4197.948717,4648.717948,4015.384615,3976.410257
82,4388.717948,4540.000000,4531.282051,4286.666666,4496.923076,4218.461538,4454.358974,4229.230769,4242.564102,4515.384615,4214.358974,4655.384615,4031.282051,3985.128206
83,4398.974358,4544.615384,4540.512820,4291.794871,4496.923076,4223.076923,4456.410256,4234.358974,4247.692307,4524.615384,4236.410256,4667.179487,4032.307692,3993.333334
84,4401.025641,4542.051282,4538.461538,4288.205128,4500.512820,4221.025641,4449.230769,4230.256410,4242.051282,4509.743589,4231.794871,4666.666666,4023.076923,3993.333334
85,4390.256410,4534.358974,4527.179487,4272.307692,4494.358974,4214.358974,4441.538461,4220.000000,4236.923076,4500.000000,4204.102564,4649.743589,4015.384615,3980.000000
86,4378.461538,4526.666666,4521.538461,4263.589743,4487.692307,4214.358974,4440.512820,4215.384615,4233.333333,4500.000000,4192.307692,4637.948717,4013.333333,3970.769231
87,4383.589743,4526.153846,4529.230769,4275.897435,4489.743589,4216.410256,4443.076923,4218.461538,4229.743589,4496.923076,4204.102564,4644.102564,4014.358974,3977.948718
88,4395.897435,4534.358974,4536.410256,4285.128205,4490.256410,4219.487179,4447.179487,4223.589743,4231.282051,4503.589743,4220.000000,4654.871794,4017.435897,3989.743590
89,4393.846153,4534.871794,4532.820512,4275.897435,4491.794871,4217.948717,4447.179487,4224.615384,4233.846153,4510.256410,4220.512820,4651.282051,4019.487179,3991.282052
90,4382.051282,4523.589743,4524.102564,4270.256410,4494.358974,4210.769230,4441.538461,4216.923076,4222.051282,4491.282051,4203.589743,4642.564102,4010.769230,3980.512821
91,4381.025641,4526.153846,4523.076923,4274.871794,4489.743589,4208.717948,4441.025641,4211.794871,4216.923076,4475.384615,4198.461538,4642.564102,4000.512820,3970.769231
92,4393.846153,4542.051282,4529.230769,4279.487179,4487.692307,4215.897435,4445.128205,4217.948717,4230.256410,4493.846153,4216.923076,4648.717948,4010.256410,3981.025642
93,4397.435897,4542.564102,4531.794871,4283.589743,4490.769230,4218.974358,4446.666666,4222.564102,4236.923076,4509.230769,4224.615384,4647.692307,4023.589743,3988.717949
94,4384.615384,4529.230769,4522.564102,4275.384615,4488.717948,4210.256410,4442.564102,4216.410256,4227.179487,4499.487179,4207.692307,4637.435897,4014.871794,3976.410257
95,4378.974358,4522.564102,4517.435897,4265.128205,4483.076923,4204.102564,4441.025641,4212.307692,4221.025641,4488.717948,4193.846153,4632.307692,4002.051282,3967.179488
96,4384.102564,4524.615384,4524.615384,4270.256410,4485.128205,4211.794871,4444.615384,4215.897435,4225.128205,4491.282051,4202.051282,4643.589743,4004.615384,3972.820513
97,4382.564102,4528.205128,4527.179487,4271.282051,4489.743589,4216.410256,4446.666666,4214.871794,4222.564102,4491.282051,4210.769230,4649.230769,4007.179487,3974.358975
98,4382.051282,4524.102564,4522.051282,4263.589743,4489.743589,4210.256410,4443.076923,4210.769230,4218.974358,4488.205128,4204.615384,4636.410256,4001.025641,3972.820513
99,4391.794871,4516.923076,4524.102564,4266.153846,4488.205128,4210.769230,4443.076923,4213.333333,4222.051282,4494.871794,4202.051282,4632.820512,3997.435898,3973.846154
100,4398.974358,4525.641025,4534.358974,4277.948717,4490.769230,4218.974358,4450.769230,4217.948717,4229.743589,4501.538461,4214.871794,4649.230769,4004.615384,3973.846154
101,4398.461538,4536.410256,4540.512820,4286.153846,4492.307692,4217.435897,4451.794871,4222.564102,4236.923076,4493.846153,4221.025641,4657.435897,4013.333333,3982.051283
102,4396.410256,4530.256410,4537.948717,4288.205128,4492.820512,4214.871794,4445.128205,4224.615384,4238.461538,4489.230769,4210.256410,4651.282051,4014.871794,3989.230770
103,4395.897435,4523.076923,4527.692307,4283.589743,4499.487179,4217.435897,4443.589743,4220.512820,4234.871794,4502.051282,4207.692307,4643.589743,4013.333333,3982.564103
104,4394.871794,4532.307692,4523.589743,4276.410256,4501.538461,4215.384615,4445.641025,4213.333333,4228.205128,4510.769230,4210.769230,4639.487179,4013.333333,3972.307693
105,4395.384615,4542.564102,4530.769230,4280.512820,4495.897435,4214.358974,4444.615384,4220.512820,4231.794871,4507.179487,4215.384615,4644.615384,4015.897435,3972.820513
106,4397.435897,4541.538461,4530.769230,4290.256410,4499.487179,4220.512820,4447.692307,4232.820512,4241.538461,4509.230769,4226.153846,4653.846153,4022.564102,3983.076924
107,4397.948717,4536.923076,4527.692307,4286.666666,4505.128205,4223.076923,4456.410256,4231.794871,4241.538461,4504.615384,4218.461538,4650.256410,4022.051282,3985.641026
108,4398.974358,4535.384615,4534.358974,4280.512820,4497.435897,4220.512820,4457.435897,4227.179487,4235.897435,4495.897435,4204.615384,4646.666666,4012.307692,3978.974359
109,4395.384615,4529.230769,4534.871794,4279.487179,4490.769230,4217.948717,4448.205128,4225.128205,4232.820512,4500.000000,4209.230769,4650.256410,4004.615384,3973.333334
110,4384.615384,4517.435897,4522.051282,4270.256410,4489.743589,4209.230769,4440.000000,4221.025641,4228.717948,4504.102564,4212.820512,4640.512820,4001.538461,3970.769231
111,4382.564102,4515.897435,4518.461538,4264.102564,4485.641025,4206.153846,4440.000000,4216.410256,4221.538461,4491.282051,4200.000000,4630.769230,3997.948718,3971.282052
112,4392.820512,4526.666666,4526.666666,4275.897435,4484.615384,4209.230769,4445.128205,4217.435897,4226.153846,4484.615384,4195.384615,4639.487179,3998.461539,3973.846154
113,4403.076923,4535.897435,4533.846153,4288.205128,4491.282051,4212.307692,4447.692307,4226.666666,4241.025641,4504.102564,4207.692307,4649.743589,4008.717948,3985.641026
114,4403.589743,4533.333333,4540.000000,4281.025641,4496.410256,4212.307692,4445.641025,4224.615384,4236.410256,4508.717948,4213.333333,4647.692307,4016.923076,3988.205129
115,4397.435897,4522.051282,4535.897435,4270.769230,4494.871794,4208.717948,4444.102564,4208.205128,4218.461538,4483.589743,4208.717948,4642.051282,4009.743589,3975.897436
116,4394.358974,4521.538461,4525.641025,4271.794871,4489.743589,4207.179487,4444.102564,4204.102564,4212.307692,4472.820512,4205.128205,4638.974358,3996.923077,3973.333334
117,4397.435897,4532.820512,4529.230769,4278.461538,4488.205128,4210.256410,4444.102564,4215.897435,4218.974358,4489.230769,4196.923076,4640.000000,3998.461539,3978.974359
118,4398.461538,4531.794871,4535.384615,4277.435897,4490.769230,4212.820512,4448.205128,4218.974358,4229.230769,4497.435897,4186.666666,4638.461538,4006.153846,3974.871795
119,4394.871794,4520.512820,4530.769230,4270.256410,4489.743589,4212.307692,4451.282051,4216.410256,4232.307692,4488.205128,4195.384615,4635.897435,4000.000000,3972.820513
120,4397.435897,4521.538461,4527.179487,4267.179487,4486.153846,4212.307692,4447.692307,4221.538461,4225.641025,4488.717948,4211.282051,4641.025641,3996.410257,3985.641026
121,4400.000000,4523.076923,4526.666666,4265.128205,4484.102564,4210.769230,4443.589743,4219.487179,4215.897435,4491.794871,4204.102564,4641.538461,4002.564102,3985.128206
122,4396.410256,4517.435897,4526.666666,4263.076923,4486.153846,4207.692307,4442.564102,4211.282051,4215.384615,4484.102564,4192.307692,4634.871794,4003.076923,3973.333334
123,4393.846153,4523.589743,4529.743589,4271.282051,4491.794871,4210.769230,4441.538461,4212.307692,4220.512820,4478.461538,4191.794871,4636.410256,4000.000000,3972.820513
124,4396.410256,4536.923076,4529.230769,4281.025641,4493.846153,4213.846153,4441.025641,4215.897435,4222.564102,4489.230769,4199.487179,4640.512820,4002.051282,3977.435898
125,4396.923076,4535.384615,4520.000000,4281.538461,4491.282051,4213.333333,4441.538461,4217.435897,4228.205128,4506.153846,4217.435897,4638.461538,4004.102564,3978.974359
126,4395.384615,4530.256410,4520.512820,4278.974358,4490.256410,4211.282051,4441.025641,4225.641025,4237.948717,4511.794871,4223.589743,4643.076923,4011.282051,3983.589744
127,4397.435897,4532.820512,4527.692307,4277.435897,4492.820512,4214.871794,4441.538461,4230.256410,4237.948717,4510.769230,4212.820512,4649.743589,4020.512820,3990.256411
128,4396.923076,4525.641025,4523.076923,4267.692307,4493.846153,4217.435897,4441.025641,4219.487179,4222.051282,4498.974358,4207.179487,4644.102564,4018.461538,3988.205129
129,4395.384615,4521.538461,4521.538461,4264.615384,4493.333333,4214.358974,4442.564102,4213.333333,4220.512820,4492.307692,4203.076923,4640.000000,4018.461538,3985.641026
130,4402.051282,4537.948717,4531.282051,4283.076923,4502.051282,4219.487179,4446.666666,4220.512820,4231.794871,4500.000000,4201.025641,4645.128205,4026.153846,3985.641026
131,4401.538461,4545.128205,4531.794871,4291.282051,4511.794871,4221.538461,4446.153846,4215.384615,4222.051282,4496.923076,4204.615384,4643.589743,4011.794871,3977.948718
132,4387.692307,4532.820512,4523.076923,4276.923076,4502.051282,4213.333333,4441.025641,4207.179487,4208.205128,4483.589743,4200.512820,4635.384615,3989.230770,3969.230770
133,4385.641025,4528.717948,4524.615384,4277.435897,4490.256410,4211.794871,4441.538461,4215.384615,4214.871794,4491.794871,4189.230769,4638.461538,4000.000000,3972.307693
134,4392.307692,4528.717948,4528.205128,4282.051282,4495.384615,4216.923076,4446.153846,4221.025641,4221.538461,4507.179487,4182.564102,4645.641025,4019.487179,3974.871795
135,4385.641025,4519.487179,4523.589743,4266.153846,4495.897435,4214.871794,4446.153846,4213.333333,4216.923076,4500.000000,4187.692307,4645.641025,4018.974358,3970.256411
136,4381.538461,4518.461538,4524.102564,4263.589743,4494.358974,4210.256410,4443.076923,4216.410256,4224.102564,4495.384615,4202.051282,4644.615384,4020.000000,3972.307693
137,4392.820512,4530.256410,4531.794871,4281.538461,4502.051282,4214.871794,4449.230769,4228.205128,4233.333333,4505.641025,4211.282051,4650.256410,4025.641025,3980.512821
138,4396.923076,4538.974358,4534.358974,4286.666666,4503.589743,4216.923076,4456.923076,4223.589743,4225.128205,4509.230769,4203.076923,4653.333333,4016.923076,3980.000000
139,4392.307692,4538.974358,4535.384615,4284.102564,4500.000000,4213.846153,4454.358974,4219.487179,4220.000000,4505.641025,4194.871794,4652.820512,4005.641025,3973.333334
140,4393.846153,4537.435897,4540.000000,4289.743589,4503.589743,4215.897435,4457.948717,4229.743589,4230.769230,4509.743589,4200.512820,4656.410256,4010.256410,3974.871795
141,4384.102564,4530.769230,4536.410256,4282.564102,4501.025641,4219.487179,4460.512820,4227.692307,4230.256410,4504.102564,4197.435897,4655.897435,4008.717948,3970.256411
142,4364.102564,4517.948717,4525.128205,4263.076923,4491.282051,4215.384615,4448.205128,4214.358974,4213.333333,4487.179487,4182.051282,4647.692307,3997.435898,3956.923077
143,4368.717948,4516.410256,4526.666666,4264.615384,4489.743589,4214.358974,4447.179487,4214.871794,4211.282051,4491.282051,4189.743589,4647.179487,4001.538461,3960.000000
144,4387.179487,4527.179487,4536.410256,4278.974358,4495.897435,4221.025641,4458.461538,4219.487179,4221.538461,4505.641025,4203.589743,4654.871794,4005.641025,3972.307693
145,4391.282051,4533.846153,4539.487179,4285.128205,4502.564102,4226.153846,4458.974358,4222.564102,4228.717948,4514.871794,4198.461538,4660.000000,4006.666666,3982.564103
146,4392.307692,4540.512820,4544.615384,4286.153846,4510.256410,4228.205128,4457.948717,4232.307692,4235.897435,4526.153846,4209.230769,4669.230769,4029.743589,4000.512820
147,4393.333333,4538.461538,4546.153846,4282.564102,4511.282051,4222.564102,4453.846153,4226.666666,4232.820512,4523.589743,4221.538461,4672.820512,4041.025641,4000.000000
148,4388.205128,4524.615384,4535.897435,4275.897435,4500.000000,4214.358974,4442.564102,4212.820512,4226.666666,4507.692307,4208.205128,4667.179487,4020.512820,3978.974359
149,4387.179487,4525.641025,4534.871794,4277.435897,4491.794871,4221.025641,4443.076923,4215.384615,4232.307692,4509.743589,4205.641025,4667.179487,4014.871794,3982.051283
150,4386.666666,4534.871794,4542.051282,4281.538461,4494.358974,4226.666666,4450.769230,4221.025641,4228.205128,4510.769230,4210.769230,4666.666666,4021.025641,3992.307693
151,4380.000000,4529.743589,4534.358974,4276.410256,4496.923076,4220.000000,4445.128205,4214.871794,4211.282051,4490.769230,4197.948717,4657.435897,4007.692307,3978.974359
152,4381.025641,4527.692307,4527.179487,4275.897435,4500.512820,4218.974358,4440.000000,4212.820512,4212.820512,4484.102564,4190.769230,4653.333333,4001.025641,3966.153847
153,4389.743589,4536.410256,4535.384615,4277.948717,4501.025641,4222.564102,4449.230769,4217.435897,4230.769230,4506.153846,4205.128205,4660.512820,4018.974358,3972.820513
154,4395.897435,4540.000000,4544.102564,4282.564102,4499.487179,4225.641025,4461.025641,4221.025641,4235.897435,4527.179487,4216.410256,4670.256410,4040.000000,3988.205129
155,4396.923076,4535.384615,4543.589743,4290.256410,4506.153846,4228.717948,4456.410256,4218.974358,4231.282051,4524.102564,4216.410256,4671.794871,4039.487179,3997.948718
156,4389.743589,4529.743589,4540.000000,4291.794871,4508.717948,4224.615384,4446.666666,4215.897435,4233.333333,4510.256410,4215.384615,4667.692307,4019.487179,3989.230770
157,4384.615384,4530.256410,4540.512820,4287.692307,4499.487179,4222.564102,4451.794871,4222.564102,4236.923076,4508.717948,4217.948717,4669.230769,4012.307692,3975.384616
158,4387.179487,4535.384615,4538.974358,4284.615384,4495.897435,4223.589743,4451.794871,4226.666666,4229.230769,4513.846153,4215.897435,4667.692307,4022.051282,3970.769231
159,4390.256410,4537.948717,4537.435897,4290.256410,4500.512820,4225.128205,4447.179487,4227.692307,4232.307692,4526.153846,4210.769230,4661.538461,4028.205128,3976.410257
160,4390.769230,4539.487179,4541.025641,4293.333333,4503.076923,4227.179487,4456.410256,4231.794871,4246.666666,4537.948717,4213.333333,4666.153846,4027.692307,3986.153847
161,4386.666666,4536.923076,4543.076923,4284.615384,4504.615384,4227.179487,4458.974358,4224.615384,4233.846153,4518.974358,4209.743589,4668.717948,4018.461538,3978.974359
162,4380.512820,4526.153846,4535.384615,4283.589743,4502.564102,4222.564102,4446.666666,4210.256410,4211.794871,4490.256410,4198.974358,4660.000000,4005.641025,3961.538462
163,4382.051282,4524.615384,4532.307692,4288.205128,4494.358974,4223.076923,4445.128205,4206.666666,4212.307692,4492.307692,4198.974358,4657.948717,4006.153846,3964.615385
164,4378.974358,4525.641025,4531.794871,4277.435897,4492.307692,4219.487179,4445.128205,4203.589743,4211.282051,4499.487179,4202.051282,4658.461538,4010.769230,3974.358975
165,4367.179487,4517.948717,4526.153846,4267.179487,4491.794871,4209.230769,4434.358974,4194.358974,4201.538461,4490.769230,4202.564102,4652.307692,4005.641025,3971.282052
166,4370.256410,4518.974358,4531.794871,4275.897435,4487.692307,4211.794871,4434.871794,4197.435897,4203.589743,4489.743589,4195.384615,4654.871794,4006.153846,3971.794872
167,4382.564102,4524.615384,4534.871794,4276.410256,4483.589743,4215.897435,4442.051282,4202.051282,4207.692307,4490.256410,4187.692307,4660.000000,4006.666666,3973.333334
168,4385.128205,4523.589743,4529.743589,4274.358974,4486.666666,4215.384615,4442.564102,4198.974358,4209.230769,4482.564102,4194.358974,4656.923076,3996.410257,3965.641026
169,4381.538461,4525.128205,4531.794871,4284.102564,4495.384615,4217.948717,4444.102564,4205.641025,4217.435897,4488.717948,4205.128205,4653.846153,3995.897436,3969.230770
170,4371.282051,4524.102564,4527.692307,4279.487179,4493.846153,4216.410256,4444.615384,4212.820512,4217.435897,4503.076923,4198.974358,4647.692307,3997.435898,3969.743590
171,4364.615384,4517.948717,4520.512820,4265.641025,4487.179487,4214.871794,4441.538461,4212.820512,4213.846153,4507.692307,4191.794871,4642.564102,3990.769231,3958.461539
172,4374.871794,4525.641025,4529.230769,4270.769230,4488.205128,4218.461538,4451.282051,4222.051282,4226.666666,4510.769230,4201.538461,4651.794871,3999.487180,3965.641026
173,4384.615384,4536.410256,4537.435897,4282.564102,4495.897435,4220.512820,4460.000000,4232.307692,4235.384615,4511.282051,4216.410256,4666.153846,4017.948717,3982.051283
174,4377.948717,4529.230769,4534.358974,4280.512820,4498.461538,4216.923076,4448.205128,4224.615384,4226.666666,4501.538461,4217.948717,4664.102564,4017.948717,3978.461539
175,4373.846153,4521.025641,4534.871794,4276.410256,4493.846153,4216.410256,4439.487179,4213.846153,4224.102564,4499.487179,4209.743589,4655.384615,4010.256410,3969.743590
176,4374.871794,4524.615384,4528.717948,4275.384615,4488.205128,4215.384615,4443.589743,4208.205128,4223.589743,4503.076923,4196.923076,4650.769230,4006.666666,3965.641026
177,4372.307692,4522.564102,4519.487179,4274.358974,4485.128205,4210.769230,4443.589743,4199.487179,4213.846153,4493.846153,4184.102564,4644.615384,3998.461539,3959.487180
178,4371.282051,4518.974358,4523.589743,4272.307692,4488.205128,4213.333333,4442.564102,4194.871794,4205.128205,4479.487179,4184.102564,4641.025641,3995.384616,3962.564103
179,4373.333333,4522.564102,4528.205128,4271.794871,4493.333333,4218.974358,4443.076923,4197.948717,4201.538461,4478.974358,4198.461538,4646.153846,4000.000000,3970.769231
180,4373.333333,4523.076923,4532.820512,4275.384615,4493.333333,4216.923076,4446.153846,4204.102564,4204.615384,4493.333333,4213.333333,4656.410256,4006.153846,3972.307693
181,4370.769230,4517.435897,4537.435897,4273.846153,4492.307692,4214.871794,4453.333333,4215.384615,4218.461538,4505.641025,4214.358974,4664.102564,4013.846153,3971.282052
182,4375.897435,4520.512820,4537.435897,4269.230769,4489.743589,4217.435897,4452.307692,4221.025641,4229.743589,4508.205128,4212.820512,4665.641025,4014.358974,3975.384616
183,4383.076923,4529.230769,4537.948717,4276.923076,4488.205128,4216.410256,4443.589743,4216.410256,4230.256410,4507.179487,4211.794871,4663.076923,4009.743589,3980.000000
184,4375.897435,4527.692307,4534.358974,4285.128205,4489.230769,4214.358974,4443.076923,4215.384615,4231.794871,4507.692307,4205.641025,4657.948717,4008.717948,3976.923077
185,4363.589743,4521.025641,4524.615384,4278.461538,4490.769230,4215.384615,4445.641025,4215.384615,4232.307692,4501.538461,4200.512820,4653.333333,4005.128205,3967.179488
186,4367.179487,4523.076923,4526.666666,4275.897435,4490.769230,4215.897435,4442.564102,4212.820512,4229.743589,4495.384615,4201.538461,4651.282051,3999.487180,3966.666667
187,4373.846153,4526.153846,4533.846153,4281.538461,4491.794871,4216.410256,4442.051282,4213.333333,4226.153846,4495.897435,4202.564102,4646.666666,3996.923077,3973.333334
188,4367.179487,4521.025641,4528.205128,4277.948717,4490.256410,4215.384615,4444.102564,4214.871794,4215.897435,4488.717948,4197.435897,4641.538461,3996.410257,3973.333334
189,4366.153846,4520.512820,4530.256410,4276.410256,4486.666666,4214.358974,4443.076923,4213.846153,4212.820512,4485.128205,4198.974358,4647.179487,4003.589743,3973.846154
190,4374.871794,4524.615384,4536.923076,4281.538461,4489.230769,4215.897435,4444.102564,4216.410256,4220.000000,4490.769230,4201.538461,4652.307692,4008.717948,3977.435898
191,4374.358974,4523.076923,4530.256410,4276.410256,4493.333333,4217.435897,4445.128205,4215.384615,4216.923076,4486.153846,4195.897435,4642.564102,3995.897436,3971.282052
192,4369.230769,4521.538461,4525.128205,4268.717948,4494.871794,4215.897435,4445.128205,4205.641025,4206.666666,4476.410256,4198.461538,4637.435897,3980.512821,3960.512821
193,4368.205128,4523.076923,4530.256410,4268.205128,4492.820512,4216.410256,4445.641025,4204.615384,4208.205128,4476.923076,4204.102564,4641.538461,3988.205129,3964.102565
194,4365.128205,4522.051282,4533.333333,4266.153846,4491.282051,4217.948717,4445.641025,4212.820512,4214.358974,4478.974358,4190.769230,4641.025641,4002.051282,3972.820513
195,4367.179487,4524.102564,4535.897435,4271.794871,4493.846153,4218.461538,4445.641025,4216.923076,4218.974358,4480.512820,4186.666666,4644.102564,4004.615384,3977.948718
196,4373.333333,4529.230769,4541.538461,4284.615384,4494.358974,4217.435897,4446.666666,4217.948717,4227.692307,4487.692307,4206.153846,4651.282051,4004.615384,3981.538462
197,4370.256410,4524.615384,4536.923076,4285.128205,4492.820512,4215.384615,4444.615384,4218.974358,4234.871794,4493.333333,4213.333333,4647.692307,4002.564102,3975.897436
198,4371.282051,4525.641025,4529.743589,4281.538461,4497.435897,4221.025641,4446.153846,4223.076923,4232.820512,4499.487179,4205.128205,4645.128205,4002.564102,3975.897436
199,4381.025641,4534.871794,4532.820512,4285.128205,4505.641025,4228.717948,4455.384615,4226.153846,4231.794871,4504.102564,4203.589743,4651.282051,4009.743589,3986.153847
200,4379.487179,4533.333333,4531.794871,4283.589743,4508.205128,4229.743589,4457.435897,4227.692307,4238.461538,4503.076923,4209.230769,4649.230769,4013.846153,3986.153847
201,4376.923076,4527.692307,4529.743589,4279.487179,4502.051282,4227.692307,4448.717948,4227.179487,4242.564102,4505.641025,4213.333333,4644.615384,4011.794871,3980.512821
202,4379.487179,4526.666666,4528.717948,4277.948717,4493.333333,4222.564102,4443.076923,4222.564102,4232.307692,4506.153846,4216.410256,4647.179487,4009.230769,3976.923077
203,4376.923076,4524.102564,4527.692307,4272.307692,4489.743589,4216.410256,4443.589743,4216.923076,4224.102564,4494.358974,4215.897435,4651.282051,4006.153846,3975.384616
204,4376.923076,4521.538461,4529.743589,4274.358974,4493.333333,4216.410256,4443.076923,4216.410256,4228.205128,4485.641025,4211.282051,4653.333333,4002.051282,3982.051283
205,4380.512820,4522.564102,4530.256410,4279.487179,4495.897435,4218.974358,4441.538461,4217.435897,4225.128205,4482.051282,4202.051282,4650.769230,3998.461539,3984.102565
206,4375.897435,4520.000000,4524.615384,4268.717948,4489.743589,4214.871794,4440.512820,4212.820512,4212.820512,4473.333333,4195.384615,4644.102564,3994.871795,3973.333334
207,4370.256410,4517.435897,4518.461538,4263.589743,4485.641025,4213.333333,4441.025641,4206.666666,4203.589743,4468.717948,4199.487179,4639.487179,3989.230770,3965.128206
208,4374.871794,4517.948717,4522.051282,4272.820512,4486.153846,4215.384615,4443.076923,4207.692307,4205.128205,4475.897435,4201.538461,4640.000000,3983.076924,3966.153847
209,4379.487179,4517.435897,4523.589743,4273.333333,4490.256410,4215.897435,4443.076923,4212.820512,4211.794871,4480.512820,4198.461538,4643.589743,3986.666667,3968.205129
210,4381.538461,4521.025641,4522.564102,4272.307692,4493.846153,4215.384615,4442.564102,4215.384615,4221.025641,4485.641025,4197.435897,4646.153846,4001.025641,3974.871795
211,4384.615384,4527.179487,4525.128205,4283.589743,4492.307692,4215.384615,4443.589743,4220.000000,4232.307692,4495.897435,4204.615384,4648.717948,4009.743589,3983.076924
212,4389.743589,4529.743589,4525.641025,4288.205128,4488.717948,4216.410256,4443.589743,4225.128205,4239.487179,4497.948717,4215.897435,4652.820512,4009.743589,3987.692308
213,4390.769230,4528.205128,4525.128205,4282.051282,4489.230769,4217.948717,4442.051282,4222.051282,4236.923076,4499.487179,4224.615384,4653.846153,4012.820512,3987.179488
214,4383.589743,4523.076923,4522.564102,4277.948717,4492.307692,4214.871794,4442.564102,4213.333333,4228.717948,4503.076923,4217.948717,4650.256410,4010.769230,3980.000000
215,4379.487179,4521.025641,4523.076923,4273.333333,4491.282051,4208.717948,4442.564102,4212.820512,4222.564102,4495.897435,4195.384615,4644.615384,3997.948718,3975.897436
216,4380.512820,4523.076923,4522.051282,4270.769230,4489.230769,4209.743589,4437.435897,4214.358974,4216.923076,4483.076923,4187.179487,4641.538461,3990.769231,3975.384616
217,4374.358974,4518.461538,4513.333333,4269.743589,4490.256410,4206.666666,4430.256410,4208.205128,4217.435897,4479.487179,4194.871794,4637.948717,3982.564103,3969.743590
218,4369.743589,4510.256410,4506.153846,4265.641025,4489.743589,4203.589743,4431.794871,4202.564102,4217.948717,4475.897435,4194.871794,4631.282051,3975.897436,3964.102565
219,4375.897435,4513.846153,4508.717948,4268.205128,4487.692307,4210.769230,4439.487179,4201.025641,4212.820512,4469.743589,4192.820512,4633.333333,3984.615385,3966.666667
220,4383.076923,4521.538461,4519.487179,4280.512820,4489.743589,4217.435897,4442.051282,4207.179487,4213.333333,4477.435897,4198.974358,4646.666666,3997.948718,3975.897436
221,4386.666666,4521.538461,4525.128205,4284.615384,4493.333333,4214.358974,4442.051282,4215.384615,4224.102564,4488.205128,4206.153846,4654.871794,3993.846154,3980.000000
222,4392.820512,4523.589743,4523.076923,4281.025641,4490.769230,4213.333333,4443.076923,4219.487179,4232.820512,4491.794871,4207.692307,4652.820512,3987.692308,3984.615385
223,4395.897435,4527.179487,4522.564102,4280.000000,4493.846153,4218.461538,4443.076923,4220.000000,4234.358974,4491.282051,4208.205128,4652.307692,3996.410257,3991.794872
224,4394.358974,4523.076923,4523.076923,4274.871794,4500.512820,4214.871794,4440.000000,4215.897435,4229.230769,4485.641025,4204.615384,4650.256410,4000.512820,3989.230770
225,4393.846153,4521.025641,4522.051282,4273.846153,4496.410256,4212.307692,4440.512820,4214.871794,4230.256410,4488.717948,4201.025641,4649.230769,3998.461539,3983.589744
226,4395.897435,4523.589743,4524.102564,4284.102564,4489.743589,4218.974358,4445.641025,4225.128205,4241.538461,4505.128205,4212.307692,4654.358974,4002.051282,3986.666667
227,4395.897435,4522.051282,4525.128205,4287.692307,4491.794871,4215.897435,4440.000000,4230.256410,4242.564102,4503.589743,4227.179487,4652.307692,4002.564102,3990.769231
228,4395.897435,4520.512820,4521.538461,4280.512820,4493.333333,4207.179487,4431.794871,4220.512820,4232.307692,4492.307692,4225.128205,4647.692307,4001.538461,3989.743590
229,4400.000000,4523.589743,4523.076923,4278.974358,4492.820512,4209.743589,4436.923076,4218.461538,4231.282051,4502.051282,4215.897435,4653.333333,4009.230769,3991.282052
230,4398.461538,4518.974358,4525.128205,4280.000000,4493.846153,4210.769230,4440.512820,4222.564102,4230.256410,4504.615384,4208.205128,4652.307692,4007.692307,3986.153847
231,4388.205128,4514.871794,4518.974358,4274.358974,4488.717948,4206.666666,4436.923076,4215.897435,4219.487179,4489.743589,4197.948717,4643.076923,3996.923077,3976.410257
232,4389.743589,4517.435897,4519.487179,4273.333333,4483.589743,4209.743589,4442.051282,4206.666666,4210.769230,4483.589743,4204.102564,4643.589743,3998.461539,3982.051283
233,4398.461538,4516.410256,4523.589743,4274.871794,4487.692307,4213.333333,4442.564102,4205.128205,4212.307692,4481.538461,4220.000000,4648.205128,3996.410257,3990.769231
234,4393.333333,4516.923076,4515.384615,4271.282051,4491.282051,4208.205128,4430.256410,4204.102564,4212.307692,4476.923076,4215.897435,4644.102564,3988.717949,3988.205129
235,4382.051282,4519.487179,4509.230769,4267.179487,4489.743589,4205.128205,4427.179487,4204.102564,4213.333333,4486.666666,4213.333333,4642.564102,3993.846154,3982.564103
236,4380.000000,4512.307692,4510.256410,4270.769230,4488.717948,4203.076923,4429.230769,4208.717948,4225.128205,4504.102564,4212.307692,4645.641025,3998.461539,3977.948718
237,4384.102564,4509.230769,4510.256410,4275.897435,4487.692307,4197.948717,4427.179487,4214.358974,4231.794871,4502.564102,4198.974358,4645.641025,3995.897436,3975.384616
238,4391.794871,4522.051282,4514.358974,4277.435897,4487.179487,4203.589743,4434.871794,4215.897435,4223.589743,4490.769230,4205.641025,4647.692307,3998.461539,3982.051283
239,4399.487179,4528.205128,4522.051282,4281.538461,4492.307692,4213.846153,4445.128205,4217.435897,4221.025641,4491.794871,4227.179487,4654.358974,4000.000000,3992.307693
240,4395.897435,4522.051282,4524.102564,4282.564102,4488.717948,4212.307692,4439.487179,4217.948717,4224.615384,4488.717948,4224.615384,4658.461538,3996.410257,3987.179488
241,4384.615384,4514.871794,4517.948717,4274.871794,4481.025641,4202.051282,4428.717948,4211.794871,4221.025641,4478.974358,4206.153846,4653.333333,3996.923077,3974.871795
242,4377.948717,4506.153846,4510.769230,4264.102564,4483.589743,4198.974358,4426.666666,4206.153846,4211.794871,4483.589743,4196.410256,4643.076923,3989.743590,3971.794872
243,4379.487179,4504.615384,4504.615384,4264.615384,4488.717948,4202.051282,4425.641025,4204.615384,4206.153846,4487.179487,4196.410256,4639.487179,3972.307693,3973.846154
244,4382.564102,4514.358974,4505.641025,4272.307692,4486.666666,4205.641025,4428.205128,4206.153846,4209.743589,4482.564102,4204.615384,4645.641025,3973.333334,3975.897436
245,4382.564102,4520.000000,4516.410256,4276.410256,4486.666666,4214.358974,4439.487179,4215.897435,4220.512820,4491.794871,4213.846153,4653.333333,3991.794872,3978.974359
246,4381.538461,4511.282051,4520.000000,4276.923076,4495.897435,4218.461538,4445.128205,4221.538461,4220.512820,4498.461538,4209.230769,4654.358974,3998.974359,3977.435898
247,4384.615384,4503.589743,4516.410256,4276.410256,4501.025641,4214.358974,4441.025641,4218.461538,4213.333333,4489.743589,4197.435897,4651.282051,3990.256411,3973.333334
248,4389.743589,4512.820512,4517.948717,4273.846153,4497.435897,4215.897435,4441.538461,4218.461538,4215.897435,4489.230769,4194.871794,4651.282051,3988.717949,3976.923077
249,4389.743589,4523.589743,4520.512820,4273.846153,4492.307692,4217.435897,4444.615384,4218.461538,4217.948717,4494.358974,4205.128205,4654.358974,3997.435898,3981.025642
250,4389.743589,4519.487179,4518.461538,4274.358974,4489.230769,4214.871794,4442.564102,4218.974358,4224.102564,4496.410256,4215.384615,4662.051282,4008.717948,3984.615385
251,4389.230769,4514.871794,4521.025641,4273.333333,4493.333333,4216.410256,4448.205128,4229.230769,4236.410256,4512.307692,4219.487179,4669.230769,4012.820512,3990.769231
252,4381.025641,4516.923076,4525.128205,4274.871794,4499.487179,4218.461538,4458.974358,4235.897435,4237.435897,4527.179487,4215.897435,4668.205128,4003.589743,3986.153847
253,4376.923076,4521.538461,4524.615384,4281.025641,4500.512820,4216.923076,4456.410256,4229.743589,4228.205128,4512.307692,4207.692307,4666.153846,4001.538461,3981.025642
254,4382.051282,4524.102564,4522.051282,4284.102564,4494.358974,4217.948717,4445.641025,4222.564102,4223.076923,4498.461538,4203.076923,4668.717948,4008.717948,3987.692308
255,4375.897435,4522.564102,4516.923076,4275.384615,4490.256410,4212.820512,4442.051282,4217.435897,4216.410256,4497.948717,4193.846153,4663.076923,4002.051282,3984.102565
256,4363.076923,4519.487179,4509.743589,4266.153846,4490.769230,4203.589743,4442.564102,4211.794871,4205.641025,4487.692307,4188.205128,4651.794871,3986.666667,3970.256411
257,4368.205128,4521.538461,4510.256410,4271.794871,4491.794871,4207.179487,4442.051282,4213.846153,4209.230769,4487.179487,4195.897435,4654.358974,3984.615385,3968.717949
258,4374.358974,4521.538461,4517.948717,4278.974358,4489.230769,4215.897435,4443.076923,4217.435897,4219.487179,4503.076923,4198.461538,4662.564102,3987.692308,3972.820513
259,4367.179487,4518.461538,4518.974358,4271.794871,4491.794871,4215.897435,4443.076923,4216.410256,4218.974358,4501.025641,4189.230769,4660.000000,3984.615385,3968.717949
