,AF3,F7,F3,FC5,T7,P7,O1,O2,P8,T8,FC6,F4,F8,AF4
0,4365.641025,4500.512820,4527.179487,4232.307692,4484.615384,4182.051282,4429.230769,4201.025641,4211.282051,4483.076923,4186.153846,4633.846153,3988.717949,4043.589743
1,4364.615384,4498.974358,4522.051282,4230.769230,4485.641025,4177.948717,4430.256410,4202.564102,4210.256410,4483.076923,4192.820512,4630.769230,3994.871795,4042.051282
2,4369.743589,4499.487179,4526.666666,4237.948717,4484.615384,4178.461538,4431.794871,4206.153846,4217.435897,4486.666666,4209.743589,4631.282051,3987.179488,4042.564102
3,4364.102564,4495.384615,4523.076923,4234.358974,4480.000000,4178.461538,4425.128205,4196.923076,4212.307692,4485.641025,4204.102564,4629.743589,3981.025642,4036.923076
4,4360.512820,4495.897435,4518.974358,4231.794871,4480.000000,4176.923076,4424.102564,4195.897435,4205.641025,4477.948717,4200.512820,4628.717948,3987.692308,4038.974358
5,4367.179487,4501.538461,4523.589743,4235.384615,4487.179487,4177.948717,4429.230769,4201.538461,4210.256410,4475.384615,4209.743589,4633.846153,3991.282052,4046.666666
6,4373.846153,4503.589743,4525.128205,4236.410256,4489.743589,4180.512820,4432.307692,4202.564102,4218.974358,4483.076923,4209.230769,4638.461538,3988.205129,4050.256410
7,4373.846153,4499.487179,4525.641025,4237.435897,4487.179487,4182.051282,4432.307692,4203.076923,4220.000000,4491.282051,4210.769230,4638.974358,3988.717949,4051.282051
8,4370.256410,4497.435897,4526.153846,4241.025641,4482.564102,4178.461538,4427.692307,4203.076923,4213.846153,4486.153846,4215.384615,4636.923076,3990.256411,4048.205128
9,4371.282051,4506.153846,4526.666666,4244.102564,4483.589743,4174.358974,4425.641025,4198.461538,4209.230769,4480.000000,4211.282051,4636.923076,3989.230770,4045.641025
10,4374.358974,4510.256410,4525.641025,4245.128205,4487.692307,4175.897435,4427.179487,4195.384615,4207.692307,4479.487179,4206.666666,4637.948717,3984.615385,4047.179487
11,4372.307692,4503.076923,4523.589743,4243.076923,4485.641025,4176.923076,4425.641025,4194.358974,4203.589743,4478.461538,4207.179487,4634.358974,3979.487180,4046.153846
12,4368.717948,4498.974358,4523.589743,4239.487179,4480.512820,4173.333333,4422.564102,4190.256410,4201.538461,4478.974358,4204.102564,4631.794871,3979.487180,4040.512820
13,4365.641025,4500.000000,4523.589743,4236.410256,4479.487179,4170.769230,4425.128205,4190.256410,4204.615384,4474.871794,4193.333333,4630.256410,3981.025642,4038.974358
14,4363.589743,4496.410256,4521.025641,4232.820512,4481.025641,4173.846153,4427.179487,4190.769230,4205.641025,4469.743589,4187.692307,4626.666666,3977.435898,4039.487179
15,4361.025641,4491.794871,4519.487179,4237.948717,4480.512820,4174.871794,4428.205128,4191.794871,4204.102564,4468.205128,4192.307692,4626.153846,3973.333334,4040.512820
16,4364.615384,4498.461538,4523.076923,4244.102564,4481.025641,4173.846153,4430.769230,4200.000000,4205.641025,4471.794871,4200.000000,4632.820512,3974.358975,4043.589743
17,4368.717948,4504.615384,4524.102564,4243.076923,4482.564102,4175.897435,4431.282051,4205.641025,4210.769230,4478.974358,4199.487179,4634.871794,3980.000000,4042.564102
18,4369.743589,4501.538461,4522.051282,4243.589743,4484.102564,4180.512820,4433.846153,4201.025641,4212.820512,4482.051282,4195.384615,4632.820512,3983.589744,4041.025641
19,4369.743589,4504.615384,4522.564102,4246.666666,4489.743589,4183.589743,4436.923076,4200.000000,4213.846153,4475.384615,4198.461538,4632.307692,3982.051283,4043.589743
20,4367.692307,4511.282051,4524.102564,4240.000000,4491.794871,4181.025641,4432.820512,4203.589743,4209.743589,4466.666666,4201.025641,4627.179487,3977.435898,4042.564102
21,4361.538461,4504.615384,4521.538461,4231.282051,4485.641025,4177.435897,4429.230769,4196.410256,4199.487179,4469.230769,4195.384615,4621.025641,3974.358975,4033.333333
22,4357.435897,4492.307692,4518.974358,4231.794871,4479.487179,4174.871794,4430.256410,4190.256410,4199.487179,4472.307692,4186.153846,4617.435897,3971.794872,4028.205128
23,4360.000000,4493.333333,4518.974358,4232.820512,4482.051282,4176.410256,4430.256410,4195.384615,4208.205128,4468.717948,4187.692307,4620.512820,3969.743590,4035.384615
24,4365.128205,4500.512820,4521.025641,4231.794871,4485.641025,4180.000000,4431.794871,4203.076923,4212.820512,4473.846153,4200.512820,4627.179487,3972.307693,4040.512820
25,4366.666666,4501.538461,4523.589743,4232.820512,4482.564102,4177.435897,4432.307692,4201.538461,4208.717948,4481.025641,4198.461538,4626.153846,3980.512821,4037.948717
26,4364.102564,4496.923076,4523.076923,4238.461538,4477.435897,4170.769230,4426.666666,4196.410256,4201.538461,4472.820512,4188.205128,4621.538461,3982.564103,4034.871794
27,4365.641025,4495.897435,4522.051282,4243.589743,4481.538461,4175.384615,4425.641025,4196.923076,4206.153846,4469.743589,4198.461538,4628.205128,3976.410257,4038.974358
28,4370.769230,4503.076923,4525.128205,4239.487179,4487.179487,4181.025641,4430.256410,4202.051282,4218.974358,4480.000000,4207.692307,4635.897435,3975.384616,4043.589743
29,4368.205128,4502.051282,4525.641025,4230.769230,4483.076923,4172.820512,4428.717948,4201.025641,4214.871794,4476.923076,4192.307692,4625.128205,3976.410257,4040.000000
30,4360.000000,4489.230769,4520.000000,4229.743589,4477.948717,4169.230769,4427.692307,4190.769230,4198.461538,4462.564102,4182.051282,4617.435897,3969.230770,4035.384615
31,4361.025641,4488.717948,4518.974358,4236.923076,4478.974358,4175.384615,4428.717948,4187.692307,4197.948717,4461.025641,4193.846153,4624.615384,3964.102565,4036.923076
32,4370.256410,4505.128205,4525.128205,4245.641025,4482.564102,4176.923076,4430.256410,4197.948717,4208.717948,4475.384615,4204.102564,4633.846153,3975.384616,4044.102564
33,4377.435897,4512.820512,4528.717948,4253.333333,4485.128205,4177.435897,4437.435897,4205.128205,4217.435897,4486.153846,4201.538461,4636.410256,3987.179488,4048.205128
34,4376.410256,4503.076923,4525.128205,4248.205128,4484.102564,4179.487179,4439.487179,4200.000000,4213.333333,4481.538461,4196.410256,4632.820512,3980.000000,4044.615384
35,4369.230769,4496.410256,4520.512820,4237.948717,4479.487179,4174.358974,4429.230769,4196.923076,4206.153846,4471.794871,4197.948717,4628.717948,3966.153847,4040.512820
36,4367.692307,4497.948717,4522.051282,4240.000000,4474.871794,4166.153846,4424.615384,4200.000000,4208.205128,4470.256410,4199.487179,4628.205128,3966.153847,4039.487179
37,4367.179487,4496.923076,4517.948717,4242.564102,4474.871794,4169.230769,4429.230769,4195.897435,4207.692307,4468.717948,4194.871794,4629.230769,3971.282052,4037.948717
38,4366.666666,4494.871794,4512.307692,4240.512820,4479.487179,4175.897435,4429.743589,4193.333333,4205.128205,4471.282051,4190.769230,4629.230769,3976.410257,4038.461538
39,4369.743589,4497.948717,4518.974358,4243.589743,4484.615384,4178.974358,4429.230769,4197.948717,4210.769230,4482.564102,4195.897435,4631.794871,3982.051283,4043.589743
40,4367.692307,4498.974358,4519.487179,4241.025641,4482.051282,4176.410256,4427.692307,4195.384615,4209.230769,4485.128205,4202.051282,4627.692307,3973.846154,4042.564102
41,4366.153846,4497.948717,4511.282051,4233.333333,4481.025641,4175.384615,4428.205128,4190.256410,4202.564102,4476.410256,4203.076923,4623.076923,3963.589744,4038.461538
42,4375.384615,4506.153846,4517.948717,4242.564102,4486.153846,4181.025641,4435.897435,4198.974358,4209.230769,4476.410256,4204.102564,4630.256410,3974.358975,4043.589743
43,4380.512820,4511.794871,4528.205128,4252.820512,4484.615384,4181.025641,4438.974358,4205.128205,4214.358974,4481.538461,4204.102564,4638.461538,3988.717949,4051.794871
44,4378.461538,4508.717948,4524.615384,4248.717948,4481.538461,4176.410256,4435.384615,4198.974358,4213.333333,4481.025641,4205.641025,4638.461538,3988.717949,4054.358974
45,4380.000000,4510.769230,4522.564102,4251.282051,4487.179487,4180.512820,4432.820512,4201.025641,4218.461538,4482.051282,4207.692307,4638.974358,3982.051283,4051.282051
46,4378.461538,4512.307692,4525.128205,4252.820512,4490.769230,4184.102564,4435.897435,4208.717948,4222.051282,4488.205128,4205.128205,4637.948717,3976.923077,4047.179487
47,4373.333333,4508.717948,4523.589743,4245.641025,4487.179487,4182.051282,4439.487179,4207.179487,4220.512820,4489.230769,4205.641025,4631.794871,3975.897436,4045.128205
48,4374.358974,4509.230769,4524.102564,4246.666666,4489.743589,4184.615384,4440.000000,4202.051282,4216.410256,4487.179487,4204.102564,4632.307692,3978.461539,4041.025641
49,4373.846153,4509.230769,4522.564102,4249.743589,4489.743589,4184.615384,4440.000000,4200.000000,4211.282051,4483.076923,4198.461538,4631.282051,3977.435898,4035.897435
50,4366.666666,4504.102564,4520.512820,4242.564102,4484.615384,4176.923076,4437.948717,4201.538461,4215.384615,4478.461538,4200.000000,4623.076923,3975.897436,4035.897435
51,4367.692307,4500.000000,4521.538461,4239.487179,4485.128205,4176.923076,4436.923076,4206.153846,4223.589743,4482.051282,4203.076923,4623.589743,3973.846154,4037.948717
52,4375.897435,4504.615384,4522.564102,4244.615384,4485.641025,4180.512820,4438.974358,4206.666666,4223.076923,4489.230769,4202.564102,4631.794871,3975.897436,4038.974358
53,4374.871794,4510.256410,4522.564102,4249.230769,4483.589743,4179.487179,4441.025641,4203.589743,4220.000000,4482.564102,4202.564102,4632.307692,3977.948718,4038.974358
54,4364.615384,4506.153846,4521.025641,4246.153846,4482.564102,4177.435897,4433.333333,4197.435897,4213.333333,4468.205128,4194.871794,4623.589743,3970.256411,4032.307692
55,4361.538461,4500.512820,4518.974358,4237.948717,4482.564102,4176.410256,4427.179487,4188.717948,4204.102564,4472.820512,4186.153846,4621.025641,3968.205129,4028.205128
56,4370.256410,4502.564102,4520.000000,4240.512820,4484.615384,4174.871794,4433.333333,4190.769230,4205.641025,4480.512820,4192.820512,4628.717948,3977.435898,4035.897435
57,4376.410256,4506.666666,4526.153846,4248.205128,4485.641025,4178.461538,4440.512820,4201.538461,4216.923076,4472.820512,4203.589743,4633.333333,3971.794872,4041.025641
58,4373.846153,4508.717948,4533.333333,4249.230769,4487.179487,4185.641025,4444.615384,4209.743589,4220.512820,4474.358974,4202.564102,4631.282051,3958.461539,4038.974358
59,4371.282051,4508.205128,4538.461538,4249.743589,4490.769230,4186.666666,4447.179487,4213.333333,4218.461538,4486.153846,4196.410256,4631.794871,3966.153847,4041.538461
60,4370.769230,4500.512820,4535.384615,4249.230769,4486.666666,4181.025641,4447.692307,4211.282051,4222.564102,4486.153846,4196.923076,4634.871794,3979.487180,4042.051282
61,4369.743589,4494.871794,4524.102564,4242.051282,4475.384615,4177.435897,4443.589743,4202.051282,4224.102564,4482.564102,4202.564102,4630.256410,3976.923077,4036.410256
62,4370.256410,4501.025641,4525.128205,4237.435897,4479.487179,4179.487179,4445.128205,4197.435897,4214.871794,4483.589743,4202.564102,4625.641025,3965.641026,4035.384615
63,4374.358974,4510.256410,4536.410256,4241.025641,4490.256410,4186.153846,4456.923076,4204.615384,4213.333333,4479.487179,4200.512820,4630.769230,3966.153847,4039.487179
64,4378.461538,4513.846153,4540.512820,4243.589743,4488.717948,4191.282051,4462.564102,4213.846153,4232.307692,4480.000000,4208.205128,4635.384615,3985.128206,4045.641025
65,4382.564102,4510.769230,4537.435897,4247.692307,4488.717948,4190.769230,4459.487179,4218.974358,4240.512820,4492.820512,4217.435897,4635.384615,3996.410257,4049.230769
66,4379.487179,4510.256410,4534.871794,4250.769230,4491.282051,4188.717948,4457.435897,4217.435897,4226.153846,4496.410256,4219.487179,4633.846153,3982.564103,4044.102564
67,4373.333333,4514.358974,4537.948717,4253.846153,4492.820512,4194.871794,4461.025641,4214.358974,4224.102564,4491.282051,4220.000000,4633.846153,3971.794872,4039.487179
68,4372.307692,4513.846153,4536.923076,4254.871794,4489.230769,4197.435897,4461.025641,4211.282051,4229.230769,4488.205128,4214.358974,4631.282051,3977.948718,4040.000000
69,4367.179487,4506.153846,4525.641025,4244.615384,4483.076923,4185.128205,4449.230769,4201.538461,4215.384615,4474.871794,4199.487179,4620.512820,3973.846154,4032.820512
70,4359.487179,4498.461538,4525.128205,4236.923076,4478.974358,4180.512820,4440.512820,4190.256410,4205.128205,4463.076923,4195.384615,4614.358974,3958.974359,4026.153846
71,4364.102564,4501.025641,4535.897435,4246.666666,4482.564102,4186.666666,4443.589743,4191.794871,4215.384615,4471.282051,4202.564102,4618.974358,3953.846154,4029.743589
72,4363.076923,4502.051282,4530.769230,4249.743589,4485.128205,4183.076923,4445.128205,4198.461538,4213.846153,4472.307692,4198.974358,4617.435897,3950.769231,4026.153846
73,4354.871794,4495.384615,4525.128205,4244.615384,4482.051282,4179.487179,4441.025641,4193.333333,4202.564102,4463.589743,4191.794871,4612.820512,3953.846154,4020.512820
74,4365.641025,4504.615384,4539.487179,4250.769230,4485.641025,4187.179487,4447.692307,4190.769230,4210.256410,4475.384615,4202.564102,4625.641025,3972.820513,4034.358974
75,4377.948717,4517.948717,4546.153846,4257.435897,4487.179487,4191.794871,4456.410256,4201.538461,4225.128205,4490.769230,4213.846153,4634.871794,3977.948718,4045.128205
76,4367.692307,4506.666666,4536.923076,4249.230769,4480.000000,4187.692307,4449.743589,4203.589743,4220.512820,4479.487179,4207.692307,4622.564102,3963.076924,4034.358974
77,4358.974358,4490.769230,4534.358974,4236.923076,4476.923076,4183.589743,4441.025641,4194.871794,4211.282051,4467.179487,4195.384615,4612.820512,3963.076924,4026.153846
78,4364.615384,4494.358974,4537.948717,4235.897435,4480.000000,4185.641025,4442.564102,4198.461538,4217.948717,4474.871794,4192.820512,4617.948717,3980.000000,4033.846153
79,4367.692307,4496.923076,4536.410256,4236.923076,4480.512820,4187.179487,4445.128205,4204.615384,4222.564102,4478.461538,4197.435897,4620.512820,3982.564103,4035.384615
80,4363.076923,4488.205128,4534.358974,4233.846153,4476.923076,4182.564102,4440.512820,4197.435897,4214.358974,4473.333333,4197.948717,4615.897435,3973.846154,4025.128205
81,4362.051282,4484.615384,4535.384615,4233.846153,4479.487179,4184.102564,4441.025641,4196.410256,4216.410256,4473.333333,4196.410256,4613.846153,3973.333334,4023.076923
82,4367.179487,4487.179487,4538.974358,4241.025641,4485.641025,4194.871794,4447.692307,4207.179487,4228.205128,4482.051282,4199.487179,4617.948717,3985.128206,4031.282051
83,4370.769230,4493.333333,4546.666666,4243.589743,4488.717948,4195.897435,4449.230769,4210.256410,4226.666666,4487.179487,4200.512820,4625.128205,3997.948718,4035.897435
84,4367.692307,4494.358974,4551.282051,4241.538461,4484.615384,4186.666666,4445.641025,4209.230769,4217.948717,4481.538461,4196.410256,4628.205128,4001.538461,4034.871794
85,4365.641025,4490.769230,4548.717948,4240.000000,4481.025641,4188.717948,4446.153846,4211.794871,4221.538461,4478.461538,4197.435897,4625.128205,3998.461539,4032.307692
86,4366.666666,4488.717948,4547.692307,4236.923076,4480.000000,4192.307692,4448.205128,4209.743589,4226.153846,4483.589743,4199.487179,4626.666666,3997.948718,4033.333333
87,4370.256410,4489.230769,4554.358974,4237.948717,4474.358974,4184.615384,4444.615384,4209.743589,4227.179487,4487.692307,4193.846153,4634.358974,4002.564102,4037.948717
88,4377.435897,4491.282051,4556.923076,4241.538461,4472.307692,4179.487179,4444.102564,4218.974358,4233.846153,4489.743589,4194.871794,4637.948717,4005.641025,4041.025641
89,4378.974358,4494.358974,4556.410256,4243.076923,4481.025641,4191.794871,4453.846153,4221.538461,4240.000000,4496.410256,4207.692307,4639.487179,4005.128205,4043.589743
90,4377.948717,4498.461538,4558.974358,4246.153846,4489.230769,4199.487179,4460.512820,4215.384615,4232.307692,4491.794871,4216.410256,4644.102564,4008.205128,4048.205128
91,4378.974358,4498.461538,4557.948717,4250.256410,4488.717948,4192.307692,4456.410256,4216.410256,4222.564102,4480.512820,4210.256410,4641.025641,4008.717948,4045.641025
92,4379.487179,4500.512820,4555.897435,4250.256410,4485.641025,4190.256410,4456.410256,4218.974358,4233.846153,4485.641025,4200.000000,4637.435897,4006.666666,4042.564102
93,4380.512820,4503.589743,4555.897435,4249.743589,4483.589743,4194.358974,4456.923076,4214.358974,4239.487179,4488.717948,4198.461538,4642.564102,4005.128205,4046.153846
94,4377.948717,4499.487179,4554.358974,4250.769230,4482.564102,4190.769230,4449.743589,4212.307692,4225.128205,4481.538461,4204.615384,4642.051282,4002.051282,4043.076923
95,4370.769230,4491.794871,4552.820512,4247.692307,4477.435897,4181.538461,4442.564102,4211.794871,4217.948717,4481.025641,4201.538461,4632.307692,3995.384616,4034.871794
96,4371.282051,4490.256410,4551.282051,4245.641025,4470.769230,4176.410256,4442.564102,4205.128205,4224.615384,4482.564102,4188.717948,4630.256410,3991.282052,4034.871794
97,4378.974358,4496.410256,4551.794871,4253.333333,4474.871794,4178.974358,4443.589743,4205.641025,4225.128205,4475.384615,4191.794871,4636.923076,3996.923077,4041.538461
98,4383.589743,4505.641025,4555.897435,4260.512820,4484.102564,4186.153846,4445.641025,4215.897435,4229.230769,4482.051282,4211.282051,4643.076923,4010.256410,4047.179487
99,4386.153846,4512.820512,4558.461538,4257.435897,4480.512820,4187.179487,4446.666666,4220.000000,4237.435897,4496.410256,4222.564102,4646.153846,4013.846153,4049.230769
100,4383.076923,4507.179487,4555.384615,4250.769230,4471.794871,4182.051282,4442.564102,4213.333333,4231.282051,4493.333333,4213.333333,4642.564102,4004.102564,4044.102564
101,4375.384615,4498.974358,4554.871794,4252.307692,4474.871794,4184.615384,4441.538461,4207.179487,4224.615384,4483.076923,4199.487179,4636.923076,4002.564102,4038.974358
102,4374.871794,4502.564102,4549.743589,4257.435897,4477.948717,4187.179487,4442.564102,4209.743589,4229.743589,4482.564102,4204.102564,4636.923076,4010.769230,4041.025641
103,4376.923076,4504.615384,4544.615384,4253.846153,4473.846153,4183.589743,4442.051282,4209.743589,4229.230769,4489.230769,4215.384615,4636.923076,4013.333333,4044.102564
104,4376.923076,4499.487179,4547.692307,4247.179487,4476.410256,4184.102564,4444.615384,4208.205128,4226.153846,4492.307692,4212.307692,4635.897435,4011.794871,4044.102564
105,4380.000000,4502.564102,4547.692307,4246.153846,4476.923076,4186.153846,4448.205128,4211.794871,4230.769230,4488.717948,4205.641025,4635.897435,4008.205128,4044.615384
106,4378.461538,4504.615384,4540.512820,4245.128205,4473.846153,4185.641025,4446.666666,4212.307692,4230.256410,4481.538461,4205.641025,4634.871794,4003.076923,4042.564102
107,4370.256410,4497.435897,4537.435897,4234.871794,4475.897435,4185.641025,4444.102564,4206.666666,4224.615384,4480.512820,4204.102564,4632.307692,4000.512820,4037.948717
108,4368.717948,4492.307692,4538.974358,4226.666666,4475.897435,4182.564102,4444.102564,4207.179487,4226.153846,4485.128205,4202.051282,4632.307692,3996.923077,4036.410256
109,4371.794871,4492.820512,4540.512820,4231.794871,4465.641025,4173.333333,4442.051282,4208.717948,4225.641025,4486.153846,4204.102564,4634.358974,3995.384616,4039.487179
110,4374.358974,4497.948717,4543.076923,4240.512820,4464.615384,4172.820512,4441.025641,4206.153846,4222.564102,4487.692307,4207.692307,4637.948717,4001.025641,4042.564102
111,4378.461538,4504.102564,4540.000000,4246.666666,4470.256410,4176.410256,4441.538461,4208.205128,4225.128205,4487.692307,4209.743589,4639.487179,3999.487180,4044.102564
112,4378.974358,4499.487179,4537.435897,4249.743589,4467.692307,4175.384615,4439.487179,4208.205128,4228.205128,4483.076923,4212.820512,4636.923076,3992.307693,4044.102564
113,4372.307692,4492.820512,4541.025641,4247.179487,4467.179487,4174.358974,4438.974358,4203.076923,4228.717948,4478.974358,4209.230769,4633.333333,3997.435898,4041.538461
114,4368.717948,4493.846153,4538.974358,4237.948717,4472.307692,4173.333333,4436.410256,4203.076923,4225.128205,4477.948717,4199.487179,4631.282051,3995.897436,4039.487179
115,4374.871794,4498.461538,4536.923076,4237.948717,4473.333333,4177.435897,4435.384615,4201.025641,4219.487179,4482.051282,4203.589743,4634.871794,3985.641026,4043.589743
116,4382.564102,4501.025641,4542.564102,4249.230769,4476.410256,4183.076923,4441.025641,4201.025641,4222.564102,4488.205128,4213.846153,4644.102564,3993.846154,4053.333333
117,4378.974358,4502.051282,4540.000000,4249.230769,4478.461538,4180.000000,4440.000000,4202.051282,4225.641025,4482.564102,4207.692307,4641.538461,4005.128205,4053.333333
118,4370.769230,4499.487179,4530.256410,4240.000000,4471.794871,4171.282051,4430.256410,4196.410256,4215.384615,4467.692307,4199.487179,4629.230769,3995.384616,4041.538461
119,4371.282051,4494.871794,4529.230769,4235.897435,4470.256410,4170.256410,4427.692307,4196.410256,4213.846153,4470.256410,4206.153846,4627.179487,3987.692308,4036.923076
120,4377.948717,4497.435897,4533.846153,4239.487179,4476.410256,4176.923076,4436.923076,4200.000000,4225.128205,4485.128205,4212.307692,4633.333333,3993.846154,4043.589743
121,4381.538461,4505.128205,4535.897435,4248.717948,4477.948717,4182.564102,4444.102564,4200.000000,4229.743589,4489.743589,4212.307692,4632.820512,3997.948718,4048.205128
122,4376.923076,4508.205128,4530.769230,4254.358974,4472.820512,4183.076923,4441.538461,4201.025641,4222.564102,4484.102564,4204.615384,4625.128205,3994.358975,4042.051282
123,4371.794871,4504.102564,4523.076923,4249.743589,4470.256410,4178.974358,4435.384615,4198.974358,4211.794871,4475.897435,4197.948717,4621.538461,3991.282052,4035.897435
124,4371.794871,4502.051282,4521.025641,4245.128205,4472.820512,4179.487179,4436.923076,4189.230769,4209.743589,4466.153846,4199.487179,4621.538461,3985.128206,4035.897435
125,4373.846153,4501.025641,4524.102564,4248.205128,4475.897435,4181.538461,4443.589743,4189.743589,4218.974358,4469.230769,4202.564102,4623.076923,3982.564103,4033.333333
126,4379.487179,4500.512820,4528.717948,4251.282051,4476.410256,4182.051282,4442.051282,4205.128205,4225.641025,4489.230769,4208.717948,4629.743589,4001.538461,4041.025641
127,4389.743589,4508.717948,4535.897435,4254.871794,4477.948717,4187.692307,4443.076923,4213.846153,4230.769230,4502.051282,4224.615384,4641.025641,4025.128205,4061.025641
128,4391.282051,4514.358974,4540.512820,4258.974358,4487.179487,4197.435897,4454.358974,4212.820512,4238.974358,4500.000000,4232.820512,4644.102564,4022.051282,4064.615384
129,4384.615384,4511.282051,4537.435897,4258.461538,4488.717948,4197.435897,4457.948717,4214.358974,4236.923076,4495.897435,4225.128205,4638.461538,4008.717948,4052.307692
130,4383.589743,4507.692307,4535.384615,4253.333333,4480.000000,4192.307692,4454.358974,4217.948717,4235.384615,4495.384615,4215.897435,4637.435897,4012.307692,4051.282051
131,4382.564102,4506.153846,4527.692307,4247.179487,4482.564102,4193.333333,4455.897435,4218.461538,4244.615384,4496.410256,4214.871794,4635.897435,4017.435897,4051.794871
132,4378.461538,4505.128205,4521.538461,4248.717948,4491.794871,4196.410256,4458.461538,4215.384615,4241.025641,4494.358974,4217.435897,4631.794871,4011.794871,4044.102564
133,4385.128205,4509.743589,4529.743589,4257.948717,4491.282051,4195.897435,4458.974358,4220.000000,4235.897435,4498.974358,4221.538461,4635.897435,4009.230769,4050.769230
134,4397.948717,4519.487179,4541.025641,4266.153846,4490.256410,4200.000000,4464.615384,4231.794871,4247.179487,4512.820512,4229.230769,4650.256410,4022.051282,4066.666666
135,4401.538461,4525.641025,4542.564102,4270.769230,4495.897435,4206.666666,4468.205128,4238.974358,4256.923076,4517.948717,4241.538461,4660.512820,4040.000000,4072.820512
136,4396.923076,4523.076923,4538.974358,4263.589743,4492.307692,4201.538461,4462.051282,4234.358974,4254.358974,4506.153846,4242.051282,4652.307692,4032.307692,4066.153846
137,4393.333333,4514.871794,4536.410256,4254.358974,4486.153846,4189.230769,4456.410256,4223.076923,4245.641025,4499.487179,4227.692307,4639.487179,4011.282051,4056.923076
138,4393.333333,4515.384615,4539.487179,4256.923076,4489.230769,4189.230769,4454.358974,4222.564102,4241.538461,4503.076923,4225.128205,4644.102564,4015.897435,4057.435897
139,4393.846153,4517.948717,4542.051282,4265.641025,4488.205128,4194.358974,4455.897435,4228.717948,4245.641025,4505.128205,4228.205128,4651.794871,4023.589743,4061.025641
140,4394.871794,4514.358974,4540.000000,4265.641025,4482.564102,4190.769230,4460.000000,4229.230769,4247.692307,4505.128205,4225.128205,4647.692307,4013.846153,4058.461538
141,4397.948717,4514.358974,4537.948717,4263.076923,4486.153846,4190.256410,4460.512820,4228.717948,4242.051282,4505.128205,4226.666666,4646.153846,4012.820512,4057.948717
142,4399.487179,4517.948717,4540.512820,4260.512820,4488.717948,4197.948717,4459.487179,4226.666666,4239.487179,4502.051282,4229.230769,4650.256410,4021.538461,4063.589743
143,4398.461538,4517.435897,4540.512820,4258.461538,4487.179487,4201.538461,4460.000000,4224.102564,4241.538461,4496.410256,4225.128205,4649.230769,4015.897435,4064.615384
144,4400.000000,4515.897435,4539.487179,4261.025641,4488.205128,4198.974358,4461.025641,4225.128205,4241.025641,4497.948717,4224.615384,4651.282051,4009.230769,4063.589743
145,4402.051282,4513.846153,4540.000000,4259.487179,4487.692307,4194.358974,4459.487179,4225.128205,4242.564102,4506.666666,4228.717948,4654.871794,4013.333333,4065.641025
146,4396.410256,4508.205128,4538.461538,4257.948717,4485.641025,4192.820512,4456.410256,4219.487179,4242.051282,4506.153846,4227.179487,4648.205128,4011.282051,4061.025641
147,4394.871794,4506.666666,4538.461538,4259.487179,4486.153846,4194.358974,4458.461538,4217.435897,4239.487179,4499.487179,4221.025641,4644.615384,4006.153846,4057.435897
148,4397.948717,4511.794871,4539.487179,4253.846153,4483.589743,4193.846153,4458.974358,4220.000000,4240.512820,4497.435897,4210.769230,4647.179487,4006.153846,4058.461538
149,4394.871794,4512.307692,4537.435897,4251.282051,4483.076923,4193.333333,4456.923076,4218.974358,4238.461538,4497.435897,4208.717948,4643.589743,4001.538461,4055.897435
150,4394.358974,4512.307692,4536.410256,4263.076923,4490.769230,4196.923076,4458.461538,4220.000000,4235.897435,4495.897435,4219.487179,4643.589743,3998.461539,4057.948717
151,4398.461538,4514.871794,4537.948717,4269.230769,4490.769230,4197.948717,4459.487179,4221.025641,4236.410256,4494.358974,4218.461538,4645.641025,4001.538461,4060.512820
152,4394.358974,4515.897435,4536.410256,4258.461538,4486.666666,4197.948717,4455.897435,4220.000000,4237.435897,4494.358974,4212.820512,4642.564102,3999.487180,4053.333333
153,4389.743589,4515.384615,4532.820512,4256.410256,4492.820512,4202.051282,4455.897435,4218.974358,4232.820512,4495.897435,4214.358974,4640.000000,4000.000000,4049.230769
154,4393.333333,4516.923076,4536.410256,4263.076923,4495.897435,4202.051282,4457.435897,4216.923076,4230.256410,4492.820512,4214.358974,4637.948717,4004.615384,4054.871794
155,4396.923076,4522.051282,4535.897435,4259.487179,4487.179487,4195.384615,4450.769230,4215.897435,4236.410256,4492.820512,4213.846153,4633.333333,4003.589743,4056.410256
156,4396.410256,4522.564102,4526.666666,4253.846153,4485.128205,4192.307692,4445.128205,4217.435897,4235.384615,4498.974358,4215.897435,4633.846153,3999.487180,4052.820512
157,4394.358974,4518.974358,4527.692307,4260.000000,4486.153846,4191.794871,4443.076923,4215.384615,4229.230769,4498.974358,4213.846153,4636.410256,4000.512820,4051.794871
158,4398.461538,4517.948717,4536.923076,4265.641025,4482.564102,4192.307692,4445.128205,4214.871794,4234.871794,4501.025641,4215.897435,4638.974358,4007.692307,4057.948717
159,4408.205128,4520.512820,4540.000000,4263.589743,4483.076923,4195.384615,4452.307692,4222.051282,4244.615384,4514.358974,4227.692307,4644.102564,4016.410256,4065.641025
160,4408.205128,4524.615384,4538.461538,4264.615384,4484.102564,4192.820512,4453.333333,4222.564102,4244.102564,4514.358974,4229.743589,4644.615384,4015.384615,4065.641025
161,4402.564102,4522.564102,4538.461538,4265.128205,4481.025641,4186.666666,4444.615384,4211.794871,4237.948717,4498.461538,4226.153846,4643.076923,4008.717948,4063.589743
162,4403.589743,4521.025641,4537.435897,4261.538461,4481.025641,4189.230769,4442.051282,4208.205128,4232.307692,4493.846153,4229.743589,4644.102564,4009.743589,4066.153846
163,4405.641025,4523.589743,4537.948717,4266.153846,4485.641025,4196.410256,4452.820512,4216.923076,4232.820512,4500.000000,4232.820512,4647.692307,4014.358974,4071.794871
164,4407.179487,4529.230769,4542.564102,4270.769230,4488.205128,4199.487179,4460.512820,4225.128205,4244.102564,4499.487179,4237.435897,4653.333333,4017.435897,4074.871794
165,4407.692307,4527.179487,4542.051282,4268.205128,4491.794871,4202.564102,4458.461538,4222.051282,4244.615384,4501.538461,4239.487179,4654.358974,4021.538461,4073.846153
166,4408.717948,4523.076923,4544.102564,4268.717948,4492.307692,4201.538461,4456.923076,4220.512820,4237.948717,4511.794871,4235.384615,4649.230769,4020.512820,4071.794871
167,4410.769230,4528.717948,4551.794871,4275.384615,4486.666666,4197.948717,4457.435897,4225.128205,4247.692307,4518.974358,4237.948717,4650.769230,4014.871794,4073.846153
168,4411.794871,4529.230769,4551.282051,4281.538461,4484.102564,4198.974358,4452.307692,4223.589743,4249.230769,4513.846153,4245.641025,4654.358974,4013.333333,4073.333333
169,4409.743589,4525.641025,4541.538461,4280.512820,4485.641025,4195.897435,4445.128205,4214.358974,4234.358974,4502.051282,4239.487179,4650.769230,4012.820512,4069.230769
170,4404.102564,4524.615384,4538.461538,4270.769230,4484.102564,4188.205128,4442.051282,4207.692307,4233.333333,4493.333333,4222.051282,4643.076923,4008.717948,4066.153846
171,4400.000000,4527.179487,4542.051282,4267.692307,4480.512820,4187.179487,4444.102564,4206.666666,4235.897435,4491.794871,4215.897435,4638.974358,4002.564102,4065.128205
172,4405.641025,4526.153846,4547.179487,4276.923076,4486.666666,4194.871794,4448.205128,4210.256410,4227.692307,4498.974358,4227.179487,4642.051282,4003.589743,4069.230769
173,4413.333333,4526.153846,4551.794871,4280.512820,4494.871794,4201.538461,4450.256410,4217.435897,4230.256410,4503.589743,4237.948717,4648.717948,4011.282051,4074.358974
174,4413.846153,4532.307692,4554.358974,4278.974358,4491.794871,4203.076923,4453.846153,4216.923076,4243.076923,4503.076923,4231.794871,4650.256410,4013.846153,4074.871794
175,4411.794871,4533.333333,4555.384615,4277.948717,4487.692307,4201.025641,4455.897435,4215.897435,4242.051282,4501.538461,4224.615384,4647.179487,4013.846153,4073.333333
176,4411.282051,4529.743589,4551.794871,4274.871794,4490.769230,4200.000000,4454.358974,4217.435897,4234.358974,4497.435897,4230.256410,4644.102564,4010.769230,4072.307692
177,4409.743589,4529.230769,4546.666666,4275.384615,4493.333333,4204.615384,4455.384615,4214.358974,4237.435897,4496.923076,4229.743589,4643.589743,4004.102564,4071.282051
178,4411.282051,4530.769230,4549.230769,4277.435897,4494.871794,4206.666666,4457.948717,4215.384615,4243.589743,4504.102564,4225.128205,4646.153846,4004.615384,4072.307692
179,4412.307692,4529.743589,4552.307692,4274.358974,4493.846153,4202.051282,4456.410256,4222.051282,4245.641025,4512.820512,4227.179487,4648.717948,4015.384615,4073.333333
180,4412.820512,4533.333333,4552.820512,4274.871794,4488.717948,4198.974358,4452.820512,4222.564102,4246.153846,4516.410256,4230.769230,4648.205128,4020.512820,4074.871794
181,4411.794871,4532.307692,4551.282051,4273.846153,4485.641025,4200.000000,4451.794871,4216.410256,4242.564102,4511.282051,4233.846153,4645.641025,4008.205128,4074.358974
182,4404.102564,4520.512820,4542.051282,4261.538461,4485.128205,4197.948717,4446.153846,4211.794871,4237.435897,4501.538461,4230.256410,4639.487179,3997.948718,4064.615384
183,4399.487179,4520.000000,4540.512820,4257.948717,4487.692307,4197.435897,4443.589743,4213.333333,4237.435897,4504.102564,4218.461538,4640.512820,4006.666666,4061.025641
184,4407.692307,4526.153846,4552.307692,4268.205128,4493.846153,4202.564102,4451.282051,4216.923076,4237.948717,4510.769230,4216.923076,4648.205128,4019.487179,4071.794871
185,4410.256410,4518.974358,4555.897435,4269.743589,4487.692307,4198.974358,4453.333333,4215.897435,4240.512820,4503.076923,4226.666666,4648.717948,4020.000000,4072.820512
186,4401.538461,4510.769230,4551.794871,4264.102564,4478.461538,4193.846153,4447.179487,4214.358974,4251.282051,4497.435897,4234.358974,4646.666666,4015.384615,4064.102564
187,4403.076923,4515.897435,4554.871794,4261.025641,4484.615384,4195.897435,4443.589743,4216.410256,4252.820512,4502.051282,4230.256410,4648.205128,4015.897435,4065.641025
188,4411.794871,4517.435897,4555.384615,4259.487179,4487.179487,4193.846153,4444.615384,4214.871794,4238.974358,4501.538461,4217.948717,4646.666666,4018.461538,4070.256410
189,4411.794871,4514.358974,4553.846153,4261.538461,4477.948717,4189.743589,4446.666666,4210.256410,4236.923076,4503.076923,4216.410256,4647.179487,4027.179487,4070.769230
190,4411.794871,4520.000000,4559.487179,4269.743589,4483.076923,4195.897435,4450.256410,4213.333333,4245.641025,4509.743589,4230.256410,4654.358974,4035.897435,4074.358974
191,4413.846153,4520.512820,4561.538461,4272.820512,4494.871794,4202.564102,4449.230769,4218.974358,4241.538461,4504.102564,4229.230769,4656.923076,4035.897435,4074.358974
192,4410.256410,4513.846153,4556.410256,4265.128205,4491.282051,4200.000000,4445.641025,4215.897435,4237.435897,4495.384615,4220.000000,4648.717948,4032.307692,4069.230769
193,4408.205128,4513.333333,4555.384615,4256.923076,4482.564102,4198.461538,4449.743589,4215.384615,4246.666666,4505.128205,4229.230769,4645.641025,4028.717948,4067.179487
194,4407.692307,4515.897435,4557.435897,4258.974358,4485.128205,4196.923076,4451.282051,4220.512820,4250.769230,4513.333333,4230.256410,4648.205128,4025.128205,4067.179487
195,4403.076923,4512.307692,4555.384615,4262.051282,4487.692307,4194.871794,4444.102564,4213.846153,4236.923076,4500.512820,4214.358974,4645.128205,4022.051282,4063.589743
196,4402.564102,4511.282051,4553.333333,4256.923076,4482.564102,4198.974358,4443.589743,4205.641025,4230.256410,4491.794871,4213.333333,4643.589743,4025.128205,4064.102564
197,4409.230769,4516.410256,4557.948717,4256.410256,4481.025641,4202.051282,4454.358974,4218.461538,4246.153846,4501.025641,4227.692307,4649.230769,4032.307692,4071.794871
198,4413.333333,4521.025641,4559.487179,4267.179487,4490.769230,4201.538461,4462.564102,4234.358974,4257.948717,4507.179487,4232.307692,4651.282051,4038.461538,4075.897435
199,4409.230769,4520.000000,4556.410256,4270.769230,4496.410256,4202.051282,4460.512820,4230.769230,4250.256410,4502.051282,4224.615384,4648.205128,4029.230769,4069.743589
200,4407.179487,4516.410256,4560.000000,4263.076923,4491.282051,4206.153846,4457.435897,4226.666666,4246.666666,4501.538461,4224.615384,4649.230769,4014.358974,4067.179487
201,4413.333333,4522.051282,4569.230769,4268.205128,4491.794871,4207.179487,4461.025641,4234.358974,4255.897435,4507.692307,4231.794871,4657.435897,4023.076923,4074.871794
202,4417.948717,4531.794871,4571.794871,4280.512820,4495.384615,4203.076923,4463.589743,4238.461538,4258.461538,4514.358974,4233.333333,4662.564102,4041.538461,4079.487179
203,4415.897435,4531.282051,4564.102564,4275.384615,4490.769230,4201.025641,4460.000000,4234.358974,4258.461538,4517.435897,4231.794871,4661.025641,4035.897435,4075.384615
204,4407.692307,4519.487179,4555.897435,4257.435897,4484.102564,4201.538461,4455.897435,4227.692307,4255.384615,4505.128205,4224.615384,4652.820512,4015.384615,4067.179487
205,4402.051282,4510.256410,4553.846153,4252.307692,4484.615384,4197.435897,4455.384615,4218.974358,4243.076923,4493.333333,4218.461538,4645.128205,4009.230769,4065.128205
206,4407.692307,4512.307692,4554.871794,4261.025641,4488.717948,4196.923076,4454.358974,4217.948717,4239.487179,4503.589743,4228.717948,4646.666666,4014.871794,4072.820512
207,4415.384615,4519.487179,4556.410256,4264.615384,4489.230769,4201.538461,4451.794871,4225.641025,4246.153846,4512.820512,4232.307692,4652.307692,4026.153846,4077.435897
208,4408.717948,4517.435897,4554.871794,4261.538461,4486.666666,4200.000000,4449.743589,4222.051282,4245.128205,4503.589743,4214.871794,4647.692307,4028.205128,4069.230769
209,4402.051282,4509.743589,4554.871794,4262.051282,4482.051282,4194.871794,4448.717948,4218.974358,4246.666666,4498.974358,4216.410256,4643.076923,4016.923076,4063.076923
210,4410.256410,4513.846153,4556.410256,4266.666666,4483.589743,4196.410256,4453.846153,4233.846153,4259.487179,4506.666666,4237.435897,4653.846153,4024.615384,4072.820512
211,4416.410256,4527.179487,4556.923076,4268.205128,4489.743589,4203.076923,4461.025641,4236.923076,4262.564102,4510.769230,4242.564102,4658.461538,4039.487179,4080.512820
212,4409.230769,4526.666666,4555.897435,4269.743589,4493.333333,4204.615384,4460.512820,4223.589743,4252.307692,4515.384615,4235.897435,4653.333333,4030.769230,4075.384615
213,4408.205128,4518.461538,4555.384615,4272.307692,4490.256410,4201.025641,4456.410256,4225.128205,4246.153846,4518.974358,4231.794871,4653.333333,4022.051282,4072.307692
214,4414.358974,4523.076923,4558.461538,4269.743589,4486.153846,4201.538461,4462.051282,4229.230769,4249.230769,4516.923076,4233.846153,4654.871794,4027.692307,4077.435897
215,4408.717948,4524.102564,4553.846153,4261.025641,4481.025641,4202.051282,4462.051282,4216.923076,4250.769230,4508.205128,4235.897435,4650.769230,4021.538461,4077.435897
216,4397.948717,4514.358974,4542.051282,4255.897435,4475.897435,4192.820512,4447.179487,4212.820512,4243.076923,4496.410256,4222.051282,4644.102564,4011.282051,4068.717948
217,4401.538461,4513.333333,4538.461538,4257.435897,4476.410256,4190.256410,4445.128205,4220.000000,4234.358974,4492.820512,4206.666666,4641.025641,4010.769230,4064.102564
218,4405.128205,4515.384615,4541.025641,4260.512820,4477.948717,4194.358974,4453.333333,4215.384615,4237.948717,4496.410256,4205.641025,4642.051282,4007.179487,4064.615384
219,4398.461538,4509.230769,4538.461538,4261.538461,4474.358974,4189.230769,4448.205128,4204.102564,4242.564102,4496.410256,4200.000000,4640.512820,4005.641025,4062.564102
220,4396.923076,4509.743589,4536.923076,4266.153846,4477.435897,4189.230769,4444.102564,4204.615384,4233.846153,4490.769230,4185.641025,4637.435897,4007.179487,4063.589743
221,4404.615384,4521.538461,4541.538461,4268.717948,4485.641025,4196.410256,4450.769230,4209.230769,4227.179487,4484.615384,4180.512820,4641.538461,4006.666666,4068.717948
222,4408.717948,4525.128205,4540.000000,4266.666666,4485.128205,4195.384615,4449.230769,4210.256410,4235.897435,4485.641025,4185.128205,4647.179487,4007.692307,4071.794871
223,4409.743589,4524.615384,4540.512820,4269.743589,4483.076923,4196.410256,4449.743589,4218.974358,4247.179487,4495.384615,4192.307692,4648.205128,4010.769230,4073.333333
224,4417.948717,4533.846153,4552.307692,4281.025641,4491.794871,4206.666666,4463.589743,4232.307692,4253.846153,4508.205128,4200.000000,4654.358974,4017.435897,4080.512820
225,4422.564102,4539.487179,4555.384615,4285.128205,4494.871794,4204.615384,4465.641025,4236.410256,4258.461538,4515.897435,4199.487179,4660.512820,4029.743589,4088.717948
226,4418.461538,4533.333333,4545.641025,4279.487179,4489.743589,4197.948717,4457.435897,4230.256410,4259.487179,4517.435897,4184.615384,4657.435897,4033.846153,4088.717948
227,4411.282051,4526.153846,4539.487179,4273.846153,4488.205128,4202.564102,4460.000000,4227.692307,4254.358974,4511.794871,4177.435897,4649.743589,4022.051282,4081.025641
228,4404.102564,4522.564102,4539.487179,4267.179487,4487.692307,4202.051282,4460.512820,4230.256410,4249.743589,4505.641025,4181.025641,4645.641025,4012.820512,4074.358974
229,4401.538461,4517.948717,4538.461538,4258.974358,4485.641025,4194.871794,4456.410256,4229.230769,4250.256410,4509.230769,4176.410256,4647.179487,4014.871794,4071.794871
230,4403.076923,4516.410256,4532.307692,4256.410256,4487.692307,4196.923076,4458.974358,4220.512820,4246.153846,4511.282051,4165.641025,4642.564102,4014.358974,4067.179487
231,4400.000000,4514.358974,4529.230769,4259.487179,4485.128205,4199.487179,4456.410256,4214.358974,4243.076923,4503.589743,4163.076923,4632.307692,4006.153846,4061.025641
232,4395.384615,4511.794871,4531.282051,4262.051282,4478.461538,4190.769230,4447.692307,4217.435897,4249.743589,4496.923076,4161.538461,4631.794871,4001.025641,4059.487179
233,4401.025641,4516.410256,4535.384615,4265.641025,4481.538461,4190.769230,4451.282051,4218.461538,4247.692307,4498.974358,4152.307692,4638.974358,4003.076923,4061.538461
234,4403.589743,4521.025641,4533.333333,4266.153846,4489.230769,4201.025641,4454.358974,4212.820512,4235.897435,4497.435897,4149.230769,4639.487179,4002.564102,4062.564102
235,4396.923076,4515.897435,4527.692307,4264.615384,4489.230769,4203.076923,4448.205128,4210.256410,4234.358974,4497.435897,4155.384615,4636.923076,4002.564102,4062.051282
236,4403.076923,4517.435897,4531.282051,4266.153846,4488.717948,4204.102564,4453.846153,4218.974358,4245.128205,4507.692307,4166.153846,4643.076923,4010.256410,4069.230769
237,4411.794871,4526.666666,4535.897435,4270.256410,4493.846153,4207.692307,4459.487179,4225.128205,4250.769230,4509.230769,4175.384615,4650.256410,4015.384615,4078.974358
238,4408.717948,4524.102564,4538.974358,4274.871794,4494.871794,4208.205128,4455.384615,4220.000000,4248.717948,4500.000000,4170.769230,4647.692307,4009.743589,4077.435897
239,4400.000000,4519.487179,4535.897435,4271.282051,4491.794871,4202.564102,4449.743589,4211.794871,4241.025641,4493.846153,4156.410256,4636.923076,3999.487180,4068.205128
240,4397.435897,4522.051282,4527.692307,4261.538461,4491.282051,4198.974358,4446.666666,4208.717948,4230.769230,4491.282051,4153.333333,4633.333333,3994.871795,4065.128205
241,4397.948717,4520.512820,4525.641025,4262.564102,4495.384615,4202.564102,4449.230769,4213.333333,4228.717948,4492.820512,4161.025641,4638.461538,3995.897436,4065.641025
242,4397.435897,4520.512820,4528.717948,4271.794871,4496.923076,4207.692307,4453.333333,4214.358974,4234.358974,4497.435897,4153.846153,4639.487179,3995.384616,4064.102564
243,4394.358974,4521.025641,4524.615384,4266.153846,4494.871794,4202.564102,4445.641025,4209.230769,4235.384615,4492.307692,4149.230769,4632.820512,3990.769231,4061.025641
244,4393.333333,4518.974358,4521.538461,4260.512820,4500.000000,4196.923076,4444.615384,4210.256410,4233.333333,4484.615384,4159.487179,4630.769230,3987.179488,4058.974358
245,4401.538461,4525.128205,4533.333333,4274.871794,4509.230769,4209.743589,4460.000000,4219.487179,4244.102564,4493.846153,4162.564102,4639.487179,3992.820513,4064.615384
246,4410.256410,4537.948717,4541.538461,4284.615384,4511.794871,4218.461538,4462.051282,4222.564102,4248.717948,4501.025641,4167.692307,4650.256410,4003.076923,4074.358974
247,4410.769230,4540.000000,4537.948717,4281.538461,4508.717948,4209.743589,4456.923076,4218.974358,4235.384615,4500.000000,4182.051282,4652.307692,4009.743589,4076.410256
248,4409.230769,4536.923076,4536.410256,4280.512820,4508.205128,4207.179487,4461.025641,4221.538461,4234.871794,4503.076923,4181.538461,4648.717948,4007.179487,4071.794871
249,4410.769230,4534.358974,4536.410256,4277.435897,4505.128205,4212.307692,4460.512820,4226.153846,4246.666666,4504.615384,4165.641025,4646.666666,3997.435898,4071.282051
250,4410.769230,4530.769230,4535.384615,4273.846153,4502.051282,4211.282051,4458.974358,4222.564102,4242.564102,4501.025641,4163.589743,4647.179487,3996.923077,4074.871794
251,4410.769230,4530.256410,4537.435897,4277.435897,4502.051282,4206.153846,4461.025641,4215.897435,4234.358974,4500.000000,4176.410256,4650.256410,4006.153846,4075.897435
252,4410.769230,4526.666666,4534.871794,4272.307692,4496.410256,4204.102564,4455.897435,4215.384615,4236.923076,4497.948717,4180.000000,4650.769230,4006.666666,4071.282051
253,4408.717948,4522.564102,4529.230769,4265.128205,4491.794871,4201.538461,4451.794871,4222.564102,4242.051282,4496.923076,4178.461538,4647.179487,3997.435898,4069.743589
254,4410.256410,4526.666666,4535.384615,4270.769230,4494.871794,4200.512820,4455.897435,4226.666666,4245.641025,4502.051282,4181.025641,4650.769230,3998.461539,4074.358974
255,4408.717948,4528.205128,4538.974358,4271.794871,4497.435897,4201.538461,4457.435897,4221.538461,4238.974358,4502.564102,4178.974358,4652.307692,4003.589743,4074.358974
256,4402.564102,4527.179487,4532.307692,4266.153846,4497.435897,4203.589743,4453.846153,4217.435897,4232.307692,4496.923076,4171.282051,4644.102564,4003.076923,4069.230769
257,4406.153846,4534.358974,4533.333333,4273.846153,4503.589743,4208.717948,4456.410256,4221.025641,4241.025641,4495.384615,4180.000000,4646.153846,4005.641025,4071.794871
258,4415.897435,4537.435897,4543.076923,4283.589743,4507.692307,4212.820512,4467.692307,4228.205128,4249.230769,4503.589743,4192.820512,4660.000000,4010.769230,4082.564102
259,4413.846153,4532.307692,4543.076923,4277.435897,4506.153846,4214.871794,4472.307692,4229.230769,4248.205128,4514.871794,4185.128205,4659.487179,4010.256410,4085.128205
260,4411.794871,4535.897435,4538.461538,4276.923076,4507.179487,4212.307692,4464.615384,4226.666666,4250.256410,4517.948717,4183.076923,4652.307692,4011.282051,4081.538461
261,4419.487179,4541.025641,4542.051282,4284.615384,4507.692307,4209.230769,4460.512820,4225.641025,4253.846153,4510.256410,4196.410256,4656.410256,4016.410256,4087.179487
262,4420.512820,4536.410256,4542.564102,4284.615384,4505.128205,4212.307692,4463.589743,4224.102564,4245.641025,4502.051282,4191.794871,4656.410256,4007.179487,4088.205128
263,4412.307692,4530.769230,4537.435897,4281.025641,4504.615384,4213.333333,4464.615384,4223.589743,4232.820512,4496.923076,4175.384615,4649.230769,3993.846154,4075.384615
