,AF3,F7,F3,FC5,T7,P7,O1,O2,P8,T8,FC6,F4,F8,AF4
0,4376.923076,4490.256410,4547.179487,4225.128205,4475.897435,4161.538461,4410.769230,4204.615384,4217.435897,4501.538461,4189.743589,4643.076923,3982.051283,4036.410256
1,4368.717948,4480.512820,4544.102564,4212.307692,4463.076923,4155.897435,4405.641025,4197.948717,4213.846153,4489.743589,4183.076923,4638.461538,3969.743590,4032.307692
2,4366.153846,4477.435897,4536.923076,4211.794871,4464.615384,4157.948717,4405.641025,4197.435897,4210.769230,4490.256410,4170.769230,4637.948717,3964.615385,4030.256410
3,4373.333333,4489.743589,4540.512820,4221.538461,4475.897435,4157.948717,4410.256410,4200.512820,4210.256410,4502.051282,4174.871794,4640.000000,3978.461539,4031.282051
4,4375.384615,4496.410256,4542.051282,4226.666666,4473.846153,4152.307692,4406.153846,4195.897435,4210.769230,4501.538461,4188.205128,4638.461538,3983.076924,4034.358974
5,4369.230769,4494.871794,4536.923076,4231.794871,4469.743589,4151.282051,4395.897435,4192.307692,4210.769230,4494.871794,4190.256410,4636.923076,3977.435898,4034.871794
6,4372.820512,4501.538461,4540.000000,4234.871794,4478.974358,4156.410256,4402.564102,4198.974358,4217.435897,4504.102564,4189.743589,4642.051282,3981.025642,4035.897435
7,4378.461538,4502.564102,4541.538461,4225.641025,4484.615384,4157.948717,4411.794871,4204.615384,4221.025641,4509.743589,4191.794871,4645.128205,3986.153847,4037.948717
8,4371.282051,4489.743589,4537.435897,4215.897435,4477.435897,4154.358974,4408.717948,4203.589743,4216.410256,4501.025641,4186.666666,4640.512820,3981.025642,4032.820512
9,4359.487179,4476.923076,4532.307692,4214.871794,4468.717948,4152.307692,4408.205128,4202.051282,4215.897435,4498.974358,4175.384615,4629.230769,3969.743590,4018.974358
10,4352.820512,4472.307692,4524.102564,4215.384615,4469.230769,4153.333333,4408.717948,4196.923076,4214.871794,4501.025641,4167.692307,4621.025641,3958.974359,4009.743589
11,4355.384615,4480.000000,4521.538461,4220.000000,4471.282051,4155.897435,4404.615384,4191.794871,4210.769230,4500.000000,4168.717948,4623.076923,3960.512821,4010.256410
12,4363.076923,4494.358974,4530.769230,4228.717948,4474.871794,4152.307692,4401.025641,4188.717948,4210.769230,4501.025641,4176.410256,4629.743589,3967.692308,4012.307692
13,4367.179487,4498.974358,4538.974358,4231.794871,4474.871794,4145.641025,4397.948717,4183.076923,4208.717948,4496.923076,4179.487179,4632.307692,3972.307693,4018.461538
14,4374.871794,4498.974358,4539.487179,4234.871794,4473.846153,4149.743589,4397.948717,4185.641025,4206.153846,4494.358974,4182.564102,4639.487179,3982.051283,4033.333333
15,4378.974358,4504.102564,4541.025641,4235.384615,4476.923076,4155.384615,4404.615384,4200.000000,4211.282051,4502.564102,4193.333333,4649.743589,3987.692308,4042.051282
16,4368.205128,4493.846153,4539.487179,4225.128205,4466.666666,4148.205128,4404.615384,4201.538461,4212.307692,4499.487179,4189.743589,4645.128205,3976.923077,4032.307692
17,4361.025641,4480.512820,4536.410256,4225.128205,4454.358974,4144.615384,4400.000000,4192.307692,4206.153846,4485.641025,4176.923076,4639.487179,3970.256411,4023.076923
18,4369.230769,4490.769230,4537.948717,4234.871794,4465.128205,4153.333333,4403.589743,4195.384615,4210.769230,4490.256410,4184.102564,4648.717948,3978.974359,4027.692307
19,4372.307692,4498.461538,4539.487179,4232.820512,4481.538461,4157.435897,4407.179487,4200.000000,4220.000000,4510.256410,4193.333333,4652.307692,3980.512821,4029.743589
20,4366.153846,4489.743589,4536.410256,4223.589743,4479.487179,4153.846153,4401.538461,4198.461538,4223.076923,4515.897435,4187.179487,4642.564102,3975.384616,4024.615384
21,4364.102564,4487.692307,4532.820512,4224.615384,4476.923076,4154.358974,4395.384615,4202.564102,4225.128205,4509.230769,4184.615384,4636.923076,3983.076924,4023.076923
22,4371.282051,4496.923076,4533.333333,4231.282051,4480.000000,4153.846153,4396.410256,4208.205128,4225.641025,4510.769230,4193.333333,4641.025641,3992.820513,4028.717948
23,4378.461538,4501.025641,4535.897435,4234.871794,4473.333333,4146.153846,4397.435897,4205.128205,4221.538461,4513.846153,4193.333333,4644.102564,3987.692308,4033.846153
24,4376.410256,4498.461538,4538.461538,4232.307692,4463.589743,4136.923076,4397.948717,4201.025641,4215.897435,4504.615384,4185.128205,4643.076923,3979.487180,4032.820512
25,4374.358974,4501.538461,4538.974358,4230.256410,4466.153846,4136.410256,4404.615384,4204.615384,4218.461538,4499.487179,4184.615384,4645.128205,3984.615385,4032.820512
26,4380.512820,4511.282051,4537.435897,4238.974358,4473.846153,4143.589743,4409.230769,4205.641025,4224.615384,4504.102564,4192.307692,4647.179487,3989.230770,4036.410256
27,4379.487179,4513.333333,4536.923076,4246.153846,4473.846153,4148.717948,4399.487179,4198.461538,4219.487179,4502.564102,4195.897435,4643.589743,3988.205129,4034.871794
28,4374.358974,4509.743589,4536.923076,4248.717948,4477.948717,4152.307692,4393.846153,4196.923076,4215.897435,4501.025641,4190.256410,4643.589743,3994.358975,4032.820512
29,4374.871794,4504.615384,4530.256410,4250.256410,4485.641025,4155.384615,4396.410256,4200.512820,4222.564102,4510.769230,4191.282051,4648.717948,3995.384616,4038.974358
30,4372.307692,4492.820512,4528.205128,4240.512820,4478.461538,4152.820512,4393.333333,4199.487179,4225.641025,4513.846153,4196.923076,4646.666666,3987.692308,4038.461538
31,4364.102564,4483.076923,4531.794871,4225.641025,4469.230769,4149.743589,4392.820512,4197.435897,4220.512820,4511.794871,4195.384615,4643.076923,3984.102565,4027.179487
32,4360.512820,4485.128205,4532.307692,4225.641025,4472.307692,4152.820512,4397.948717,4200.512820,4221.538461,4516.410256,4190.256410,4642.051282,3984.102565,4022.051282
33,4362.051282,4490.769230,4529.743589,4230.256410,4470.256410,4152.307692,4397.948717,4197.435897,4217.948717,4511.282051,4189.743589,4639.487179,3977.948718,4025.641025
34,4367.179487,4494.871794,4533.333333,4232.820512,4463.589743,4146.153846,4396.410256,4190.769230,4207.179487,4496.923076,4186.153846,4638.974358,3975.897436,4025.641025
35,4375.897435,4501.025641,4537.948717,4241.025641,4464.615384,4145.128205,4396.923076,4190.256410,4206.666666,4495.384615,4178.461538,4644.615384,3978.461539,4027.179487
36,4380.512820,4505.641025,4538.461538,4242.564102,4467.692307,4151.794871,4398.974358,4196.410256,4217.948717,4502.564102,4182.564102,4648.717948,3981.538462,4036.923076
37,4377.435897,4505.128205,4539.487179,4233.333333,4471.282051,4153.333333,4402.564102,4204.615384,4224.615384,4500.512820,4192.307692,4646.666666,3985.641026,4040.512820
38,4369.230769,4497.435897,4537.435897,4229.230769,4473.333333,4145.128205,4399.487179,4199.487179,4215.897435,4493.846153,4188.205128,4645.641025,3981.538462,4031.794871
39,4365.128205,4491.282051,4537.948717,4235.897435,4470.769230,4145.641025,4396.410256,4188.205128,4204.615384,4494.358974,4180.000000,4647.692307,3972.307693,4028.205128
40,4367.179487,4494.871794,4541.538461,4241.025641,4471.794871,4153.846153,4400.512820,4188.205128,4204.102564,4492.820512,4180.000000,4647.692307,3972.820513,4035.384615
41,4375.384615,4500.000000,4541.025641,4241.025641,4478.974358,4158.974358,4404.615384,4197.948717,4212.307692,4491.794871,4183.589743,4650.256410,3979.487180,4038.974358
42,4381.025641,4502.051282,4541.538461,4243.589743,4481.538461,4160.512820,4406.666666,4208.205128,4222.564102,4500.000000,4186.666666,4655.384615,3981.025642,4037.948717
43,4373.333333,4501.025641,4540.000000,4237.948717,4475.897435,4160.000000,4410.256410,4208.205128,4224.615384,4506.153846,4187.692307,4647.692307,3975.384616,4035.384615
44,4362.051282,4495.897435,4532.820512,4226.153846,4468.205128,4155.897435,4407.692307,4199.487179,4217.948717,4497.948717,4180.512820,4634.358974,3963.076924,4025.641025
45,4353.846153,4488.717948,4522.564102,4223.589743,4456.410256,4147.179487,4398.461538,4189.230769,4205.641025,4485.641025,4163.076923,4626.666666,3948.205129,4012.307692
46,4353.846153,4490.256410,4521.538461,4230.769230,4452.307692,4143.076923,4393.333333,4186.153846,4205.128205,4484.102564,4157.435897,4625.128205,3949.230770,4007.692307
47,4364.615384,4500.512820,4530.769230,4242.051282,4469.743589,4155.897435,4398.974358,4192.307692,4214.358974,4491.282051,4170.769230,4631.282051,3965.641026,4018.461538
48,4371.794871,4513.846153,4538.974358,4248.205128,4485.641025,4169.230769,4409.743589,4202.051282,4221.025641,4502.051282,4185.128205,4638.461538,3975.897436,4029.743589
49,4367.179487,4514.358974,4538.461538,4245.641025,4481.538461,4164.615384,4411.282051,4208.205128,4222.564102,4510.256410,4185.641025,4639.487179,3972.820513,4030.769230
50,4362.051282,4498.461538,4532.820512,4237.948717,4472.820512,4151.282051,4398.974358,4198.461538,4212.307692,4496.410256,4175.897435,4637.948717,3965.128206,4028.205128
51,4361.025641,4488.205128,4528.205128,4232.820512,4463.589743,4142.051282,4387.692307,4182.051282,4194.871794,4468.717948,4167.179487,4634.871794,3960.000000,4026.153846
52,4358.461538,4490.256410,4529.743589,4230.769230,4458.974358,4144.615384,4390.769230,4177.435897,4189.743589,4472.307692,4169.743589,4635.897435,3964.102565,4026.153846
53,4366.153846,4500.512820,4540.000000,4239.487179,4476.923076,4161.538461,4405.128205,4192.307692,4208.717948,4504.102564,4186.153846,4647.179487,3976.410257,4034.358974
54,4380.000000,4515.897435,4549.230769,4253.333333,4505.128205,4176.410256,4417.435897,4213.333333,4229.230769,4512.307692,4199.487179,4653.846153,3987.179488,4043.589743
55,4376.410256,4522.051282,4542.564102,4253.846153,4505.128205,4174.358974,4418.461538,4215.384615,4229.230769,4495.897435,4195.384615,4645.128205,3987.179488,4036.923076
56,4360.512820,4512.307692,4525.641025,4242.051282,4481.538461,4162.051282,4410.256410,4198.461538,4216.410256,4485.641025,4178.461538,4632.820512,3973.333334,4020.000000
57,4355.897435,4507.692307,4521.025641,4238.974358,4472.307692,4157.948717,4404.102564,4189.743589,4206.666666,4483.589743,4168.205128,4627.692307,3960.512821,4011.794871
58,4365.641025,4516.410256,4532.820512,4243.589743,4479.487179,4163.589743,4403.589743,4195.384615,4207.692307,4487.692307,4171.794871,4637.435897,3962.051283,4020.000000
59,4372.820512,4518.974358,4539.487179,4243.076923,4483.076923,4171.794871,4407.179487,4198.974358,4213.846153,4495.384615,4180.512820,4651.794871,3974.871795,4036.410256
60,4368.717948,4514.358974,4538.974358,4242.051282,4484.615384,4176.410256,4411.794871,4201.025641,4223.076923,4498.974358,4189.230769,4651.794871,3986.153847,4041.025641
61,4358.461538,4504.615384,4533.333333,4240.000000,4488.205128,4176.410256,4412.307692,4208.205128,4223.076923,4494.358974,4188.205128,4639.487179,3985.128206,4031.282051
62,4351.282051,4496.923076,4526.666666,4235.897435,4480.000000,4169.743589,4407.692307,4205.128205,4213.333333,4486.153846,4177.435897,4633.333333,3972.307693,4020.512820
63,4350.256410,4495.384615,4530.256410,4235.897435,4468.717948,4165.128205,4409.230769,4199.487179,4209.230769,4481.025641,4173.846153,4638.461538,3962.051283,4018.461538
64,4355.897435,4497.948717,4539.487179,4242.051282,4474.871794,4169.743589,4413.333333,4202.564102,4209.743589,4477.435897,4180.512820,4644.102564,3963.589744,4023.076923
65,4366.666666,4507.692307,4546.666666,4248.717948,4485.128205,4171.282051,4409.743589,4203.589743,4208.717948,4476.923076,4179.487179,4648.205128,3966.153847,4030.256410
66,4372.307692,4518.974358,4551.282051,4253.333333,4486.666666,4165.128205,4405.128205,4202.051282,4210.769230,4484.615384,4182.051282,4651.794871,3970.769231,4038.461538
67,4367.179487,4517.435897,4547.692307,4253.846153,4484.615384,4162.564102,4406.666666,4203.589743,4214.871794,4489.743589,4191.282051,4652.307692,3977.948718,4040.512820
68,4358.461538,4505.128205,4539.487179,4242.564102,4482.564102,4162.564102,4409.230769,4208.205128,4216.410256,4486.153846,4185.641025,4646.666666,3975.384616,4031.794871
69,4352.820512,4499.487179,4533.333333,4234.871794,4482.051282,4159.487179,4411.282051,4209.743589,4222.564102,4484.615384,4173.333333,4639.487179,3968.205129,4025.128205
70,4348.717948,4495.897435,4527.692307,4236.923076,4475.384615,4160.512820,4409.230769,4203.076923,4221.025641,4483.589743,4173.846153,4634.871794,3965.641026,4021.538461
71,4344.615384,4490.256410,4527.692307,4237.435897,4466.153846,4163.076923,4401.025641,4196.410256,4209.230769,4480.000000,4178.461538,4633.846153,3963.076924,4019.487179
72,4347.179487,4494.871794,4537.435897,4240.000000,4465.641025,4158.974358,4397.435897,4191.282051,4207.692307,4481.538461,4178.461538,4634.358974,3958.974359,4020.512820
73,4351.794871,4497.948717,4537.435897,4241.538461,4465.128205,4152.307692,4395.384615,4182.564102,4205.128205,4476.923076,4175.384615,4633.333333,3956.923077,4018.974358
74,4351.794871,4494.871794,4533.333333,4237.435897,4461.538461,4152.820512,4389.743589,4182.051282,4196.923076,4469.230769,4173.846153,4633.846153,3958.461539,4016.410256
75,4352.307692,4497.435897,4536.410256,4235.384615,4467.692307,4159.487179,4393.333333,4195.384615,4203.076923,4475.384615,4177.948717,4635.897435,3963.076924,4020.512820
76,4353.846153,4500.512820,4538.461538,4242.564102,4474.358974,4165.128205,4402.051282,4199.487179,4214.358974,4483.589743,4180.512820,4637.435897,3967.692308,4025.641025
77,4354.871794,4500.512820,4536.410256,4246.666666,4474.358974,4168.717948,4401.025641,4196.410256,4212.307692,4481.025641,4176.923076,4636.923076,3964.615385,4024.615384
78,4351.794871,4495.384615,4529.743589,4234.871794,4471.794871,4166.666666,4395.384615,4194.871794,4203.589743,4476.923076,4173.333333,4632.307692,3954.871795,4019.487179
79,4345.641025,4486.666666,4522.051282,4219.487179,4463.076923,4161.025641,4393.333333,4185.641025,4196.923076,4473.333333,4168.205128,4627.692307,3949.230770,4011.794871
80,4345.128205,4485.641025,4523.589743,4218.974358,4456.410256,4161.538461,4392.307692,4178.461538,4195.384615,4468.717948,4162.051282,4628.717948,3952.820513,4011.282051
81,4349.230769,4493.333333,4527.179487,4226.666666,4463.076923,4164.615384,4393.846153,4182.051282,4198.461538,4467.179487,4163.589743,4628.717948,3959.487180,4018.461538
82,4349.743589,4495.897435,4522.564102,4225.641025,4465.128205,4159.487179,4395.384615,4182.564102,4199.487179,4469.230769,4173.846153,4627.179487,3958.461539,4017.435897
83,4353.333333,4496.923076,4524.615384,4227.692307,4459.487179,4155.384615,4391.794871,4182.564102,4198.461538,4471.794871,4181.538461,4632.820512,3961.538462,4016.923076
84,4361.538461,4503.076923,4535.384615,4236.923076,4461.025641,4156.923076,4385.641025,4186.666666,4196.923076,4472.820512,4178.974358,4639.487179,3970.769231,4026.153846
85,4362.564102,4506.666666,4533.333333,4233.846153,4468.205128,4158.461538,4380.512820,4185.641025,4196.410256,4471.282051,4174.358974,4637.435897,3966.666667,4028.717948
86,4360.000000,4509.230769,4523.589743,4226.666666,4467.692307,4163.076923,4383.589743,4180.512820,4194.358974,4463.076923,4173.333333,4631.794871,3954.871795,4022.051282
87,4360.512820,4513.333333,4523.589743,4233.333333,4465.128205,4170.256410,4392.307692,4183.589743,4192.307692,4461.025641,4171.794871,4624.615384,3959.487180,4018.974358
88,4360.512820,4514.358974,4527.179487,4241.538461,4471.282051,4170.256410,4397.948717,4192.820512,4200.000000,4475.897435,4167.692307,4620.512820,3968.717949,4021.025641
89,4362.564102,4514.871794,4525.128205,4241.538461,4478.974358,4168.205128,4399.487179,4199.487179,4210.769230,4484.615384,4166.666666,4621.538461,3963.076924,4018.461538
90,4361.025641,4512.820512,4522.564102,4235.384615,4472.820512,4163.076923,4395.384615,4192.307692,4202.564102,4471.794871,4165.128205,4622.051282,3955.384616,4012.820512
91,4354.871794,4509.230769,4523.076923,4230.769230,4461.025641,4155.384615,4390.256410,4181.025641,4190.256410,4458.461538,4167.179487,4622.564102,3955.384616,4012.820512
92,4356.410256,4510.256410,4524.102564,4234.871794,4465.128205,4157.948717,4392.307692,4178.461538,4192.307692,4464.102564,4174.871794,4627.692307,3953.333334,4016.410256
93,4356.410256,4506.666666,4522.051282,4235.384615,4469.230769,4158.974358,4391.282051,4178.461538,4193.333333,4471.282051,4169.743589,4623.589743,3944.615385,4009.230769
94,4349.230769,4501.025641,4518.461538,4231.794871,4461.538461,4151.282051,4385.128205,4173.846153,4190.769230,4467.692307,4161.538461,4615.384615,3942.051283,4002.051282
95,4358.974358,4512.820512,4524.102564,4240.512820,4468.205128,4158.461538,4391.282051,4176.923076,4198.461538,4466.666666,4172.307692,4623.076923,3961.538462,4015.897435
96,4374.871794,4525.641025,4530.256410,4249.230769,4485.641025,4171.794871,4403.076923,4187.179487,4207.692307,4473.846153,4182.051282,4633.333333,3976.410257,4029.230769
97,4368.717948,4521.025641,4525.128205,4241.538461,4478.461538,4167.179487,4397.948717,4191.282051,4208.205128,4481.538461,4176.923076,4631.794871,3967.179488,4024.615384
98,4362.051282,4516.410256,4524.102564,4237.435897,4463.076923,4162.051282,4390.256410,4191.794871,4210.256410,4484.615384,4178.974358,4637.948717,3963.076924,4025.128205
99,4370.769230,4516.410256,4535.384615,4241.025641,4466.666666,4165.641025,4392.820512,4188.205128,4213.333333,4486.153846,4186.666666,4647.692307,3970.256411,4034.871794
100,4373.333333,4513.846153,4537.948717,4238.461538,4470.256410,4166.666666,4395.897435,4183.589743,4209.743589,4483.076923,4181.538461,4642.564102,3971.794872,4034.871794
101,4368.205128,4514.871794,4531.282051,4238.974358,4469.230769,4168.205128,4395.897435,4184.102564,4206.666666,4481.025641,4177.948717,4634.358974,3972.820513,4028.717948
102,4366.666666,4516.923076,4527.179487,4241.025641,4472.820512,4172.820512,4396.923076,4186.153846,4210.256410,4488.205128,4182.051282,4636.410256,3974.358975,4026.666666
103,4363.589743,4513.333333,4524.102564,4232.307692,4464.102564,4169.743589,4394.358974,4179.487179,4206.666666,4482.051282,4175.897435,4632.307692,3968.717949,4023.589743
104,4360.512820,4509.743589,4520.512820,4224.615384,4452.820512,4164.615384,4386.666666,4168.717948,4192.307692,4464.615384,4163.076923,4621.025641,3963.589744,4021.025641
105,4366.153846,4514.871794,4521.538461,4230.256410,4464.615384,4169.743589,4387.179487,4170.256410,4192.307692,4466.666666,4169.743589,4621.538461,3970.256411,4026.153846
106,4371.794871,4518.974358,4525.641025,4236.923076,4475.384615,4177.435897,4393.846153,4176.410256,4206.153846,4482.051282,4183.076923,4630.769230,3977.435898,4033.333333
107,4373.333333,4518.461538,4526.153846,4236.923076,4472.820512,4183.589743,4395.897435,4178.461538,4210.769230,4491.282051,4182.564102,4634.358974,3982.564103,4035.384615
108,4375.384615,4520.000000,4524.615384,4236.923076,4480.000000,4186.666666,4396.410256,4181.538461,4208.717948,4494.871794,4178.461538,4632.820512,3987.179488,4034.871794
109,4377.435897,4526.153846,4528.717948,4237.948717,4487.179487,4185.641025,4398.461538,4187.179487,4210.769230,4496.410256,4180.512820,4631.794871,3985.128206,4036.923076
110,4380.000000,4528.717948,4535.384615,4237.435897,4482.051282,4185.641025,4398.974358,4190.256410,4212.820512,4497.948717,4183.589743,4635.897435,3982.051283,4037.435897
111,4378.974358,4524.102564,4534.358974,4240.000000,4480.512820,4186.153846,4397.948717,4186.153846,4210.769230,4498.461538,4184.102564,4642.051282,3982.564103,4036.410256
112,4380.000000,4525.641025,4533.333333,4243.076923,4482.564102,4181.025641,4397.435897,4186.153846,4211.794871,4494.871794,4182.564102,4645.128205,3983.589744,4043.076923
113,4383.589743,4527.692307,4539.487179,4242.051282,4473.333333,4178.461538,4398.461538,4187.692307,4212.820512,4491.282051,4182.564102,4647.692307,3982.564103,4052.307692
114,4381.025641,4520.000000,4537.948717,4240.000000,4461.025641,4177.435897,4398.974358,4183.076923,4209.743589,4492.307692,4182.564102,4647.692307,3979.487180,4047.179487
115,4369.230769,4510.769230,4525.128205,4237.948717,4461.025641,4172.307692,4397.948717,4178.461538,4205.128205,4488.717948,4171.794871,4638.974358,3972.820513,4035.897435
116,4367.179487,4511.794871,4522.564102,4233.846153,4471.794871,4175.897435,4400.512820,4185.128205,4206.153846,4481.538461,4165.128205,4632.307692,3969.230770,4035.384615
117,4373.333333,4516.923076,4529.743589,4229.743589,4475.897435,4179.487179,4405.128205,4191.282051,4208.205128,4483.589743,4174.871794,4635.897435,3974.358975,4037.948717
118,4369.743589,4512.307692,4528.717948,4225.128205,4466.153846,4176.410256,4402.564102,4193.846153,4211.282051,4500.000000,4185.128205,4636.923076,3977.435898,4035.897435
119,4368.205128,4508.205128,4528.717948,4227.179487,4457.948717,4175.384615,4400.000000,4197.948717,4218.974358,4512.820512,4188.205128,4641.538461,3980.000000,4040.000000
120,4375.384615,4511.282051,4536.410256,4232.820512,4456.410256,4173.846153,4401.025641,4196.923076,4219.487179,4506.666666,4186.666666,4647.692307,3984.102565,4044.615384
121,4374.871794,4513.846153,4538.974358,4229.743589,4452.820512,4172.820512,4398.974358,4192.307692,4210.769230,4497.435897,4181.538461,4646.666666,3981.025642,4042.051282
122,4368.205128,4511.282051,4536.410256,4225.641025,4455.897435,4176.923076,4396.923076,4192.820512,4208.717948,4498.461538,4176.923076,4644.615384,3974.358975,4041.025641
123,4369.743589,4514.871794,4537.435897,4233.333333,4465.641025,4177.435897,4399.487179,4196.410256,4214.358974,4498.461538,4179.487179,4645.128205,3979.487180,4047.692307
124,4373.333333,4518.974358,4538.974358,4238.461538,4462.051282,4169.743589,4399.487179,4195.897435,4215.897435,4496.410256,4182.564102,4642.564102,3989.230770,4053.846153
125,4368.717948,4510.256410,4534.871794,4236.410256,4446.666666,4168.205128,4395.384615,4192.820512,4213.333333,4496.410256,4182.564102,4637.435897,3989.230770,4051.794871
126,4363.589743,4500.000000,4528.717948,4237.948717,4443.076923,4174.358974,4397.948717,4189.743589,4211.282051,4491.794871,4181.538461,4635.384615,3984.102565,4046.666666
127,4364.102564,4501.538461,4526.666666,4238.974358,4457.948717,4178.974358,4406.153846,4192.307692,4211.282051,4486.666666,4181.025641,4635.384615,3983.589744,4047.179487
128,4361.538461,4502.564102,4525.641025,4236.923076,4467.692307,4176.923076,4406.666666,4191.794871,4209.230769,4485.641025,4181.025641,4633.846153,3980.512821,4047.692307
129,4352.820512,4492.820512,4523.076923,4232.307692,4457.948717,4172.307692,4401.025641,4183.076923,4204.615384,4484.102564,4176.410256,4630.256410,3970.256411,4039.487179
130,4351.794871,4488.205128,4529.230769,4229.230769,4452.307692,4172.820512,4400.512820,4182.051282,4205.641025,4485.641025,4172.307692,4630.256410,3969.743590,4036.923076
131,4360.512820,4493.333333,4536.410256,4236.410256,4459.487179,4171.794871,4403.589743,4186.153846,4209.743589,4489.230769,4175.384615,4633.846153,3980.000000,4044.615384
132,4364.615384,4492.820512,4533.333333,4244.102564,4457.948717,4167.692307,4401.538461,4182.564102,4206.153846,4482.564102,4176.410256,4633.846153,3982.051283,4047.179487
133,4359.487179,4489.230769,4530.256410,4241.025641,4447.692307,4166.666666,4397.435897,4183.589743,4202.564102,4478.461538,4172.820512,4632.307692,3977.435898,4043.076923
134,4355.897435,4491.794871,4534.871794,4238.974358,4455.897435,4173.333333,4401.025641,4190.256410,4209.230769,4486.153846,4175.384615,4635.897435,3974.871795,4043.076923
135,4359.487179,4498.461538,4537.948717,4246.153846,4470.256410,4183.076923,4409.230769,4189.743589,4211.794871,4489.230769,4181.538461,4640.000000,3975.384616,4047.179487
136,4364.615384,4502.564102,4538.974358,4253.333333,4465.128205,4184.102564,4413.333333,4188.717948,4210.769230,4488.205128,4182.564102,4641.025641,3977.435898,4048.717948
137,4367.692307,4501.025641,4542.564102,4257.948717,4458.461538,4182.564102,4410.769230,4195.384615,4218.461538,4495.897435,4184.102564,4646.153846,3983.076924,4052.307692
138,4369.230769,4498.461538,4543.076923,4257.948717,4465.641025,4189.230769,4412.307692,4199.487179,4228.717948,4503.589743,4194.358974,4651.282051,3993.333334,4059.487179
139,4361.025641,4498.974358,4533.846153,4248.205128,4465.128205,4188.205128,4414.358974,4194.358974,4221.025641,4495.384615,4187.692307,4644.102564,3991.282052,4051.282051
140,4351.794871,4493.333333,4527.692307,4239.487179,4455.384615,4182.051282,4409.230769,4184.615384,4209.230769,4484.102564,4169.230769,4634.871794,3972.820513,4035.897435
141,4354.871794,4485.641025,4533.846153,4238.974358,4459.487179,4183.589743,4404.615384,4180.512820,4210.769230,4482.051282,4173.333333,4636.923076,3967.692308,4038.461538
142,4356.410256,4486.153846,4540.512820,4242.564102,4467.692307,4185.128205,4404.615384,4178.974358,4211.282051,4485.128205,4183.589743,4640.512820,3971.794872,4046.153846
143,4350.769230,4491.282051,4533.846153,4246.666666,4463.589743,4183.076923,4404.102564,4172.820512,4206.153846,4483.589743,4171.794871,4637.948717,3968.205129,4042.051282
144,4351.282051,4489.230769,4524.102564,4247.692307,4456.410256,4185.641025,4403.589743,4171.794871,4200.512820,4471.282051,4165.641025,4631.794871,3967.179488,4036.923076
145,4354.358974,4489.743589,4528.717948,4246.153846,4459.487179,4184.615384,4405.128205,4177.435897,4197.435897,4468.717948,4175.897435,4629.743589,3968.717949,4037.435897
146,4352.820512,4490.256410,4534.871794,4242.564102,4460.000000,4176.410256,4402.564102,4176.410256,4196.923076,4478.974358,4178.461538,4633.333333,3967.179488,4036.410256
147,4350.769230,4484.615384,4528.717948,4242.051282,4451.282051,4174.871794,4396.410256,4167.692307,4195.897435,4476.410256,4172.820512,4634.358974,3969.230770,4035.384615
148,4351.282051,4486.153846,4527.692307,4246.153846,4455.897435,4180.000000,4394.358974,4167.179487,4197.435897,4466.666666,4169.743589,4631.282051,3974.871795,4036.410256
149,4356.410256,4497.435897,4537.948717,4253.846153,4472.820512,4187.179487,4402.051282,4176.923076,4205.641025,4478.974358,4177.948717,4636.923076,3981.025642,4043.076923
150,4367.179487,4506.153846,4542.564102,4261.025641,4478.974358,4193.846153,4411.282051,4188.205128,4216.923076,4499.487179,4194.871794,4648.717948,3988.717949,4051.282051
151,4370.769230,4504.102564,4538.461538,4258.461538,4475.897435,4191.794871,4409.230769,4190.769230,4221.538461,4504.102564,4195.384615,4646.153846,3990.256411,4049.230769
152,4360.512820,4496.923076,4531.282051,4249.743589,4472.820512,4185.128205,4405.641025,4182.051282,4215.897435,4495.384615,4179.487179,4634.358974,3982.564103,4038.974358
153,4349.743589,4489.230769,4525.128205,4245.641025,4464.615384,4182.564102,4402.051282,4171.794871,4205.641025,4478.461538,4170.769230,4630.256410,3971.282052,4031.282051
154,4352.820512,4491.794871,4530.256410,4250.769230,4464.102564,4184.102564,4397.435897,4168.717948,4201.538461,4470.256410,4174.871794,4632.820512,3968.205129,4032.307692
155,4363.589743,4500.000000,4538.461538,4259.487179,4478.974358,4189.743589,4402.564102,4176.410256,4208.205128,4489.743589,4180.512820,4639.487179,3979.487180,4042.051282
156,4365.641025,4501.025641,4539.487179,4261.538461,4486.666666,4193.333333,4413.333333,4186.666666,4215.384615,4506.153846,4177.948717,4645.641025,3990.769231,4048.205128
157,4358.974358,4496.923076,4536.923076,4256.410256,4472.307692,4187.179487,4410.256410,4185.641025,4216.923076,4494.358974,4174.358974,4644.615384,3984.102565,4041.538461
158,4359.487179,4493.846153,4534.871794,4250.769230,4455.897435,4181.538461,4401.538461,4178.461538,4211.794871,4479.487179,4181.025641,4640.000000,3974.871795,4034.871794
159,4367.179487,4494.358974,4535.897435,4250.769230,4457.948717,4185.641025,4402.564102,4181.025641,4211.282051,4485.128205,4183.076923,4640.512820,3979.487180,4042.051282
160,4369.743589,4495.897435,4540.000000,4253.846153,4471.282051,4190.256410,4407.179487,4189.230769,4221.025641,4496.410256,4177.948717,4647.179487,3989.230770,4051.282051
161,4369.230769,4500.000000,4541.025641,4258.461538,4480.512820,4191.794871,4410.256410,4191.282051,4227.692307,4498.461538,4184.102564,4656.410256,3994.871795,4051.794871
162,4374.358974,4503.076923,4539.487179,4262.564102,4478.974358,4196.410256,4413.333333,4196.410256,4228.717948,4498.974358,4196.923076,4659.487179,3994.358975,4052.820512
163,4374.871794,4502.564102,4538.974358,4262.051282,4471.794871,4195.384615,4411.282051,4201.538461,4229.743589,4502.564102,4200.000000,4653.333333,3993.333334,4056.923076
164,4368.205128,4500.512820,4537.435897,4255.384615,4465.641025,4190.256410,4409.743589,4196.410256,4225.128205,4501.538461,4192.307692,4646.153846,3993.846154,4051.794871
165,4364.615384,4494.358974,4531.282051,4245.128205,4467.179487,4189.230769,4411.282051,4189.230769,4212.307692,4493.333333,4179.487179,4640.512820,3985.641026,4040.000000
166,4361.538461,4487.179487,4524.615384,4245.641025,4474.871794,4191.282051,4411.794871,4186.153846,4206.666666,4484.102564,4173.846153,4634.871794,3972.307693,4035.897435
167,4356.923076,4486.666666,4523.076923,4249.230769,4478.461538,4190.769230,4413.846153,4183.589743,4209.230769,4480.000000,4174.871794,4628.717948,3966.153847,4035.897435
168,4356.410256,4486.153846,4521.025641,4243.589743,4470.769230,4181.025641,4412.307692,4176.923076,4203.589743,4478.461538,4162.051282,4624.102564,3966.153847,4028.205128
169,4358.974358,4483.589743,4521.538461,4242.051282,4463.589743,4175.384615,4407.692307,4177.435897,4200.000000,4476.923076,4155.384615,4627.179487,3963.589744,4026.666666
170,4359.487179,4484.102564,4525.128205,4247.692307,4465.128205,4177.948717,4407.692307,4183.076923,4205.641025,4474.358974,4169.743589,4632.820512,3962.564103,4033.846153
171,4360.000000,4486.666666,4523.076923,4244.615384,4460.512820,4176.410256,4404.615384,4182.564102,4208.205128,4473.333333,4171.282051,4631.282051,3965.128206,4030.769230
172,4361.025641,4485.128205,4519.487179,4241.025641,4454.871794,4172.307692,4403.076923,4183.076923,4206.666666,4477.948717,4165.128205,4629.230769,3963.589744,4026.666666
173,4359.487179,4485.641025,4525.641025,4243.589743,4462.051282,4177.435897,4408.205128,4189.230769,4208.205128,4479.487179,4172.307692,4633.846153,3962.564103,4034.358974
174,4367.692307,4495.897435,4536.410256,4246.666666,4478.461538,4186.666666,4409.743589,4195.384615,4215.384615,4485.641025,4182.564102,4639.487179,3972.820513,4044.615384
175,4382.051282,4506.153846,4541.538461,4255.897435,4489.230769,4188.205128,4407.692307,4197.435897,4221.025641,4499.487179,4189.743589,4648.717948,3988.205129,4051.794871
176,4384.102564,4505.128205,4542.051282,4264.102564,4485.128205,4189.743589,4412.307692,4196.410256,4221.025641,4502.051282,4194.358974,4652.820512,3993.333334,4054.358974
177,4371.794871,4491.794871,4537.435897,4257.435897,4474.871794,4188.205128,4412.820512,4188.205128,4207.179487,4482.564102,4178.461538,4641.538461,3981.538462,4044.102564
178,4365.128205,4486.666666,4532.820512,4252.307692,4464.102564,4180.000000,4401.025641,4178.461538,4194.871794,4466.666666,4161.538461,4630.256410,3966.666667,4031.794871
179,4370.769230,4495.897435,4530.769230,4254.358974,4465.641025,4183.589743,4397.435897,4180.000000,4200.512820,4474.358974,4171.282051,4634.358974,3966.666667,4034.358974
180,4372.820512,4495.384615,4530.769230,4255.384615,4478.974358,4193.846153,4406.153846,4184.102564,4206.153846,4484.102564,4179.487179,4640.512820,3973.846154,4038.461538
181,4368.205128,4487.179487,4530.769230,4255.897435,4484.102564,4193.333333,4410.769230,4183.076923,4198.461538,4478.461538,4169.743589,4635.384615,3968.205129,4034.871794
182,4366.153846,4489.743589,4527.692307,4254.871794,4474.358974,4190.256410,4409.743589,4187.179487,4195.384615,4468.205128,4168.717948,4631.282051,3962.564103,4031.794871
183,4369.230769,4495.897435,4526.666666,4248.717948,4471.282051,4192.307692,4409.743589,4192.820512,4201.538461,4470.256410,4173.846153,4633.846153,3969.230770,4033.846153
184,4372.820512,4494.871794,4531.282051,4247.692307,4480.000000,4197.435897,4413.333333,4194.358974,4205.128205,4478.461538,4177.435897,4637.948717,3974.871795,4039.487179
185,4374.871794,4497.948717,4537.948717,4255.897435,4479.487179,4200.000000,4413.846153,4195.897435,4209.230769,4482.051282,4186.153846,4642.051282,3974.871795,4042.564102
186,4375.897435,4501.025641,4533.333333,4257.435897,4475.897435,4197.948717,4410.256410,4198.974358,4213.846153,4484.102564,4190.769230,4641.538461,3979.487180,4040.512820
187,4373.333333,4498.974358,4525.641025,4255.384615,4477.948717,4196.923076,4406.666666,4197.435897,4209.743589,4483.076923,4181.025641,4636.410256,3982.051283,4040.512820
188,4368.717948,4497.435897,4524.102564,4254.871794,4476.923076,4196.923076,4404.615384,4188.717948,4201.025641,4474.358974,4168.717948,4630.769230,3976.410257,4037.948717
189,4365.128205,4495.384615,4520.000000,4251.282051,4472.307692,4190.256410,4400.512820,4178.461538,4192.307692,4463.076923,4167.692307,4628.205128,3966.666667,4027.179487
190,4367.179487,4498.974358,4522.051282,4256.410256,4478.461538,4190.256410,4402.051282,4181.538461,4191.794871,4468.717948,4175.897435,4630.256410,3959.487180,4027.692307
191,4369.230769,4504.102564,4529.743589,4266.153846,4491.282051,4202.051282,4411.282051,4189.743589,4197.435897,4480.000000,4178.461538,4633.846153,3957.435898,4037.435897
192,4362.564102,4496.923076,4526.666666,4257.435897,4481.025641,4197.948717,4410.256410,4185.641025,4192.820512,4473.846153,4169.743589,4628.717948,3951.794872,4029.743589
193,4358.461538,4489.743589,4519.487179,4246.666666,4462.564102,4186.666666,4405.641025,4180.000000,4185.641025,4463.589743,4163.589743,4622.051282,3946.666667,4021.538461
194,4367.179487,4496.923076,4528.717948,4260.000000,4470.769230,4196.410256,4410.769230,4185.641025,4196.923076,4469.743589,4170.256410,4631.794871,3953.333334,4036.410256
195,4376.410256,4503.076923,4541.025641,4268.717948,4490.256410,4212.820512,4419.487179,4198.974358,4211.282051,4485.641025,4184.102564,4646.666666,3963.076924,4047.692307
196,4378.461538,4502.564102,4540.000000,4264.615384,4490.769230,4213.846153,4426.153846,4210.769230,4212.820512,4496.923076,4192.820512,4651.282051,3965.641026,4048.205128
197,4379.487179,4506.153846,4539.487179,4266.666666,4483.589743,4207.692307,4426.153846,4211.282051,4212.820512,4497.435897,4190.256410,4650.256410,3967.179488,4050.256410
198,4377.435897,4506.153846,4539.487179,4264.615384,4485.641025,4203.589743,4418.974358,4204.102564,4215.384615,4487.692307,4188.717948,4646.666666,3968.205129,4050.769230
199,4373.846153,4497.948717,4537.948717,4259.487179,4483.076923,4202.564102,4417.948717,4203.076923,4211.794871,4482.051282,4189.743589,4644.102564,3966.666667,4049.230769
200,4378.974358,4503.076923,4541.538461,4265.128205,4482.051282,4206.153846,4425.641025,4206.666666,4211.794871,4490.769230,4192.307692,4649.230769,3967.692308,4052.820512
201,4382.051282,4513.846153,4545.128205,4271.282051,4488.717948,4207.692307,4422.564102,4204.615384,4212.307692,4497.948717,4192.820512,4651.794871,3964.102565,4053.333333
202,4373.333333,4506.666666,4539.487179,4267.692307,4487.692307,4204.615384,4409.743589,4193.846153,4199.487179,4483.076923,4182.564102,4640.000000,3953.333334,4045.641025
203,4367.179487,4496.410256,4535.897435,4261.538461,4482.051282,4201.538461,4406.666666,4187.179487,4188.717948,4468.717948,4170.769230,4631.794871,3948.717949,4039.487179
204,4370.256410,4502.564102,4537.948717,4260.000000,4482.564102,4204.615384,4413.333333,4192.820512,4195.384615,4480.000000,4176.923076,4638.461538,3950.256411,4040.512820
205,4373.333333,4505.128205,4539.487179,4263.589743,4481.025641,4205.128205,4417.435897,4201.538461,4205.128205,4491.794871,4183.589743,4644.615384,3951.794872,4045.128205
206,4374.871794,4500.512820,4543.076923,4266.153846,4483.076923,4201.538461,4414.358974,4205.641025,4209.230769,4492.307692,4181.538461,4645.128205,3958.974359,4046.153846
207,4379.487179,4506.153846,4549.230769,4265.641025,4490.769230,4202.564102,4410.256410,4207.179487,4209.230769,4492.820512,4186.666666,4644.615384,3965.641026,4047.179487
208,4382.564102,4516.410256,4550.769230,4270.256410,4494.871794,4203.589743,4412.820512,4206.153846,4209.230769,4494.871794,4193.846153,4646.153846,3965.128206,4050.256410
209,4381.538461,4517.948717,4549.743589,4277.435897,4494.358974,4200.000000,4414.871794,4207.692307,4214.358974,4495.897435,4193.333333,4648.205128,3964.615385,4052.307692
210,4382.051282,4514.871794,4552.307692,4279.487179,4498.461538,4201.025641,4413.333333,4209.743589,4218.974358,4500.512820,4193.846153,4650.769230,3968.717949,4053.333333
211,4387.692307,4516.410256,4556.923076,4279.487179,4507.179487,4207.179487,4418.461538,4207.179487,4214.871794,4498.974358,4197.435897,4653.846153,3969.230770,4053.333333
212,4388.717948,4522.051282,4556.410256,4280.512820,4509.743589,4208.205128,4427.692307,4207.179487,4208.717948,4491.282051,4197.948717,4654.871794,3969.743590,4055.897435
213,4382.564102,4520.000000,4553.846153,4282.051282,4501.538461,4207.692307,4427.179487,4204.615384,4208.205128,4495.897435,4191.794871,4651.794871,3968.717949,4056.923076
214,4378.974358,4511.794871,4554.871794,4277.948717,4495.897435,4209.230769,4420.512820,4197.435897,4208.717948,4497.948717,4186.666666,4646.153846,3964.102565,4050.769230
215,4378.974358,4506.153846,4551.794871,4272.820512,4501.025641,4206.666666,4417.435897,4196.923076,4208.717948,4487.692307,4186.666666,4643.076923,3962.051283,4042.564102
216,4375.384615,4502.051282,4541.538461,4268.717948,4499.487179,4203.076923,4414.871794,4197.948717,4205.128205,4480.000000,4182.564102,4642.564102,3959.487180,4040.512820
217,4371.282051,4501.538461,4538.461538,4268.205128,4491.794871,4203.589743,4414.358974,4197.948717,4203.076923,4484.615384,4180.512820,4642.051282,3956.923077,4044.615384
218,4372.820512,4508.717948,4548.205128,4274.358974,4496.923076,4208.717948,4418.461538,4202.564102,4207.179487,4492.307692,4187.179487,4644.615384,3962.051283,4050.256410
219,4375.384615,4511.282051,4553.846153,4278.461538,4497.948717,4212.307692,4422.051282,4209.743589,4212.820512,4492.820512,4194.358974,4651.794871,3966.153847,4054.358974
220,4378.974358,4510.769230,4553.846153,4278.461538,4495.897435,4216.410256,4425.641025,4216.923076,4218.974358,4497.435897,4199.487179,4658.974358,3966.153847,4056.410256
221,4385.128205,4515.384615,4554.871794,4279.487179,4507.692307,4223.076923,4430.256410,4224.102564,4224.102564,4506.666666,4205.641025,4660.512820,3973.846154,4056.923076
222,4384.615384,4519.487179,4555.897435,4281.025641,4522.051282,4225.641025,4432.307692,4223.076923,4226.153846,4507.692307,4206.153846,4658.974358,3983.076924,4058.974358
223,4378.974358,4517.435897,4554.358974,4282.051282,4514.358974,4224.102564,4429.743589,4214.358974,4222.051282,4498.461538,4195.897435,4654.871794,3978.974359,4058.461538
224,4378.461538,4514.358974,4552.820512,4278.461538,4500.512820,4223.076923,4427.179487,4207.692307,4209.743589,4495.897435,4191.282051,4652.307692,3972.820513,4054.871794
225,4380.512820,4510.769230,4551.794871,4272.307692,4506.153846,4222.564102,4427.179487,4210.256410,4208.205128,4502.564102,4200.512820,4656.410256,3978.461539,4055.897435
226,4377.435897,4507.692307,4551.794871,4270.256410,4516.410256,4221.025641,4430.256410,4217.435897,4217.948717,4501.538461,4202.564102,4661.025641,3982.564103,4056.410256
227,4378.974358,4512.307692,4556.410256,4274.358974,4516.410256,4230.256410,4437.435897,4218.461538,4220.512820,4500.000000,4196.410256,4660.000000,3981.538462,4056.410256
228,4389.743589,4518.974358,4561.025641,4278.461538,4515.384615,4235.897435,4443.589743,4220.512820,4218.974358,4510.256410,4202.051282,4662.051282,3988.717949,4065.128205
229,4400.000000,4520.000000,4564.102564,4282.051282,4515.897435,4229.230769,4443.589743,4228.717948,4227.692307,4522.051282,4213.333333,4669.230769,4001.538461,4074.358974
230,4405.641025,4523.076923,4571.282051,4285.128205,4516.923076,4229.743589,4444.102564,4236.410256,4235.897435,4527.692307,4217.948717,4676.410256,4009.743589,4074.871794
231,4408.717948,4524.615384,4577.948717,4287.179487,4519.487179,4235.384615,4447.179487,4242.564102,4241.538461,4531.794871,4224.102564,4683.076923,4011.282051,4079.487179
232,4409.743589,4521.025641,4573.846153,4285.128205,4520.512820,4233.333333,4446.153846,4243.076923,4243.589743,4533.333333,4224.615384,4685.128205,4010.256410,4086.153846
233,4408.717948,4525.128205,4567.692307,4281.025641,4521.025641,4230.769230,4444.615384,4239.487179,4238.461538,4533.846153,4214.871794,4682.051282,4009.743589,4083.589743
234,4409.743589,4531.794871,4575.897435,4281.025641,4525.641025,4233.846153,4446.153846,4236.923076,4233.333333,4531.794871,4211.794871,4679.487179,4011.794871,4080.000000
235,4411.794871,4530.256410,4584.615384,4285.641025,4529.230769,4236.923076,4445.641025,4233.846153,4232.307692,4525.128205,4212.820512,4681.025641,4011.282051,4083.589743
236,4413.846153,4531.282051,4578.974358,4289.743589,4531.282051,4234.871794,4445.641025,4230.256410,4232.307692,4530.256410,4211.794871,4684.102564,4008.205128,4085.641025
237,4414.358974,4532.307692,4576.923076,4288.205128,4527.692307,4232.307692,4448.717948,4234.358974,4233.846153,4542.564102,4208.205128,4686.153846,4009.743589,4082.051282
238,4410.769230,4522.564102,4581.538461,4282.051282,4521.025641,4232.307692,4446.153846,4236.923076,4235.384615,4540.512820,4210.256410,4686.666666,4011.282051,4082.051282
239,4410.769230,4520.512820,4582.564102,4280.000000,4522.051282,4234.871794,4445.641025,4235.384615,4236.410256,4535.897435,4220.512820,4690.769230,4012.820512,4086.666666
240,4421.025641,4532.307692,4584.102564,4286.666666,4528.717948,4235.384615,4454.358974,4242.051282,4244.102564,4546.153846,4223.589743,4701.538461,4020.000000,4090.256410
241,4429.230769,4534.871794,4589.743589,4293.333333,4532.307692,4241.025641,4460.512820,4254.871794,4254.358974,4554.358974,4224.102564,4706.153846,4032.307692,4096.923076
242,4427.692307,4533.846153,4592.820512,4300.000000,4534.871794,4247.692307,4459.487179,4259.487179,4258.974358,4556.410256,4234.358974,4706.153846,4036.923076,4106.153846
243,4424.615384,4541.025641,4592.307692,4303.589743,4531.794871,4243.076923,4456.923076,4255.384615,4258.974358,4562.051282,4242.051282,4708.205128,4032.820512,4105.128205
244,4422.564102,4540.000000,4586.666666,4295.384615,4522.051282,4235.897435,4455.897435,4249.230769,4252.307692,4557.948717,4232.307692,4698.974358,4029.230769,4095.384615
245,4420.000000,4532.307692,4581.538461,4286.666666,4531.282051,4241.538461,4457.435897,4246.153846,4246.153846,4549.230769,4223.076923,4688.717948,4028.717948,4094.871794
246,4417.948717,4533.846153,4583.589743,4283.589743,4545.641025,4251.282051,4459.487179,4244.102564,4244.615384,4549.743589,4224.102564,4695.384615,4025.641025,4098.461538
247,4417.435897,4534.871794,4585.641025,4284.102564,4533.846153,4247.692307,4457.435897,4241.538461,4242.564102,4550.769230,4222.051282,4698.974358,4021.025641,4094.358974
248,4424.615384,4532.820512,4590.769230,4291.282051,4523.589743,4240.512820,4456.410256,4242.051282,4240.000000,4548.717948,4223.076923,4694.871794,4024.102564,4093.846153
249,4431.794871,4534.358974,4597.435897,4296.410256,4534.871794,4240.512820,4457.948717,4244.102564,4240.512820,4546.666666,4226.666666,4699.487179,4025.641025,4100.000000
250,4429.230769,4533.846153,4594.871794,4293.333333,4538.461538,4238.461538,4457.435897,4241.538461,4238.974358,4544.102564,4221.538461,4703.076923,4020.000000,4100.000000
251,4428.205128,4532.307692,4592.820512,4291.282051,4530.769230,4233.846153,4457.948717,4241.025641,4242.051282,4546.153846,4222.051282,4700.512820,4020.512820,4096.923076
252,4432.307692,4531.282051,4599.487179,4292.820512,4531.794871,4235.384615,4459.487179,4249.230769,4249.743589,4549.743589,4235.384615,4704.615384,4028.717948,4097.435897
253,4433.846153,4533.333333,4602.051282,4295.384615,4534.358974,4241.538461,4460.000000,4255.897435,4255.897435,4556.923076,4242.564102,4710.256410,4034.358974,4102.564102
254,4430.256410,4536.923076,4592.820512,4296.410256,4529.743589,4234.871794,4458.974358,4251.794871,4255.384615,4561.025641,4232.820512,4707.179487,4033.333333,4105.641025
255,4426.666666,4533.333333,4589.743589,4295.897435,4526.666666,4226.666666,4457.435897,4246.666666,4249.743589,4554.871794,4224.102564,4700.512820,4032.307692,4100.512820
256,4430.256410,4532.307692,4594.358974,4298.974358,4533.333333,4237.948717,4458.974358,4248.717948,4248.717948,4548.717948,4228.205128,4700.512820,4031.282051,4098.974358
257,4430.769230,4533.846153,4591.794871,4299.487179,4534.358974,4246.666666,4460.000000,4248.717948,4252.307692,4549.743589,4231.282051,4702.564102,4024.615384,4098.461538
258,4422.051282,4527.179487,4583.589743,4289.230769,4526.153846,4240.000000,4457.948717,4244.615384,4249.230769,4551.282051,4225.641025,4700.000000,4013.846153,4089.743589
259,4420.512820,4523.589743,4583.076923,4284.615384,4525.641025,4238.461538,4457.435897,4244.615384,4242.564102,4551.794871,4221.538461,4697.948717,4013.846153,4086.666666
