,AF3,F7,F3,FC5,T7,P7,O1,O2,P8,T8,FC6,F4,F8,AF4
0,4346.153846,4464.615384,4521.025641,4173.846153,4430.769230,4041.538461,4383.589743,4143.076923,4194.871794,4484.102564,4162.051282,4617.435897,3746.153847,4013.846153
1,4344.102564,4464.102564,4524.102564,4167.692307,4426.666666,4049.230769,4390.256410,4136.923076,4198.461538,4489.230769,4164.615384,4616.923076,3762.051283,4017.948717
2,4338.461538,4453.846153,4520.000000,4163.076923,4426.153846,4046.666666,4389.743589,4133.333333,4193.846153,4483.589743,4151.282051,4611.794871,3751.282052,4012.307692
3,4333.333333,4448.205128,4512.307692,4163.589743,4426.153846,4040.512820,4384.615384,4134.871794,4181.025641,4475.384615,4136.410256,4609.743589,3735.897436,4005.641025
4,4331.282051,4449.743589,4511.794871,4157.948717,4422.564102,4038.461538,4380.000000,4128.717948,4172.307692,4469.230769,4137.435897,4607.179487,3728.205129,4004.615384
5,4335.897435,4449.230769,4521.025641,4155.897435,4421.538461,4038.974358,4382.564102,4128.205128,4176.923076,4470.256410,4145.641025,4607.692307,3723.076924,4005.641025
6,4344.102564,4454.358974,4526.666666,4167.179487,4427.692307,4043.076923,4390.769230,4138.974358,4182.564102,4477.948717,4147.179487,4615.897435,3728.717949,4011.282051
7,4344.102564,4464.102564,4524.102564,4173.846153,4432.307692,4047.179487,4391.794871,4136.410256,4184.102564,4482.564102,4145.128205,4616.923076,3738.974359,4014.871794
8,4336.923076,4462.564102,4521.538461,4168.717948,4428.205128,4047.179487,4388.717948,4131.282051,4188.717948,4481.538461,4145.641025,4610.256410,3735.384616,4012.820512
9,4334.358974,4455.384615,4521.025641,4170.256410,4424.102564,4045.641025,4388.717948,4134.358974,4190.769230,4481.025641,4152.820512,4611.282051,3731.794872,4012.307692
10,4336.923076,4454.358974,4521.538461,4171.282051,4425.128205,4043.589743,4385.641025,4130.256410,4180.512820,4474.871794,4158.974358,4614.871794,3737.435898,4009.230769
11,4335.897435,4450.769230,4521.538461,4165.128205,4424.102564,4040.512820,4380.512820,4126.666666,4176.410256,4468.205128,4149.743589,4612.307692,3735.384616,4004.615384
12,4333.846153,4447.179487,4521.538461,4167.692307,4421.538461,4037.948717,4381.538461,4136.923076,4184.615384,4474.358974,4141.538461,4608.717948,3726.666667,4006.666666
13,4337.435897,4449.743589,4521.025641,4169.230769,4424.102564,4040.000000,4385.641025,4144.102564,4189.743589,4483.589743,4148.205128,4607.692307,3726.666667,4010.256410
14,4341.538461,4458.974358,4522.564102,4168.205128,4429.743589,4043.076923,4387.692307,4143.076923,4190.256410,4484.102564,4149.230769,4607.692307,3734.871795,4010.256410
15,4337.435897,4464.615384,4520.000000,4170.769230,4430.256410,4044.615384,4389.743589,4142.564102,4187.692307,4478.461538,4136.410256,4605.128205,3732.820513,4007.179487
16,4327.179487,4454.871794,4510.769230,4163.589743,4426.666666,4043.076923,4388.717948,4137.948717,4181.538461,4465.641025,4127.692307,4597.948717,3715.897436,3996.410257
17,4326.153846,4446.153846,4510.769230,4153.846153,4427.692307,4042.564102,4385.128205,4133.333333,4181.538461,4462.051282,4130.769230,4595.897435,3710.769231,3993.333334
18,4337.435897,4452.307692,4518.461538,4169.743589,4434.358974,4046.666666,4386.153846,4139.487179,4190.256410,4476.410256,4140.000000,4604.102564,3726.153847,4009.743589
19,4345.641025,4460.000000,4525.128205,4186.666666,4438.461538,4051.282051,4389.230769,4147.179487,4194.871794,4487.692307,4154.871794,4613.846153,3735.897436,4020.512820
20,4348.205128,4464.102564,4529.230769,4181.538461,4440.000000,4052.307692,4389.743589,4149.230769,4199.487179,4486.666666,4167.692307,4620.000000,3743.589744,4018.461538
21,4350.769230,4470.769230,4529.230769,4178.974358,4441.538461,4050.769230,4386.666666,4146.666666,4200.000000,4486.153846,4166.666666,4618.461538,3755.897436,4018.974358
22,4349.230769,4469.743589,4522.051282,4182.051282,4436.923076,4044.615384,4383.589743,4137.435897,4187.179487,4480.512820,4158.974358,4612.820512,3748.717949,4019.487179
23,4343.076923,4462.564102,4517.948717,4180.512820,4430.256410,4037.435897,4383.076923,4131.282051,4178.461538,4475.384615,4153.846153,4612.307692,3733.846154,4016.923076
24,4340.000000,4460.000000,4522.051282,4172.820512,4431.282051,4038.974358,4383.076923,4134.358974,4181.538461,4478.461538,4147.179487,4611.794871,3730.769231,4012.307692
25,4333.846153,4450.769230,4516.923076,4158.461538,4428.205128,4042.051282,4382.564102,4139.487179,4181.025641,4476.410256,4143.589743,4606.153846,3727.179488,4006.153846
26,4332.307692,4443.076923,4511.282051,4157.948717,4420.000000,4037.435897,4381.538461,4142.564102,4186.666666,4477.435897,4151.282051,4606.153846,3726.666667,4007.692307
27,4343.076923,4448.205128,4518.461538,4170.256410,4424.615384,4038.461538,4380.512820,4144.102564,4196.923076,4485.128205,4160.512820,4613.846153,3736.923077,4018.461538
28,4348.205128,4454.358974,4524.615384,4173.846153,4430.769230,4042.564102,4382.051282,4139.487179,4191.794871,4482.564102,4162.051282,4616.410256,3744.615385,4023.076923
29,4343.589743,4460.512820,4524.102564,4171.794871,4427.179487,4037.435897,4382.051282,4128.717948,4177.435897,4475.384615,4162.051282,4613.333333,3743.589744,4018.974358
30,4344.102564,4465.128205,4520.512820,4174.358974,4426.153846,4032.820512,4377.435897,4128.717948,4180.000000,4482.564102,4164.615384,4608.717948,3746.153847,4015.897435
31,4345.128205,4460.000000,4516.410256,4172.307692,4428.717948,4035.384615,4372.820512,4133.333333,4185.641025,4486.666666,4163.589743,4604.615384,3745.641026,4016.923076
32,4338.974358,4452.820512,4511.282051,4171.282051,4426.153846,4036.410256,4370.769230,4125.641025,4177.435897,4476.923076,4155.384615,4601.025641,3733.333334,4016.923076
33,4333.846153,4454.358974,4509.230769,4173.333333,4424.615384,4034.358974,4368.717948,4121.538461,4174.358974,4470.256410,4150.256410,4598.461538,3722.564103,4010.769230
34,4333.846153,4453.846153,4510.256410,4169.743589,4425.128205,4033.846153,4370.769230,4133.846153,4179.487179,4471.282051,4156.923076,4597.435897,3729.743590,4005.641025
35,4342.051282,4457.948717,4516.410256,4169.743589,4426.153846,4034.358974,4375.897435,4145.641025,4185.128205,4477.435897,4164.102564,4608.717948,3748.205129,4015.897435
36,4352.820512,4469.230769,4525.128205,4178.461538,4429.743589,4033.846153,4374.871794,4142.564102,4192.820512,4486.666666,4159.487179,4620.512820,3755.384616,4030.769230
37,4352.820512,4470.256410,4523.076923,4181.538461,4431.794871,4033.333333,4371.282051,4132.307692,4193.333333,4488.205128,4162.051282,4616.923076,3749.743590,4030.769230
38,4347.179487,4466.153846,4517.948717,4176.410256,4431.282051,4038.974358,4377.435897,4129.743589,4188.717948,4486.666666,4179.487179,4610.769230,3750.769231,4025.641025
39,4348.717948,4469.743589,4521.538461,4176.923076,4434.358974,4047.179487,4386.666666,4136.923076,4192.820512,4493.333333,4181.538461,4612.820512,3754.358975,4026.153846
40,4353.333333,4472.307692,4525.641025,4188.205128,4435.384615,4046.666666,4391.282051,4143.076923,4198.974358,4498.974358,4166.153846,4617.435897,3748.205129,4029.230769
41,4349.230769,4464.102564,4524.102564,4188.717948,4430.769230,4039.487179,4390.256410,4145.128205,4191.282051,4490.769230,4161.025641,4616.410256,3742.051283,4028.205128
42,4342.564102,4453.333333,4521.025641,4172.820512,4426.153846,4034.871794,4387.179487,4146.666666,4185.128205,4486.666666,4169.230769,4615.897435,3744.615385,4027.692307
43,4345.128205,4452.307692,4522.564102,4168.205128,4425.128205,4033.333333,4386.153846,4147.179487,4194.358974,4493.333333,4170.769230,4618.461538,3750.256411,4026.153846
44,4348.205128,4457.435897,4525.641025,4177.948717,4425.128205,4031.794871,4387.179487,4147.179487,4200.000000,4491.282051,4165.641025,4621.025641,3748.717949,4022.051282
45,4343.076923,4456.410256,4524.102564,4178.461538,4423.589743,4027.179487,4381.538461,4141.025641,4183.589743,4474.358974,4159.487179,4615.384615,3736.410257,4023.589743
46,4340.512820,4454.358974,4516.410256,4174.358974,4421.025641,4024.615384,4372.820512,4123.589743,4163.589743,4461.538461,4153.333333,4606.153846,3722.564103,4024.102564
47,4341.025641,4454.871794,4513.846153,4177.435897,4421.025641,4027.692307,4370.769230,4112.307692,4164.102564,4463.076923,4150.769230,4605.128205,3718.461539,4018.461538
48,4337.435897,4451.794871,4514.358974,4180.000000,4424.615384,4029.743589,4369.743589,4116.923076,4173.846153,4465.128205,4147.692307,4605.641025,3721.025642,4012.820512
49,4332.307692,4445.128205,4508.717948,4173.846153,4426.153846,4027.692307,4364.615384,4116.410256,4170.769230,4465.641025,4143.589743,4598.461538,3720.512821,4007.692307
50,4330.769230,4444.615384,4502.051282,4169.230769,4424.102564,4026.666666,4364.102564,4109.743589,4167.179487,4473.846153,4149.230769,4595.897435,3721.025642,4005.128205
51,4335.384615,4453.846153,4505.128205,4174.871794,4423.589743,4028.717948,4368.717948,4117.948717,4177.948717,4479.487179,4157.948717,4601.538461,3727.179488,4012.307692
52,4340.512820,4456.923076,4507.692307,4181.025641,4425.641025,4027.692307,4366.666666,4128.717948,4181.538461,4473.846153,4154.871794,4603.076923,3728.205129,4016.923076
53,4337.435897,4449.230769,4504.615384,4177.435897,4426.153846,4022.051282,4363.589743,4127.692307,4174.358974,4468.205128,4147.179487,4601.025641,3725.641026,4011.794871
54,4332.820512,4447.179487,4505.641025,4172.820512,4424.615384,4021.538461,4369.743589,4128.717948,4176.923076,4465.641025,4145.128205,4602.564102,3721.538462,4012.820512
55,4336.923076,4454.871794,4507.692307,4174.358974,4426.666666,4031.794871,4378.974358,4138.461538,4180.000000,4469.230769,4149.743589,4608.205128,3717.435898,4018.974358
56,4344.615384,4456.923076,4509.230769,4171.794871,4430.256410,4039.487179,4387.692307,4145.128205,4178.461538,4479.487179,4157.435897,4612.820512,3723.076924,4020.512820
57,4343.076923,4447.179487,4508.205128,4165.641025,4429.230769,4039.487179,4389.743589,4142.564102,4177.435897,4472.307692,4151.794871,4609.230769,3727.692308,4021.025641
58,4337.948717,4444.102564,4505.128205,4172.307692,4427.692307,4039.487179,4387.179487,4136.923076,4175.384615,4464.615384,4145.128205,4601.025641,3726.666667,4021.538461
59,4342.051282,4452.820512,4507.179487,4181.025641,4433.846153,4042.564102,4392.307692,4139.487179,4184.102564,4482.564102,4159.487179,4603.076923,3730.256411,4020.000000
60,4345.641025,4457.948717,4511.282051,4174.358974,4435.384615,4040.000000,4397.435897,4141.538461,4193.333333,4490.256410,4160.512820,4608.205128,3734.358975,4020.512820
61,4339.487179,4452.307692,4505.641025,4164.615384,4427.179487,4032.307692,4391.282051,4133.333333,4183.589743,4472.307692,4137.948717,4602.564102,3725.128206,4018.974358
62,4339.487179,4450.769230,4503.589743,4174.358974,4424.615384,4032.820512,4388.717948,4127.179487,4172.820512,4465.128205,4131.282051,4597.435897,3717.435898,4018.974358
63,4352.307692,4457.948717,4513.846153,4192.820512,4431.794871,4040.000000,4394.871794,4131.282051,4180.512820,4476.923076,4145.641025,4604.615384,3726.153847,4026.666666
64,4349.230769,4450.256410,4514.871794,4186.153846,4433.846153,4041.538461,4392.307692,4131.794871,4182.564102,4475.897435,4151.794871,4607.179487,3727.179488,4025.641025
65,4331.794871,4437.948717,4506.153846,4168.717948,4426.153846,4034.358974,4387.179487,4128.205128,4172.307692,4465.128205,4143.076923,4598.974358,3716.410257,4011.794871
66,4329.743589,4440.512820,4500.000000,4167.179487,4422.051282,4029.230769,4388.205128,4127.692307,4168.717948,4464.615384,4136.923076,4596.410256,3716.410257,4010.256410
67,4336.410256,4441.538461,4497.948717,4169.743589,4425.641025,4032.307692,4390.256410,4128.205128,4167.692307,4468.717948,4138.461538,4598.974358,3725.641026,4015.897435
68,4337.948717,4438.461538,4500.512820,4168.717948,4429.230769,4039.487179,4394.358974,4137.948717,4172.307692,4471.282051,4143.589743,4600.000000,3727.692308,4012.820512
69,4339.487179,4442.564102,4506.153846,4173.846153,4429.743589,4042.051282,4398.461538,4149.230769,4181.025641,4468.717948,4147.179487,4604.102564,3718.461539,4012.307692
70,4342.051282,4445.641025,4507.179487,4180.512820,4430.256410,4034.871794,4390.256410,4142.051282,4178.461538,4467.179487,4143.076923,4607.179487,3712.820513,4017.435897
71,4342.564102,4440.000000,4505.641025,4174.871794,4430.256410,4029.230769,4379.487179,4130.256410,4179.487179,4476.410256,4140.512820,4605.641025,3723.589744,4021.538461
72,4343.589743,4437.948717,4509.230769,4167.692307,4427.692307,4031.794871,4385.128205,4132.820512,4190.769230,4484.102564,4151.794871,4608.205128,3737.948718,4026.666666
73,4340.000000,4442.051282,4507.179487,4168.205128,4426.666666,4036.410256,4393.333333,4133.846153,4188.717948,4478.461538,4161.538461,4606.666666,3734.358975,4023.076923
74,4329.743589,4441.538461,4494.871794,4170.256410,4425.641025,4033.846153,4385.128205,4123.589743,4175.384615,4471.794871,4146.153846,4593.846153,3721.025642,4012.307692
75,4323.589743,4430.256410,4490.256410,4164.102564,4423.076923,4025.641025,4372.307692,4118.461538,4173.333333,4471.794871,4126.153846,4588.717948,3716.923077,4007.179487
76,4329.743589,4429.743589,4501.025641,4160.512820,4422.564102,4024.615384,4370.769230,4119.487179,4175.384615,4474.358974,4130.769230,4596.923076,3724.102565,4011.282051
77,4338.974358,4447.692307,4508.717948,4170.769230,4423.589743,4032.820512,4375.897435,4117.435897,4174.871794,4480.512820,4143.076923,4605.128205,3736.410257,4018.974358
78,4341.538461,4455.897435,4505.128205,4176.410256,4425.641025,4036.410256,4377.948717,4117.435897,4180.512820,4485.128205,4144.615384,4606.666666,3747.692308,4023.076923
79,4342.051282,4451.282051,4506.666666,4174.358974,4434.358974,4037.948717,4379.487179,4122.564102,4182.051282,4482.564102,4145.641025,4605.641025,3751.282052,4024.102564
80,4343.076923,4454.358974,4511.282051,4181.025641,4438.974358,4043.076923,4386.153846,4126.666666,4178.974358,4477.435897,4145.128205,4607.692307,3752.820513,4023.076923
81,4338.974358,4454.871794,4508.717948,4181.025641,4432.820512,4044.102564,4388.205128,4125.641025,4178.974358,4468.717948,4131.282051,4606.153846,3749.230770,4014.871794
82,4331.282051,4450.256410,4505.641025,4168.205128,4427.692307,4037.948717,4381.538461,4119.487179,4170.256410,4455.897435,4113.333333,4599.487179,3736.923077,4005.128205
83,4333.333333,4454.871794,4506.153846,4166.666666,4426.666666,4035.897435,4380.000000,4115.897435,4162.051282,4452.307692,4114.871794,4595.897435,3732.307693,4003.076923
84,4341.538461,4457.435897,4507.692307,4172.307692,4432.820512,4038.974358,4385.128205,4123.076923,4170.769230,4464.615384,4130.769230,4602.564102,3748.205129,4009.230769
85,4343.589743,4453.846153,4509.743589,4169.230769,4437.948717,4036.410256,4380.512820,4128.717948,4181.538461,4473.333333,4140.512820,4608.717948,3760.512821,4013.333333
86,4344.102564,4457.435897,4514.358974,4169.230769,4433.846153,4033.846153,4374.871794,4127.692307,4180.000000,4468.717948,4142.564102,4609.230769,3758.461539,4015.897435
87,4349.743589,4463.589743,4520.000000,4177.948717,4433.846153,4035.897435,4379.487179,4129.230769,4179.487179,4469.743589,4144.102564,4610.769230,3768.205129,4021.538461
88,4353.333333,4465.641025,4523.076923,4182.051282,4437.948717,4038.461538,4383.076923,4134.358974,4182.564102,4483.589743,4147.179487,4614.871794,3779.487180,4026.666666
89,4351.282051,4464.615384,4524.102564,4180.000000,4436.410256,4037.948717,4382.051282,4133.846153,4180.512820,4484.615384,4148.717948,4617.435897,3772.820513,4028.717948
90,4353.333333,4464.615384,4523.589743,4178.974358,4435.384615,4036.923076,4381.538461,4131.794871,4180.512820,4478.461538,4151.794871,4620.000000,3770.256411,4029.230769
91,4356.410256,4465.128205,4524.102564,4182.564102,4437.435897,4038.461538,4384.615384,4138.974358,4181.538461,4483.076923,4160.000000,4623.076923,3778.461539,4029.230769
92,4349.743589,4461.538461,4520.512820,4180.000000,4430.769230,4037.435897,4386.153846,4142.564102,4181.538461,4481.025641,4157.948717,4618.461538,3772.307693,4024.102564
93,4342.564102,4454.871794,4512.820512,4168.205128,4426.666666,4032.307692,4380.512820,4132.820512,4180.512820,4470.769230,4147.692307,4607.179487,3761.538462,4017.948717
94,4341.025641,4449.230769,4506.666666,4164.615384,4429.743589,4028.717948,4372.820512,4122.051282,4171.282051,4467.692307,4142.051282,4602.051282,3764.102565,4012.820512
95,4336.923076,4445.128205,4504.615384,4170.769230,4428.717948,4027.179487,4371.282051,4116.410256,4162.564102,4465.641025,4140.512820,4599.487179,3760.512821,4006.666666
96,4337.948717,4445.128205,4510.256410,4171.794871,4428.717948,4028.205128,4373.846153,4121.025641,4175.897435,4467.179487,4136.923076,4596.923076,3751.794872,4012.307692
97,4348.717948,4456.410256,4515.384615,4173.333333,4436.923076,4033.846153,4376.410256,4132.307692,4194.871794,4486.153846,4145.128205,4606.153846,3761.025642,4025.128205
98,4353.846153,4465.641025,4516.923076,4181.538461,4444.615384,4038.974358,4380.512820,4138.461538,4195.384615,4499.487179,4167.179487,4615.384615,3776.923077,4025.641025
99,4349.743589,4464.102564,4515.897435,4187.179487,4441.538461,4038.461538,4382.564102,4134.871794,4189.743589,4489.230769,4169.743589,4609.743589,3773.846154,4020.512820
100,4349.230769,4466.153846,4516.923076,4183.076923,4439.487179,4037.435897,4381.025641,4134.358974,4187.692307,4478.974358,4151.282051,4606.153846,3766.666667,4022.564102
101,4351.794871,4469.743589,4521.538461,4174.358974,4441.025641,4039.487179,4384.102564,4136.410256,4182.051282,4481.538461,4148.205128,4612.307692,3766.666667,4024.102564
102,4348.205128,4456.410256,4516.923076,4172.307692,4436.923076,4038.461538,4383.076923,4129.743589,4178.974358,4477.948717,4159.487179,4609.743589,3757.435898,4014.871794
103,4342.564102,4438.974358,4510.256410,4176.410256,4430.256410,4030.256410,4374.358974,4121.025641,4177.435897,4466.153846,4154.871794,4605.128205,3746.153847,4006.153846
104,4344.102564,4447.692307,4514.358974,4176.410256,4429.230769,4025.128205,4372.820512,4124.102564,4176.410256,4466.153846,4145.641025,4611.282051,3748.205129,4011.282051
105,4350.256410,4463.076923,4523.076923,4178.974358,4433.846153,4031.282051,4382.051282,4134.871794,4178.461538,4473.333333,4151.282051,4618.461538,3754.358975,4023.589743
106,4349.743589,4458.461538,4522.564102,4179.487179,4434.871794,4035.897435,4385.641025,4135.897435,4173.846153,4473.333333,4153.846153,4612.307692,3756.410257,4022.051282
107,4345.128205,4451.282051,4516.410256,4176.923076,4433.846153,4032.820512,4378.974358,4127.692307,4166.153846,4463.589743,4148.717948,4606.153846,3752.820513,4011.794871
108,4345.128205,4452.820512,4514.871794,4176.923076,4430.769230,4028.717948,4372.820512,4119.487179,4167.179487,4454.871794,4148.717948,4608.205128,3745.128206,4010.769230
109,4345.641025,4454.358974,4517.948717,4175.384615,4428.205128,4026.153846,4371.794871,4115.897435,4169.230769,4459.487179,4150.256410,4607.179487,3744.102565,4014.871794
110,4346.666666,4454.358974,4519.487179,4171.282051,4432.307692,4024.615384,4372.307692,4121.538461,4170.769230,4468.205128,4150.256410,4604.102564,3750.769231,4015.384615
111,4354.358974,4455.897435,4520.512820,4176.923076,4436.923076,4028.717948,4376.410256,4133.333333,4180.000000,4476.410256,4162.051282,4609.743589,3758.974359,4018.974358
112,4362.564102,4463.076923,4527.179487,4193.846153,4439.487179,4036.410256,4385.641025,4142.564102,4196.923076,4489.230769,4184.102564,4623.076923,3770.769231,4029.743589
113,4361.538461,4468.717948,4529.743589,4197.948717,4442.564102,4040.512820,4389.743589,4143.076923,4200.000000,4491.282051,4184.615384,4625.641025,3772.307693,4033.333333
114,4357.435897,4465.641025,4523.589743,4191.794871,4446.666666,4042.564102,4388.205128,4141.025641,4186.666666,4480.000000,4167.179487,4618.461538,3765.641026,4027.179487
115,4358.461538,4465.128205,4521.025641,4194.358974,4444.102564,4042.564102,4389.230769,4137.948717,4178.974358,4478.461538,4167.692307,4618.461538,3773.333334,4026.666666
116,4361.538461,4470.256410,4526.153846,4199.487179,4442.051282,4041.538461,4390.256410,4136.410256,4188.205128,4482.051282,4175.897435,4625.128205,3778.974359,4032.820512
117,4363.076923,4471.282051,4528.205128,4196.923076,4445.641025,4041.025641,4389.743589,4135.897435,4193.846153,4482.051282,4169.743589,4627.179487,3770.769231,4032.307692
118,4361.025641,4469.230769,4524.615384,4191.794871,4445.128205,4036.410256,4389.230769,4134.871794,4185.128205,4482.564102,4167.179487,4621.025641,3766.153847,4029.230769
119,4353.333333,4462.051282,4521.025641,4187.179487,4442.564102,4034.358974,4387.179487,4136.410256,4179.487179,4478.461538,4169.743589,4618.461538,3761.025642,4028.717948
120,4345.641025,4455.384615,4517.948717,4180.512820,4445.128205,4037.948717,4387.179487,4141.538461,4184.615384,4477.948717,4167.179487,4616.410256,3751.282052,4023.076923
121,4350.769230,4462.051282,4522.051282,4187.179487,4450.256410,4043.076923,4393.333333,4143.589743,4190.256410,4485.128205,4171.794871,4615.897435,3759.487180,4022.051282
122,4360.000000,4472.307692,4528.205128,4200.512820,4448.717948,4044.615384,4396.410256,4146.153846,4193.333333,4488.205128,4177.948717,4623.076923,3777.435898,4031.794871
123,4361.025641,4471.794871,4530.769230,4203.589743,4444.102564,4043.589743,4394.358974,4151.282051,4194.358974,4489.230769,4177.435897,4628.717948,3778.461539,4037.948717
124,4358.974358,4466.666666,4533.333333,4197.435897,4443.589743,4042.051282,4395.897435,4150.769230,4194.871794,4491.794871,4177.948717,4627.692307,3764.615385,4034.358974
125,4361.025641,4463.076923,4533.846153,4192.307692,4447.692307,4041.025641,4397.948717,4150.256410,4196.410256,4489.230769,4180.512820,4627.179487,3754.871795,4031.282051
126,4360.000000,4461.025641,4528.205128,4191.794871,4451.282051,4041.538461,4395.897435,4150.256410,4194.358974,4482.564102,4176.923076,4626.153846,3760.000000,4031.282051
127,4351.794871,4460.000000,4521.025641,4193.846153,4447.692307,4041.025641,4394.871794,4144.102564,4187.692307,4482.564102,4170.769230,4620.000000,3764.615385,4026.666666
128,4352.307692,4456.410256,4520.000000,4192.820512,4442.564102,4039.487179,4395.384615,4143.076923,4187.692307,4484.102564,4171.282051,4618.461538,3760.512821,4023.076923
129,4359.487179,4457.948717,4525.641025,4188.205128,4442.051282,4035.897435,4397.435897,4149.743589,4195.897435,4489.743589,4181.025641,4623.076923,3760.000000,4028.717948
130,4360.512820,4462.051282,4530.256410,4190.256410,4442.051282,4034.358974,4397.435897,4151.282051,4198.974358,4495.384615,4182.051282,4624.102564,3765.128206,4034.358974
131,4362.051282,4464.102564,4532.307692,4196.923076,4440.000000,4037.435897,4397.435897,4150.256410,4192.307692,4493.333333,4176.410256,4625.641025,3766.153847,4036.923076
132,4368.205128,4474.871794,4534.871794,4202.051282,4443.589743,4041.538461,4401.025641,4155.897435,4191.794871,4492.820512,4184.615384,4632.820512,3763.076924,4040.512820
133,4368.717948,4479.487179,4536.410256,4203.076923,4452.307692,4045.641025,4403.076923,4157.435897,4196.410256,4497.435897,4189.743589,4634.358974,3762.051283,4041.538461
134,4366.153846,4469.743589,4535.897435,4202.564102,4452.307692,4048.717948,4400.512820,4150.256410,4198.461538,4497.948717,4184.615384,4631.282051,3765.128206,4037.948717
135,4363.589743,4465.641025,4532.820512,4194.871794,4442.051282,4044.615384,4397.948717,4146.666666,4197.948717,4497.435897,4186.666666,4628.717948,3766.666667,4036.410256
136,4357.948717,4462.051282,4528.205128,4182.564102,4438.461538,4036.923076,4397.948717,4148.205128,4197.948717,4498.974358,4191.282051,4623.589743,3754.871795,4034.871794
137,4356.923076,4451.282051,4529.743589,4183.076923,4444.615384,4036.923076,4397.948717,4144.615384,4198.974358,4497.435897,4188.205128,4622.564102,3748.717949,4033.333333
138,4362.564102,4453.333333,4535.384615,4193.846153,4445.128205,4041.538461,4397.948717,4145.128205,4200.000000,4498.974358,4185.128205,4629.230769,3760.000000,4035.897435
139,4364.102564,4469.230769,4534.358974,4197.948717,4439.487179,4038.461538,4398.461538,4147.692307,4196.410256,4496.923076,4183.589743,4633.333333,3764.615385,4036.923076
140,4357.948717,4469.743589,4529.230769,4191.282051,4437.948717,4033.333333,4393.333333,4140.512820,4189.230769,4482.051282,4176.923076,4625.128205,3751.794872,4031.794871
141,4349.230769,4454.871794,4526.153846,4188.205128,4441.025641,4033.846153,4386.666666,4131.282051,4184.615384,4476.410256,4171.282051,4614.871794,3734.871795,4023.076923
142,4346.153846,4451.794871,4522.564102,4194.358974,4443.589743,4039.487179,4391.282051,4136.410256,4187.179487,4485.128205,4170.256410,4614.871794,3735.384616,4020.000000
143,4350.769230,4462.051282,4522.051282,4201.538461,4448.205128,4044.102564,4397.435897,4147.179487,4193.333333,4487.692307,4173.846153,4618.974358,3748.717949,4027.179487
144,4350.256410,4458.461538,4524.102564,4200.000000,4449.743589,4041.538461,4391.282051,4144.102564,4192.307692,4481.538461,4173.846153,4616.410256,3741.538462,4029.230769
145,4348.205128,4446.666666,4524.102564,4191.794871,4444.102564,4038.461538,4388.717948,4141.025641,4191.282051,4486.666666,4172.820512,4613.846153,3722.564103,4024.615384
146,4356.410256,4456.410256,4527.179487,4189.743589,4447.179487,4045.641025,4396.923076,4149.743589,4197.948717,4495.897435,4174.871794,4622.564102,3731.794872,4031.282051
147,4364.615384,4472.820512,4531.282051,4197.435897,4456.923076,4051.794871,4398.974358,4157.435897,4201.538461,4496.410256,4172.820512,4631.282051,3754.358975,4038.974358
148,4367.179487,4475.897435,4532.820512,4209.230769,4455.897435,4050.256410,4394.871794,4157.948717,4204.102564,4496.410256,4174.358974,4631.282051,3751.794872,4038.461538
149,4369.230769,4475.897435,4533.333333,4214.871794,4448.717948,4049.230769,4394.358974,4158.974358,4207.692307,4500.000000,4185.641025,4629.743589,3744.102565,4040.512820
150,4372.820512,4477.435897,4535.897435,4215.384615,4453.333333,4051.282051,4398.461538,4161.538461,4208.205128,4501.025641,4193.333333,4633.846153,3754.358975,4046.666666
151,4371.282051,4474.358974,4537.435897,4214.358974,4460.512820,4054.358974,4405.128205,4162.564102,4209.743589,4504.615384,4184.615384,4633.846153,3763.076924,4045.641025
152,4365.128205,4468.717948,4535.384615,4208.717948,4452.820512,4049.743589,4405.641025,4158.974358,4210.769230,4506.153846,4179.487179,4630.256410,3755.384616,4041.538461
153,4364.615384,4469.743589,4531.282051,4207.179487,4447.692307,4045.128205,4398.974358,4152.307692,4206.666666,4501.025641,4185.128205,4631.794871,3753.846154,4043.076923
154,4368.717948,4476.923076,4530.256410,4208.717948,4454.358974,4048.717948,4397.948717,4153.846153,4208.717948,4500.512820,4185.641025,4634.358974,3763.076924,4047.179487
155,4367.692307,4478.461538,4529.230769,4203.076923,4454.871794,4049.230769,4397.435897,4156.410256,4213.333333,4501.538461,4180.512820,4632.820512,3758.974359,4046.153846
156,4367.179487,4474.871794,4528.717948,4203.589743,4445.641025,4039.487179,4391.794871,4148.717948,4206.153846,4497.948717,4183.589743,4630.256410,3752.307693,4044.615384
157,4373.846153,4478.461538,4533.846153,4215.897435,4444.615384,4036.410256,4392.820512,4148.717948,4204.102564,4500.512820,4193.846153,4631.794871,3763.589744,4047.179487
158,4372.307692,4478.974358,4534.358974,4213.333333,4449.743589,4043.589743,4397.948717,4154.358974,4209.743589,4502.051282,4193.333333,4633.333333,3765.641026,4049.230769
159,4360.512820,4468.717948,4526.666666,4196.923076,4444.615384,4042.564102,4398.974358,4149.230769,4205.641025,4495.384615,4185.641025,4629.743589,3741.538462,4043.076923
160,4362.051282,4463.076923,4524.102564,4196.410256,4439.487179,4041.025641,4400.000000,4151.282051,4203.589743,4497.435897,4185.128205,4626.666666,3731.794872,4041.538461
161,4369.743589,4468.205128,4528.205128,4208.205128,4448.717948,4048.205128,4401.538461,4158.461538,4209.743589,4502.051282,4187.179487,4628.717948,3751.282052,4042.564102
162,4366.153846,4472.820512,4525.641025,4212.307692,4454.358974,4051.282051,4400.512820,4152.307692,4209.743589,4498.461538,4180.000000,4630.256410,3760.512821,4041.538461
163,4362.051282,4470.769230,4518.974358,4209.230769,4447.179487,4049.743589,4401.025641,4144.615384,4202.051282,4495.384615,4175.384615,4624.615384,3745.128206,4043.589743
164,4363.076923,4468.717948,4521.538461,4201.538461,4445.641025,4049.743589,4400.000000,4145.641025,4194.871794,4495.384615,4178.974358,4623.076923,3730.256411,4044.102564
165,4363.589743,4467.692307,4527.179487,4198.974358,4451.794871,4048.717948,4397.948717,4147.692307,4196.410256,4496.923076,4178.461538,4629.743589,3733.846154,4042.564102
166,4363.076923,4465.128205,4527.692307,4204.102564,4446.153846,4043.076923,4396.923076,4150.769230,4205.128205,4497.435897,4182.564102,4633.333333,3744.615385,4044.102564
167,4364.615384,4466.666666,4526.153846,4206.666666,4437.948717,4038.974358,4393.846153,4152.820512,4208.717948,4498.461538,4190.256410,4630.256410,3749.743590,4047.179487
168,4371.794871,4476.923076,4533.333333,4210.769230,4446.666666,4043.076923,4390.769230,4152.820512,4208.717948,4510.256410,4198.974358,4634.358974,3754.358975,4054.871794
169,4380.000000,4485.128205,4542.051282,4220.512820,4457.948717,4051.794871,4393.846153,4157.948717,4211.794871,4522.564102,4206.153846,4644.102564,3765.641026,4063.076923
170,4384.102564,4488.205128,4538.974358,4225.641025,4458.461538,4054.358974,4404.102564,4161.025641,4218.461538,4522.051282,4206.666666,4646.666666,3772.307693,4062.564102
171,4386.153846,4492.820512,4537.435897,4223.589743,4456.410256,4051.794871,4412.307692,4162.564102,4222.564102,4516.410256,4209.230769,4649.743589,3768.205129,4060.000000
172,4383.589743,4486.153846,4542.564102,4215.384615,4456.410256,4049.743589,4409.230769,4165.128205,4218.461538,4511.282051,4212.307692,4649.230769,3761.025642,4061.538461
173,4371.794871,4470.769230,4537.948717,4204.615384,4451.282051,4045.128205,4400.512820,4160.000000,4208.717948,4507.179487,4200.512820,4637.948717,3754.358975,4057.435897
174,4366.666666,4466.666666,4526.153846,4203.076923,4442.051282,4037.948717,4397.948717,4152.820512,4206.153846,4509.743589,4187.179487,4632.820512,3751.794872,4052.820512
175,4373.846153,4474.871794,4529.230769,4207.179487,4438.974358,4037.435897,4402.051282,4153.333333,4208.205128,4512.820512,4194.871794,4640.000000,3752.307693,4053.333333
176,4377.435897,4477.948717,4534.358974,4208.205128,4441.538461,4041.025641,4401.025641,4156.410256,4207.692307,4509.743589,4202.564102,4639.487179,3753.846154,4052.820512
177,4373.333333,4475.897435,4527.179487,4211.282051,4446.666666,4040.512820,4396.410256,4150.256410,4204.615384,4506.153846,4193.846153,4632.307692,3756.923077,4053.846153
178,4370.769230,4480.000000,4525.128205,4218.461538,4449.230769,4041.025641,4395.384615,4144.102564,4204.102564,4508.205128,4187.692307,4633.846153,3762.051283,4057.435897
179,4373.333333,4482.564102,4531.282051,4218.974358,4447.179487,4045.641025,4398.974358,4145.641025,4208.205128,4509.743589,4192.820512,4635.897435,3762.051283,4058.461538
180,4371.282051,4471.282051,4526.666666,4211.794871,4445.641025,4047.179487,4398.461538,4146.153846,4202.564102,4502.564102,4195.897435,4629.230769,3752.820513,4053.333333
181,4364.102564,4464.102564,4517.948717,4202.051282,4445.128205,4044.615384,4395.897435,4144.102564,4188.717948,4493.846153,4191.282051,4625.128205,3746.153847,4046.666666
182,4366.153846,4479.487179,4524.615384,4202.564102,4443.589743,4047.179487,4397.948717,4148.205128,4193.333333,4497.948717,4189.230769,4630.769230,3750.256411,4049.743589
183,4374.358974,4488.717948,4533.846153,4210.256410,4445.128205,4052.820512,4396.923076,4155.897435,4208.205128,4507.179487,4190.256410,4634.871794,3756.923077,4057.435897
184,4376.410256,4482.564102,4529.743589,4212.820512,4453.333333,4053.846153,4400.000000,4160.512820,4213.846153,4516.410256,4194.358974,4631.794871,3766.666667,4059.487179
185,4374.871794,4483.076923,4530.256410,4209.743589,4454.358974,4051.794871,4408.717948,4162.051282,4214.358974,4519.487179,4200.000000,4633.846153,3779.487180,4058.974358
186,4370.256410,4486.666666,4532.307692,4206.153846,4446.666666,4051.282051,4405.641025,4157.435897,4212.820512,4507.692307,4193.846153,4636.923076,3778.461539,4053.333333
187,4364.102564,4484.615384,4528.205128,4202.564102,4445.641025,4052.820512,4397.948717,4148.717948,4207.179487,4497.948717,4186.666666,4630.769230,3769.743590,4047.692307
188,4370.256410,4485.641025,4532.820512,4204.615384,4451.794871,4053.846153,4401.538461,4153.333333,4208.717948,4500.000000,4188.205128,4628.717948,3777.435898,4051.282051
189,4376.410256,4487.692307,4537.948717,4203.589743,4447.692307,4050.769230,4403.076923,4158.974358,4204.615384,4494.358974,4184.615384,4635.897435,3787.179488,4054.358974
190,4368.717948,4482.564102,4531.794871,4194.871794,4438.461538,4043.076923,4395.897435,4149.743589,4194.871794,4485.641025,4178.974358,4634.358974,3777.435898,4046.666666
191,4360.512820,4479.487179,4528.205128,4197.948717,4441.538461,4042.051282,4395.897435,4143.589743,4200.512820,4494.358974,4176.923076,4621.538461,3770.769231,4039.487179
192,4360.000000,4477.435897,4529.743589,4203.589743,4446.666666,4047.692307,4401.025641,4148.717948,4204.102564,4500.512820,4173.846153,4619.487179,3772.820513,4037.948717
193,4362.051282,4475.897435,4529.743589,4195.897435,4443.076923,4049.230769,4403.076923,4151.794871,4196.410256,4496.410256,4181.025641,4628.205128,3772.820513,4037.948717
194,4365.128205,4480.512820,4531.282051,4193.333333,4442.051282,4050.256410,4403.076923,4150.256410,4196.410256,4494.358974,4195.384615,4630.769230,3776.923077,4038.461538
195,4362.051282,4477.435897,4531.794871,4197.435897,4442.564102,4048.717948,4400.000000,4147.179487,4198.461538,4488.205128,4181.538461,4627.179487,3778.461539,4034.871794
196,4355.384615,4468.205128,4527.179487,4191.794871,4435.897435,4043.076923,4395.897435,4142.051282,4191.794871,4481.025641,4158.974358,4622.564102,3771.794872,4027.179487
197,4355.897435,4466.666666,4528.717948,4188.717948,4433.846153,4044.102564,4394.871794,4144.102564,4187.179487,4481.025641,4167.179487,4624.102564,3764.615385,4029.230769
198,4362.564102,4472.307692,4533.846153,4196.923076,4440.512820,4051.282051,4402.564102,4149.230769,4189.743589,4484.102564,4184.615384,4629.743589,3766.153847,4037.435897
199,4367.692307,4481.538461,4531.794871,4203.589743,4443.076923,4055.384615,4410.256410,4146.666666,4194.358974,4490.256410,4186.153846,4634.358974,3774.871795,4042.051282
200,4368.205128,4490.769230,4530.769230,4209.230769,4444.102564,4055.384615,4404.615384,4144.615384,4195.897435,4495.897435,4181.025641,4632.820512,3775.897436,4043.076923
201,4362.564102,4481.025641,4528.717948,4205.641025,4441.538461,4052.307692,4395.384615,4145.641025,4192.307692,4488.717948,4175.384615,4627.179487,3771.794872,4038.461538
202,4356.410256,4463.589743,4527.692307,4188.717948,4435.384615,4048.717948,4395.384615,4147.692307,4193.846153,4481.538461,4173.333333,4624.102564,3772.820513,4030.256410
203,4359.487179,4465.641025,4533.333333,4188.205128,4436.410256,4052.307692,4397.435897,4147.179487,4198.974358,4492.820512,4182.564102,4629.230769,3772.820513,4030.256410
204,4366.153846,4483.076923,4535.897435,4206.153846,4443.589743,4055.384615,4398.461538,4147.179487,4193.846153,4501.025641,4187.692307,4635.384615,3768.205129,4036.923076
205,4364.615384,4487.692307,4530.769230,4205.641025,4445.128205,4052.820512,4393.846153,4144.615384,4182.051282,4488.717948,4174.358974,4630.256410,3771.794872,4037.435897
206,4360.512820,4474.871794,4527.179487,4189.743589,4441.538461,4052.307692,4388.205128,4140.000000,4182.564102,4477.435897,4166.666666,4622.564102,3774.871795,4031.794871
207,4362.564102,4472.820512,4528.717948,4188.205128,4438.974358,4054.871794,4392.307692,4144.615384,4193.846153,4488.205128,4180.512820,4626.666666,3763.076924,4030.769230
208,4365.128205,4481.025641,4527.692307,4197.435897,4440.512820,4053.846153,4393.846153,4151.282051,4198.461538,4498.461538,4187.692307,4634.358974,3763.076924,4035.384615
209,4367.179487,4482.564102,4532.820512,4204.102564,4442.564102,4052.307692,4388.717948,4152.820512,4195.897435,4498.974358,4181.538461,4636.410256,3779.487180,4042.564102
210,4372.307692,4481.025641,4542.051282,4201.025641,4435.384615,4051.282051,4391.282051,4150.256410,4194.358974,4498.461538,4178.461538,4638.461538,3786.666667,4046.153846
211,4372.307692,4478.461538,4540.000000,4197.948717,4429.230769,4053.333333,4398.461538,4149.743589,4192.820512,4497.435897,4179.487179,4637.948717,3782.051283,4045.128205
212,4365.128205,4470.769230,4533.846153,4200.512820,4434.871794,4058.461538,4397.948717,4148.205128,4191.794871,4492.820512,4179.487179,4632.307692,3772.307693,4037.948717
213,4355.897435,4468.205128,4527.692307,4192.307692,4434.871794,4054.358974,4396.923076,4143.589743,4188.717948,4484.615384,4170.256410,4625.641025,3757.948718,4023.589743
214,4350.256410,4470.256410,4519.487179,4178.974358,4429.230769,4048.717948,4395.384615,4140.000000,4186.153846,4477.948717,4156.923076,4618.461538,3751.794872,4020.000000
215,4357.435897,4467.179487,4522.051282,4183.076923,4435.384615,4054.358974,4395.384615,4142.051282,4194.871794,4478.461538,4161.538461,4619.487179,3760.000000,4030.769230
216,4368.717948,4470.769230,4534.358974,4199.487179,4445.128205,4061.538461,4401.538461,4150.769230,4206.153846,4491.282051,4181.025641,4628.717948,3768.717949,4040.512820
217,4368.717948,4478.461538,4537.948717,4205.128205,4438.974358,4056.410256,4403.589743,4153.333333,4203.589743,4500.000000,4186.666666,4636.410256,3772.820513,4041.025641
218,4361.538461,4480.000000,4533.333333,4197.948717,4429.230769,4049.743589,4397.435897,4147.692307,4193.333333,4489.743589,4171.282051,4631.282051,3767.179488,4034.358974
219,4357.948717,4478.974358,4530.256410,4192.307692,4430.769230,4054.358974,4395.897435,4144.102564,4190.256410,4480.512820,4161.538461,4621.538461,3760.512821,4028.717948
220,4359.487179,4472.307692,4526.666666,4195.897435,4434.358974,4057.948717,4403.589743,4148.205128,4197.435897,4486.153846,4168.205128,4621.025641,3761.538462,4031.282051
221,4359.487179,4469.743589,4527.179487,4202.564102,4440.000000,4056.923076,4408.205128,4151.794871,4203.589743,4489.230769,4183.589743,4627.692307,3762.051283,4036.923076
222,4360.000000,4479.487179,4531.282051,4201.025641,4446.153846,4061.025641,4402.051282,4148.717948,4200.512820,4486.666666,4186.666666,4629.743589,3762.051283,4036.923076
223,4365.641025,4485.641025,4532.307692,4203.589743,4444.615384,4062.051282,4396.410256,4145.641025,4197.435897,4489.743589,4177.948717,4629.230769,3768.205129,4034.871794
224,4373.846153,4488.205128,4534.358974,4216.923076,4442.564102,4058.974358,4398.974358,4153.333333,4208.717948,4495.897435,4183.076923,4638.974358,3785.128206,4045.128205
225,4378.974358,4491.282051,4540.512820,4221.538461,4445.128205,4059.487179,4402.051282,4164.615384,4216.410256,4503.589743,4200.000000,4646.666666,3798.974359,4058.461538
226,4377.435897,4485.128205,4541.538461,4210.256410,4447.179487,4056.923076,4395.384615,4164.615384,4210.769230,4507.179487,4198.974358,4640.512820,3792.820513,4053.846153
227,4372.307692,4480.512820,4537.948717,4202.564102,4441.538461,4052.820512,4393.333333,4161.025641,4207.692307,4503.589743,4186.153846,4634.358974,3777.948718,4043.076923
228,4365.641025,4486.153846,4533.333333,4200.512820,4432.820512,4052.820512,4399.487179,4156.410256,4208.205128,4498.974358,4188.205128,4635.384615,3774.358975,4038.974358
229,4357.435897,4478.461538,4524.102564,4193.846153,4429.230769,4047.179487,4395.897435,4145.641025,4196.410256,4489.230769,4187.692307,4626.153846,3775.384616,4031.282051
230,4347.692307,4455.897435,4512.820512,4185.128205,4428.205128,4044.102564,4387.179487,4133.333333,4185.641025,4475.897435,4171.794871,4607.692307,3763.589744,4022.051282
231,4341.538461,4450.256410,4508.717948,4183.589743,4426.666666,4049.230769,4393.333333,4133.333333,4189.743589,4475.384615,4160.512820,4605.128205,3747.692308,4017.435897
232,4345.128205,4459.487179,4512.820512,4187.692307,4427.692307,4051.282051,4398.461538,4138.974358,4194.358974,4481.025641,4160.512820,4611.282051,3747.179488,4014.358974
233,4345.641025,4461.538461,4512.820512,4186.153846,4427.179487,4047.692307,4391.282051,4138.461538,4186.153846,4477.435897,4161.025641,4607.179487,3752.820513,4012.307692
234,4337.948717,4452.820512,4504.615384,4176.410256,4426.666666,4045.641025,4386.666666,4132.820512,4178.974358,4470.769230,4156.923076,4600.512820,3745.128206,4013.333333
235,4334.358974,4444.615384,4502.051282,4173.846153,4429.743589,4044.102564,4385.128205,4129.743589,4177.948717,4467.692307,4152.307692,4602.051282,3736.923077,4012.307692
236,4337.435897,4444.615384,4507.179487,4181.538461,4425.128205,4045.128205,4381.538461,4129.230769,4175.897435,4465.641025,4151.794871,4604.102564,3743.589744,4010.769230
237,4339.487179,4454.871794,4506.666666,4178.974358,4415.384615,4045.128205,4377.435897,4128.205128,4178.461538,4466.666666,4155.384615,4602.051282,3746.153847,4009.743589
238,4338.461538,4461.025641,4505.128205,4171.794871,4417.948717,4040.000000,4377.435897,4128.717948,4184.102564,4466.666666,4158.974358,4605.128205,3742.564103,4011.282051
239,4346.153846,4455.897435,4513.846153,4180.512820,4426.666666,4040.000000,4379.487179,4134.358974,4186.666666,4470.256410,4164.102564,4613.846153,3750.256411,4023.589743
240,4360.000000,4453.846153,4525.641025,4194.871794,4431.282051,4044.615384,4382.564102,4143.589743,4191.794871,4483.076923,4169.230769,4623.589743,3758.974359,4035.384615
241,4364.615384,4468.205128,4530.256410,4201.025641,4432.307692,4048.205128,4387.179487,4148.205128,4197.435897,4488.205128,4180.512820,4628.205128,3764.102565,4037.948717
242,4358.974358,4480.000000,4524.102564,4198.974358,4431.282051,4046.666666,4387.179487,4142.051282,4191.794871,4481.538461,4187.179487,4624.102564,3768.717949,4032.307692
243,4343.589743,4462.564102,4509.743589,4189.230769,4427.179487,4035.897435,4376.410256,4125.128205,4180.000000,4472.820512,4166.153846,4608.717948,3751.794872,4013.333333
244,4330.769230,4438.461538,4500.000000,4180.512820,4420.000000,4028.205128,4370.256410,4114.871794,4173.333333,4467.692307,4139.487179,4595.897435,3728.717949,3998.974359
245,4335.897435,4442.051282,4502.564102,4188.717948,4417.435897,4034.358974,4380.000000,4124.615384,4178.974358,4469.743589,4145.641025,4602.051282,3732.307693,4008.717948
246,4346.666666,4457.435897,4511.282051,4195.384615,4425.128205,4043.589743,4386.153846,4136.410256,4185.641025,4475.897435,4165.641025,4613.846153,3746.666667,4024.102564
247,4344.102564,4455.384615,4516.923076,4189.230769,4427.692307,4042.051282,4382.564102,4135.897435,4185.128205,4476.410256,4164.102564,4614.358974,3750.256411,4021.025641
248,4340.000000,4448.717948,4515.384615,4189.743589,4420.512820,4036.410256,4383.076923,4133.333333,4180.000000,4470.769230,4154.358974,4611.282051,3746.153847,4013.333333
249,4345.128205,4454.358974,4514.358974,4195.384615,4422.564102,4038.974358,4388.205128,4134.358974,4180.000000,4471.282051,4155.897435,4613.846153,3742.564103,4014.871794
250,4347.179487,4457.948717,4515.384615,4188.205128,4429.743589,4044.615384,4389.230769,4132.307692,4179.487179,4470.256410,4162.051282,4612.307692,3741.025642,4016.923076
251,4345.641025,4454.358974,4511.794871,4177.948717,4426.666666,4043.076923,4388.717948,4130.769230,4178.461538,4466.666666,4156.923076,4608.717948,3746.666667,4017.948717
252,4349.230769,4458.461538,4510.769230,4185.128205,4427.179487,4043.076923,4392.307692,4136.923076,4183.589743,4473.333333,4153.846153,4613.846153,3751.282052,4022.051282
253,4356.410256,4470.769230,4520.512820,4199.487179,4437.435897,4052.307692,4398.974358,4143.076923,4190.256410,4482.051282,4166.666666,4622.564102,3749.743590,4026.666666
254,4359.487179,4473.846153,4525.128205,4198.974358,4442.564102,4053.846153,4401.025641,4141.538461,4192.307692,4482.564102,4178.461538,4625.128205,3751.794872,4030.256410
255,4363.076923,4471.794871,4520.512820,4197.948717,4440.000000,4048.717948,4396.410256,4144.102564,4196.923076,4488.205128,4179.487179,4628.717948,3762.564103,4037.948717
256,4369.743589,4471.794871,4523.076923,4208.205128,4440.000000,4051.794871,4393.846153,4154.871794,4206.666666,4502.051282,4178.461538,4634.358974,3772.820513,4044.615384
257,4370.256410,4473.333333,4532.820512,4215.897435,4440.000000,4056.923076,4394.871794,4161.025641,4212.820512,4507.179487,4185.641025,4637.948717,3774.358975,4041.538461
258,4366.666666,4478.461538,4530.769230,4208.205128,4438.461538,4054.871794,4395.897435,4160.000000,4213.333333,4495.897435,4191.282051,4637.435897,3767.692308,4039.487179
259,4360.000000,4473.846153,4520.000000,4199.487179,4437.435897,4052.307692,4394.358974,4153.333333,4209.230769,4481.025641,4181.025641,4625.128205,3754.871795,4036.923076
