,AF3,F7,F3,FC5,T7,P7,O1,O2,P8,T8,FC6,F4,F8,AF4
0,4427.179487,4504.102564,4541.538461,4261.538461,4474.871794,4179.487179,4430.769230,4209.743589,4217.948717,4502.051282,4223.076923,4646.153846,3974.871795,4070.769230
1,4429.743589,4510.256410,4547.179487,4263.076923,4474.871794,4177.948717,4434.358974,4214.871794,4217.435897,4498.461538,4228.205128,4649.743589,3976.923077,4072.820512
2,4432.820512,4521.538461,4544.615384,4269.743589,4474.358974,4173.846153,4433.333333,4215.897435,4220.512820,4503.589743,4228.205128,4651.282051,3985.641026,4074.871794
3,4430.769230,4518.974358,4547.179487,4271.794871,4473.846153,4180.000000,4434.358974,4213.846153,4221.025641,4508.717948,4228.717948,4650.769230,3991.794872,4076.410256
4,4429.230769,4515.897435,4549.230769,4266.153846,4480.512820,4185.641025,4441.538461,4218.974358,4221.538461,4513.333333,4231.794871,4654.358974,3993.333334,4082.051282
5,4429.743589,4516.410256,4547.692307,4261.538461,4484.615384,4181.025641,4445.128205,4222.564102,4226.666666,4517.948717,4231.794871,4658.461538,3997.435898,4086.666666
6,4428.717948,4513.846153,4548.205128,4263.589743,4485.128205,4183.589743,4439.487179,4221.538461,4227.179487,4515.897435,4227.179487,4659.487179,4003.076923,4086.153846
7,4425.641025,4512.820512,4549.743589,4263.076923,4488.717948,4184.102564,4434.358974,4218.461538,4220.000000,4507.692307,4224.615384,4657.948717,3994.358975,4084.102564
8,4426.153846,4517.948717,4549.230769,4261.538461,4492.307692,4180.000000,4437.435897,4216.923076,4216.410256,4504.615384,4229.230769,4658.974358,3985.128206,4087.179487
9,4430.769230,4530.256410,4551.794871,4265.128205,4502.051282,4186.153846,4446.153846,4227.179487,4224.615384,4512.820512,4234.358974,4665.128205,3999.487180,4096.410256
10,4429.743589,4535.384615,4555.897435,4267.179487,4509.230769,4188.205128,4443.589743,4232.820512,4231.794871,4522.051282,4226.666666,4668.717948,4013.333333,4098.974358
11,4417.948717,4525.641025,4550.256410,4265.128205,4497.435897,4174.358974,4431.794871,4217.435897,4224.102564,4516.923076,4208.717948,4661.025641,4003.589743,4085.641025
12,4408.205128,4515.897435,4543.076923,4262.051282,4487.692307,4170.769230,4434.358974,4205.641025,4212.307692,4503.589743,4202.051282,4650.769230,3995.384616,4076.923076
13,4407.179487,4517.948717,4538.461538,4259.487179,4491.282051,4178.461538,4437.948717,4207.692307,4211.794871,4503.076923,4207.179487,4648.205128,3992.820513,4077.948717
14,4408.717948,4524.615384,4535.897435,4259.487179,4495.384615,4178.461538,4434.358974,4209.743589,4217.948717,4509.230769,4208.717948,4647.179487,3987.179488,4077.435897
15,4411.282051,4529.743589,4542.051282,4262.564102,4502.051282,4180.512820,4437.948717,4212.820512,4222.051282,4516.410256,4209.743589,4652.307692,3995.384616,4084.615384
16,4414.358974,4531.794871,4548.205128,4265.128205,4506.153846,4184.615384,4443.076923,4217.435897,4223.076923,4523.589743,4212.820512,4658.974358,4013.333333,4093.846153
17,4411.282051,4525.128205,4541.538461,4264.615384,4497.948717,4181.025641,4438.461538,4217.948717,4222.564102,4519.487179,4210.769230,4657.435897,4008.205128,4086.666666
18,4410.256410,4522.564102,4539.487179,4261.538461,4498.974358,4180.512820,4439.487179,4222.051282,4229.743589,4516.923076,4212.820512,4660.512820,3998.974359,4085.128205
19,4413.846153,4526.666666,4549.230769,4262.051282,4510.769230,4182.051282,4445.641025,4227.179487,4237.948717,4524.615384,4220.512820,4667.179487,4008.717948,4094.871794
20,4411.282051,4523.076923,4547.179487,4267.179487,4502.051282,4172.820512,4438.974358,4224.615384,4232.820512,4523.589743,4221.025641,4664.102564,4006.153846,4091.282051
21,4409.743589,4521.538461,4539.487179,4267.179487,4489.230769,4168.205128,4432.820512,4220.512820,4224.102564,4513.846153,4218.974358,4662.051282,3994.358975,4083.589743
22,4413.846153,4532.307692,4542.564102,4264.615384,4498.461538,4177.948717,4435.897435,4216.923076,4226.153846,4515.384615,4218.974358,4667.692307,4001.538461,4091.794871
23,4415.384615,4536.923076,4549.230769,4266.666666,4506.666666,4182.564102,4442.051282,4216.410256,4229.743589,4518.974358,4217.948717,4669.230769,4012.820512,4100.000000
24,4412.307692,4528.205128,4548.717948,4268.205128,4501.025641,4180.000000,4443.589743,4218.461538,4227.692307,4516.923076,4216.923076,4666.666666,4009.743589,4093.333333
25,4411.794871,4523.076923,4544.615384,4263.589743,4500.000000,4182.051282,4441.025641,4216.923076,4227.692307,4519.487179,4219.487179,4665.128205,4000.512820,4087.179487
26,4411.282051,4528.205128,4544.102564,4264.102564,4503.076923,4182.051282,4442.564102,4217.948717,4229.230769,4522.564102,4222.051282,4666.153846,3995.897436,4087.692307
27,4408.205128,4526.666666,4546.153846,4268.717948,4495.897435,4177.948717,4442.051282,4219.487179,4229.230769,4519.487179,4219.487179,4667.179487,3997.948718,4086.153846
28,4402.564102,4520.000000,4542.564102,4264.615384,4489.743589,4172.820512,4433.333333,4214.871794,4225.641025,4513.333333,4212.820512,4662.051282,4000.000000,4079.487179
29,4399.487179,4520.512820,4536.923076,4260.000000,4490.769230,4171.794871,4431.282051,4213.846153,4220.512820,4512.820512,4208.717948,4657.948717,3995.897436,4075.384615
30,4404.615384,4521.538461,4538.974358,4265.641025,4490.256410,4177.435897,4441.538461,4218.461538,4224.615384,4518.461538,4210.256410,4664.615384,3996.923077,4080.512820
31,4409.230769,4520.000000,4543.076923,4268.717948,4489.230769,4178.461538,4445.128205,4219.487179,4229.230769,4517.435897,4216.923076,4666.666666,4002.564102,4084.615384
32,4411.282051,4528.205128,4544.102564,4267.692307,4494.871794,4176.410256,4441.025641,4216.410256,4226.666666,4513.846153,4216.923076,4661.538461,3997.948718,4083.076923
33,4411.794871,4535.897435,4547.692307,4274.358974,4501.538461,4178.974358,4441.538461,4214.358974,4227.692307,4518.974358,4211.282051,4666.153846,3995.897436,4082.051282
34,4409.230769,4528.717948,4547.179487,4276.410256,4498.974358,4180.000000,4441.538461,4216.410256,4230.769230,4520.512820,4215.897435,4668.205128,3996.410257,4082.051282
35,4404.615384,4522.564102,4542.564102,4266.153846,4491.282051,4171.282051,4435.384615,4216.923076,4222.564102,4509.743589,4218.974358,4658.461538,3987.179488,4076.923076
36,4400.000000,4518.974358,4537.948717,4260.000000,4488.717948,4169.230769,4431.282051,4207.692307,4213.333333,4504.102564,4204.615384,4652.307692,3984.615385,4071.282051
37,4395.384615,4510.769230,4534.871794,4263.076923,4488.717948,4172.307692,4428.205128,4198.974358,4215.897435,4507.179487,4199.487179,4652.307692,3990.256411,4070.769230
38,4400.000000,4513.333333,4535.897435,4268.205128,4487.692307,4170.256410,4429.743589,4205.641025,4221.025641,4508.717948,4211.794871,4654.871794,3996.410257,4073.333333
39,4412.307692,4525.641025,4543.589743,4271.282051,4488.717948,4172.307692,4431.282051,4211.794871,4224.615384,4511.794871,4220.000000,4661.025641,4003.589743,4077.435897
40,4415.384615,4525.641025,4547.179487,4268.717948,4490.769230,4172.820512,4427.692307,4210.256410,4227.179487,4516.410256,4223.076923,4662.051282,4004.615384,4082.051282
41,4410.769230,4523.076923,4542.051282,4265.641025,4492.820512,4169.743589,4425.641025,4208.205128,4227.179487,4519.487179,4228.205128,4656.923076,3998.461539,4083.076923
42,4407.179487,4525.641025,4536.923076,4265.641025,4490.769230,4168.717948,4427.179487,4203.589743,4222.051282,4515.897435,4223.076923,4651.794871,3992.307693,4075.384615
43,4404.615384,4522.051282,4536.410256,4262.051282,4485.128205,4167.179487,4426.666666,4195.897435,4213.333333,4505.128205,4209.743589,4649.230769,3990.769231,4069.230769
44,4406.153846,4519.487179,4542.564102,4261.025641,4487.179487,4168.205128,4426.666666,4195.384615,4211.282051,4504.102564,4211.282051,4652.307692,3991.794872,4074.871794
45,4411.282051,4524.102564,4547.692307,4265.128205,4494.358974,4171.794871,4428.205128,4203.589743,4219.487179,4515.384615,4218.974358,4660.000000,3997.435898,4080.000000
46,4408.205128,4521.025641,4545.641025,4263.589743,4490.769230,4171.794871,4432.307692,4205.128205,4223.589743,4515.897435,4215.897435,4654.871794,3993.846154,4076.923076
47,4401.538461,4515.897435,4541.538461,4262.051282,4481.025641,4170.256410,4438.461538,4206.666666,4224.102564,4510.769230,4213.333333,4645.128205,3986.666667,4071.282051
48,4406.153846,4520.512820,4542.051282,4264.615384,4486.666666,4177.948717,4444.615384,4220.000000,4232.307692,4518.974358,4223.076923,4648.205128,3993.333334,4072.820512
49,4412.820512,4520.000000,4544.102564,4262.051282,4493.333333,4186.666666,4448.205128,4229.230769,4239.487179,4524.102564,4227.179487,4654.358974,3998.974359,4078.461538
50,4409.743589,4511.794871,4543.589743,4258.461538,4486.666666,4186.666666,4448.205128,4222.564102,4236.923076,4516.923076,4217.435897,4652.307692,3997.435898,4080.000000
51,4399.487179,4510.256410,4540.000000,4258.461538,4477.948717,4181.025641,4445.128205,4213.333333,4229.230769,4510.769230,4212.307692,4648.205128,3991.794872,4070.769230
52,4397.948717,4512.307692,4535.897435,4256.410256,4477.948717,4176.410256,4444.102564,4214.871794,4224.102564,4511.794871,4218.974358,4646.666666,3983.589744,4064.102564
53,4397.948717,4508.717948,4532.307692,4255.897435,4479.487179,4177.435897,4446.153846,4218.461538,4222.564102,4512.307692,4218.461538,4643.076923,3980.000000,4065.128205
54,4392.820512,4501.025641,4530.769230,4253.846153,4478.461538,4177.435897,4446.153846,4213.333333,4224.102564,4507.692307,4204.102564,4640.000000,3982.564103,4060.000000
55,4391.282051,4499.487179,4530.769230,4247.179487,4476.923076,4172.307692,4442.051282,4209.743589,4220.512820,4502.564102,4202.564102,4641.538461,3982.564103,4055.384615
56,4395.384615,4502.564102,4530.256410,4252.820512,4470.256410,4166.153846,4439.487179,4211.282051,4214.358974,4503.589743,4211.794871,4640.000000,3976.923077,4060.000000
57,4399.487179,4511.282051,4532.820512,4265.641025,4471.282051,4169.230769,4442.564102,4209.743589,4216.410256,4508.717948,4208.717948,4638.974358,3983.076924,4065.641025
58,4404.615384,4517.948717,4540.512820,4265.128205,4481.025641,4177.435897,4445.128205,4208.205128,4222.051282,4507.179487,4205.128205,4643.589743,3994.871795,4068.205128
59,4404.102564,4510.769230,4539.487179,4258.974358,4482.051282,4176.923076,4442.564102,4208.205128,4220.512820,4503.076923,4212.307692,4647.179487,3989.230770,4069.743589
60,4402.051282,4504.102564,4535.897435,4261.025641,4472.820512,4169.743589,4440.512820,4205.128205,4213.846153,4505.128205,4218.974358,4645.128205,3975.897436,4067.179487
61,4406.666666,4511.794871,4539.487179,4262.564102,4469.743589,4166.666666,4442.564102,4202.051282,4211.282051,4502.564102,4217.948717,4643.589743,3980.512821,4067.179487
62,4407.692307,4517.948717,4540.000000,4264.102564,4474.871794,4170.256410,4441.025641,4204.615384,4215.897435,4497.435897,4210.769230,4645.128205,3993.333334,4068.717948
63,4403.589743,4508.717948,4535.897435,4264.102564,4474.871794,4168.717948,4433.333333,4203.589743,4216.923076,4498.974358,4202.564102,4640.512820,3990.256411,4065.128205
64,4402.564102,4503.076923,4533.333333,4259.487179,4469.230769,4167.179487,4426.153846,4198.974358,4215.384615,4505.641025,4206.666666,4635.897435,3982.564103,4061.538461
65,4403.589743,4507.692307,4535.384615,4262.051282,4467.692307,4170.256410,4432.307692,4201.025641,4218.461538,4506.666666,4217.948717,4640.512820,3976.923077,4062.564102
66,4403.589743,4508.717948,4538.974358,4265.641025,4472.820512,4170.769230,4441.025641,4208.205128,4220.512820,4503.076923,4219.487179,4643.076923,3974.871795,4066.153846
67,4404.102564,4507.692307,4539.487179,4255.897435,4474.871794,4169.230769,4433.846153,4209.743589,4217.435897,4503.076923,4210.769230,4636.923076,3983.589744,4067.692307
68,4404.615384,4513.846153,4534.871794,4252.820512,4472.307692,4171.282051,4432.307692,4203.076923,4216.923076,4508.205128,4209.230769,4635.897435,3990.769231,4067.179487
69,4404.102564,4516.410256,4534.871794,4261.538461,4473.333333,4172.820512,4441.538461,4201.025641,4217.948717,4506.666666,4215.897435,4640.000000,3984.102565,4066.153846
70,4402.051282,4504.615384,4533.846153,4256.410256,4475.384615,4170.256410,4437.435897,4202.051282,4209.743589,4495.897435,4213.333333,4634.358974,3978.461539,4061.025641
71,4395.897435,4500.512820,4525.641025,4246.666666,4472.820512,4167.692307,4426.666666,4199.487179,4204.102564,4495.384615,4207.179487,4626.153846,3974.871795,4053.846153
72,4392.820512,4501.538461,4524.615384,4251.794871,4465.128205,4168.205128,4427.692307,4196.923076,4209.743589,4501.025641,4205.128205,4627.179487,3965.641026,4050.769230
73,4399.487179,4493.846153,4529.230769,4254.871794,4464.102564,4168.717948,4432.307692,4204.102564,4218.974358,4501.025641,4213.846153,4634.358974,3976.410257,4058.461538
74,4408.205128,4494.358974,4532.820512,4246.153846,4469.230769,4168.717948,4431.282051,4210.256410,4222.564102,4508.205128,4225.641025,4642.564102,3998.461539,4070.256410
75,4412.307692,4506.666666,4536.410256,4244.615384,4467.692307,4167.692307,4431.282051,4206.666666,4219.487179,4516.410256,4227.179487,4648.205128,4002.564102,4075.384615
76,4416.410256,4511.794871,4543.589743,4257.435897,4467.179487,4171.794871,4437.948717,4210.769230,4223.076923,4515.384615,4225.128205,4653.333333,4002.051282,4076.410256
77,4421.025641,4510.769230,4547.179487,4268.205128,4476.410256,4174.358974,4445.641025,4215.897435,4227.179487,4510.769230,4225.128205,4653.333333,4004.102564,4076.410256
78,4417.435897,4509.230769,4544.615384,4265.128205,4477.435897,4170.769230,4444.102564,4212.307692,4223.076923,4511.282051,4226.666666,4647.692307,3997.948718,4075.897435
79,4417.435897,4507.179487,4545.128205,4261.025641,4471.282051,4173.333333,4438.974358,4209.743589,4222.564102,4513.333333,4231.282051,4650.256410,3990.256411,4074.871794
80,4426.153846,4508.717948,4548.205128,4263.589743,4474.871794,4175.897435,4442.051282,4211.282051,4227.692307,4516.923076,4234.358974,4653.846153,3993.846154,4076.410256
81,4425.128205,4508.205128,4547.692307,4264.102564,4478.974358,4170.769230,4445.128205,4210.256410,4225.641025,4513.846153,4221.538461,4650.256410,3999.487180,4074.871794
82,4416.410256,4499.487179,4542.051282,4260.512820,4471.282051,4168.205128,4437.435897,4206.666666,4219.487179,4502.564102,4214.358974,4646.153846,3992.820513,4069.743589
83,4412.820512,4496.410256,4535.384615,4254.358974,4464.102564,4171.282051,4433.333333,4203.589743,4217.948717,4501.538461,4220.512820,4642.051282,3981.025642,4064.615384
84,4410.256410,4502.051282,4528.205128,4246.666666,4466.153846,4167.179487,4436.410256,4197.948717,4214.358974,4499.487179,4215.897435,4633.846153,3978.461539,4058.974358
85,4411.282051,4502.051282,4529.230769,4246.153846,4472.307692,4165.128205,4437.435897,4200.000000,4215.897435,4492.820512,4212.820512,4631.282051,3981.025642,4057.435897
86,4413.333333,4493.846153,4531.282051,4253.846153,4473.846153,4173.846153,4437.948717,4207.179487,4220.000000,4496.923076,4219.487179,4635.384615,3976.923077,4057.435897
87,4409.230769,4489.743589,4526.153846,4258.461538,4474.358974,4175.384615,4441.538461,4203.076923,4215.897435,4502.564102,4212.820512,4631.794871,3975.384616,4056.410256
88,4408.205128,4493.846153,4527.179487,4256.923076,4477.435897,4175.384615,4444.615384,4201.538461,4215.384615,4501.538461,4203.076923,4628.717948,3978.974359,4055.384615
89,4410.256410,4496.923076,4531.282051,4254.871794,4479.487179,4180.512820,4443.589743,4208.205128,4217.948717,4501.025641,4208.205128,4632.307692,3978.974359,4056.923076
90,4407.179487,4496.410256,4527.692307,4250.769230,4471.794871,4174.358974,4436.923076,4205.128205,4214.871794,4497.435897,4208.205128,4631.282051,3975.897436,4056.410256
91,4403.076923,4492.820512,4524.615384,4247.179487,4461.538461,4162.051282,4428.205128,4192.307692,4208.205128,4491.794871,4202.051282,4627.179487,3970.256411,4052.307692
92,4409.230769,4488.717948,4529.743589,4245.641025,4458.461538,4162.564102,4428.717948,4193.846153,4212.307692,4495.897435,4210.769230,4634.358974,3970.256411,4056.923076
93,4415.897435,4492.307692,4535.384615,4250.256410,4462.564102,4171.794871,4432.820512,4205.641025,4219.487179,4503.076923,4221.538461,4647.179487,3977.948718,4065.128205
94,4417.435897,4501.025641,4537.948717,4254.358974,4468.717948,4170.256410,4434.358974,4207.179487,4215.897435,4497.948717,4217.948717,4643.589743,3972.820513,4062.564102
95,4418.461538,4500.512820,4537.948717,4252.307692,4471.794871,4167.692307,4439.487179,4203.076923,4214.871794,4495.897435,4212.820512,4638.974358,3968.717949,4061.025641
96,4423.589743,4497.435897,4540.000000,4256.923076,4475.384615,4172.820512,4446.666666,4206.153846,4219.487179,4505.641025,4221.025641,4647.179487,3983.589744,4070.256410
97,4422.051282,4497.948717,4539.487179,4262.051282,4472.307692,4172.307692,4440.512820,4209.230769,4218.461538,4504.615384,4226.666666,4647.179487,3988.205129,4070.769230
98,4414.871794,4493.333333,4534.358974,4254.871794,4465.128205,4167.692307,4430.769230,4204.615384,4215.897435,4496.923076,4221.538461,4639.487179,3980.000000,4064.102564
99,4419.487179,4493.333333,4536.923076,4251.282051,4470.769230,4168.717948,4435.384615,4198.461538,4221.025641,4501.538461,4223.076923,4643.076923,3988.717949,4070.769230
100,4424.102564,4500.512820,4540.000000,4254.871794,4474.358974,4170.256410,4440.000000,4201.025641,4223.076923,4505.641025,4230.769230,4647.692307,3994.358975,4074.358974
101,4414.871794,4497.948717,4533.846153,4255.897435,4467.179487,4165.128205,4434.358974,4202.051282,4217.435897,4500.512820,4228.717948,4642.564102,3982.564103,4065.641025
102,4415.384615,4495.384615,4531.794871,4258.974358,4467.179487,4165.128205,4431.282051,4200.512820,4215.384615,4498.974358,4228.205128,4641.538461,3985.128206,4067.179487
103,4426.153846,4506.153846,4536.923076,4260.512820,4474.871794,4170.769230,4433.846153,4202.051282,4215.384615,4503.076923,4234.871794,4645.128205,3992.820513,4075.897435
104,4423.076923,4508.205128,4536.410256,4253.846153,4470.769230,4167.692307,4427.179487,4199.487179,4212.820512,4499.487179,4229.743589,4638.461538,3986.153847,4069.743589
105,4421.025641,4502.051282,4537.948717,4258.461538,4469.230769,4165.128205,4424.102564,4198.974358,4215.384615,4501.025641,4225.128205,4635.897435,3987.179488,4067.179487
106,4431.794871,4509.230769,4545.128205,4268.205128,4479.487179,4170.769230,4434.871794,4204.615384,4221.538461,4510.256410,4236.923076,4645.641025,3998.974359,4077.948717
107,4431.282051,4507.692307,4544.615384,4263.589743,4476.410256,4170.256410,4433.333333,4203.589743,4218.461538,4508.717948,4237.948717,4646.666666,3995.384616,4077.435897
108,4423.589743,4494.358974,4537.948717,4258.974358,4469.743589,4166.666666,4427.692307,4198.461538,4211.282051,4499.487179,4225.128205,4641.025641,3987.692308,4068.717948
109,4426.153846,4497.948717,4535.897435,4261.538461,4480.000000,4170.256410,4437.435897,4199.487179,4211.794871,4496.410256,4223.076923,4643.076923,3993.846154,4070.769230
110,4427.692307,4504.102564,4538.974358,4258.461538,4487.179487,4171.794871,4443.076923,4202.051282,4217.435897,4503.076923,4231.794871,4648.205128,3995.897436,4076.923076
111,4425.641025,4499.487179,4545.128205,4258.974358,4483.589743,4169.743589,4437.948717,4200.000000,4218.974358,4509.230769,4236.410256,4650.769230,3995.897436,4080.512820
112,4423.589743,4502.051282,4547.179487,4263.076923,4487.179487,4171.282051,4437.435897,4200.000000,4216.923076,4511.794871,4231.794871,4652.307692,4002.564102,4082.051282
113,4416.410256,4507.179487,4539.487179,4256.923076,4493.333333,4171.794871,4435.384615,4200.512820,4215.897435,4510.769230,4222.564102,4649.230769,4000.000000,4076.923076
114,4407.179487,4498.974358,4533.846153,4254.358974,4491.794871,4168.205128,4431.282051,4198.974358,4215.384615,4504.615384,4215.897435,4644.102564,3992.820513,4071.794871
115,4407.692307,4495.897435,4537.948717,4262.051282,4497.435897,4169.230769,4440.512820,4199.487179,4215.897435,4502.051282,4214.358974,4645.128205,3995.384616,4074.871794
116,4408.717948,4502.051282,4537.435897,4258.974358,4505.128205,4171.282051,4445.128205,4202.051282,4217.948717,4508.717948,4211.282051,4644.102564,3997.435898,4074.358974
117,4405.128205,4504.102564,4535.384615,4253.333333,4502.051282,4170.769230,4438.974358,4209.743589,4223.076923,4513.333333,4209.743589,4643.589743,3992.820513,4068.717948
118,4409.743589,4510.769230,4544.615384,4264.615384,4504.615384,4173.846153,4442.564102,4212.820512,4224.615384,4510.769230,4212.307692,4650.769230,3995.384616,4074.358974
119,4410.769230,4512.307692,4547.179487,4266.666666,4508.205128,4174.358974,4445.641025,4207.179487,4225.128205,4511.794871,4211.794871,4652.307692,3997.435898,4082.051282
120,4402.564102,4504.615384,4541.025641,4259.487179,4502.051282,4168.205128,4440.000000,4202.564102,4225.128205,4512.307692,4209.230769,4648.717948,3997.435898,4079.487179
121,4402.564102,4507.692307,4545.128205,4263.589743,4502.564102,4170.256410,4440.000000,4206.666666,4226.666666,4511.794871,4214.871794,4652.307692,4005.641025,4076.923076
122,4410.769230,4513.846153,4551.282051,4265.641025,4511.794871,4178.974358,4446.153846,4213.846153,4232.820512,4518.974358,4225.641025,4658.461538,4010.256410,4080.512820
123,4406.666666,4508.205128,4542.564102,4262.564102,4508.717948,4175.897435,4442.051282,4210.256410,4229.743589,4518.974358,4223.076923,4655.897435,4000.512820,4077.948717
124,4394.358974,4500.000000,4533.846153,4263.589743,4496.923076,4166.153846,4428.205128,4199.487179,4218.974358,4509.230769,4207.179487,4648.205128,3990.256411,4070.769230
125,4396.923076,4502.051282,4541.538461,4264.615384,4498.461538,4165.641025,4431.282051,4198.461538,4223.076923,4511.282051,4207.692307,4650.256410,4000.000000,4072.820512
126,4404.102564,4509.230769,4550.256410,4263.589743,4509.743589,4170.256410,4445.641025,4207.179487,4234.358974,4519.487179,4222.051282,4656.410256,4009.743589,4078.974358
127,4398.974358,4511.282051,4546.153846,4263.589743,4506.153846,4170.256410,4443.589743,4205.128205,4226.153846,4510.256410,4214.871794,4652.820512,3992.307693,4073.846153
128,4392.307692,4503.589743,4536.923076,4257.948717,4489.230769,4163.589743,4428.717948,4190.769230,4211.282051,4494.871794,4195.897435,4641.538461,3979.487180,4063.076923
129,4396.410256,4493.846153,4534.871794,4253.333333,4486.666666,4160.000000,4427.179487,4189.743589,4214.358974,4496.923076,4201.025641,4642.051282,3997.435898,4066.153846
130,4400.512820,4497.435897,4540.512820,4260.512820,4496.410256,4163.589743,4435.897435,4199.487179,4225.641025,4504.615384,4217.948717,4651.794871,4009.743589,4073.846153
131,4398.461538,4506.666666,4542.051282,4266.666666,4497.948717,4168.717948,4436.410256,4202.564102,4228.717948,4506.153846,4222.051282,4653.846153,4000.512820,4075.897435
132,4403.076923,4508.717948,4538.461538,4265.641025,4500.512820,4169.743589,4436.410256,4204.102564,4226.666666,4510.256410,4218.974358,4652.307692,4005.128205,4080.512820
133,4407.179487,4505.128205,4541.538461,4262.051282,4505.641025,4168.205128,4438.461538,4208.205128,4229.743589,4520.512820,4216.410256,4654.358974,4014.358974,4082.564102
134,4403.589743,4507.692307,4548.205128,4264.615384,4506.153846,4169.230769,4441.538461,4207.179487,4236.410256,4527.179487,4217.948717,4657.948717,4009.743589,4081.538461
135,4401.538461,4514.358974,4547.179487,4271.282051,4507.179487,4171.282051,4441.025641,4203.589743,4235.384615,4523.076923,4226.666666,4656.923076,4007.179487,4084.615384
136,4398.461538,4511.794871,4538.974358,4266.153846,4502.564102,4164.615384,4434.871794,4198.461538,4224.615384,4512.307692,4226.666666,4649.230769,4007.692307,4081.025641
137,4391.282051,4504.102564,4533.333333,4253.333333,4493.333333,4157.435897,4427.179487,4192.307692,4218.461538,4507.179487,4213.333333,4644.615384,4002.051282,4067.179487
138,4391.794871,4504.615384,4536.410256,4256.410256,4491.282051,4162.051282,4427.179487,4195.897435,4227.179487,4512.820512,4210.769230,4648.717948,3997.948718,4068.717948
139,4399.487179,4508.205128,4544.102564,4268.717948,4496.923076,4169.743589,4432.307692,4204.615384,4236.410256,4517.948717,4221.538461,4653.333333,3996.410257,4079.487179
140,4398.974358,4505.641025,4543.589743,4265.641025,4500.000000,4167.692307,4429.230769,4201.538461,4233.333333,4518.461538,4222.564102,4652.307692,3997.435898,4075.897435
141,4397.435897,4506.666666,4539.487179,4257.948717,4500.000000,4160.512820,4425.641025,4197.435897,4232.307692,4517.948717,4217.435897,4650.769230,4001.025641,4069.230769
142,4398.974358,4508.717948,4544.102564,4259.487179,4501.025641,4161.538461,4428.205128,4202.051282,4234.871794,4512.820512,4220.000000,4654.358974,4000.512820,4073.846153
143,4400.000000,4505.128205,4545.641025,4263.589743,4502.051282,4164.615384,4431.794871,4201.538461,4231.794871,4510.256410,4222.051282,4655.897435,3996.410257,4077.435897
144,4398.974358,4504.615384,4540.000000,4266.153846,4496.410256,4158.974358,4429.743589,4194.871794,4225.641025,4512.820512,4216.410256,4648.205128,3995.897436,4074.358974
145,4394.871794,4505.128205,4535.897435,4264.615384,4489.230769,4157.435897,4428.205128,4190.256410,4223.589743,4507.179487,4207.692307,4643.076923,3990.769231,4069.743589
146,4401.538461,4505.641025,4542.564102,4260.000000,4497.435897,4167.692307,4437.435897,4195.897435,4227.692307,4503.589743,4212.307692,4650.769230,3988.717949,4072.307692
147,4415.384615,4514.871794,4548.717948,4264.615384,4510.256410,4175.384615,4445.128205,4207.179487,4234.871794,4516.923076,4231.282051,4660.512820,4001.025641,4080.512820
148,4414.871794,4523.589743,4546.666666,4271.794871,4507.179487,4171.794871,4440.512820,4206.666666,4238.461538,4525.128205,4235.384615,4658.461538,4010.256410,4081.538461
149,4404.102564,4516.923076,4544.615384,4270.256410,4501.025641,4168.205128,4438.461538,4202.564102,4237.435897,4520.512820,4224.102564,4653.333333,4008.717948,4074.871794
150,4401.025641,4506.666666,4543.076923,4264.615384,4504.615384,4169.743589,4443.076923,4203.076923,4236.410256,4518.461538,4218.461538,4652.307692,4005.128205,4072.820512
151,4397.435897,4504.102564,4533.846153,4258.461538,4503.076923,4170.769230,4441.538461,4194.871794,4224.102564,4514.358974,4216.410256,4648.717948,3998.461539,4068.717948
152,4394.871794,4505.128205,4529.743589,4256.410256,4496.923076,4168.717948,4440.512820,4187.692307,4215.897435,4512.820512,4218.974358,4644.615384,3990.769231,4065.128205
153,4400.000000,4506.153846,4540.000000,4262.051282,4501.025641,4168.717948,4441.025641,4196.923076,4224.615384,4516.410256,4228.205128,4649.230769,3988.717949,4072.307692
154,4400.000000,4502.564102,4542.564102,4264.102564,4502.564102,4167.179487,4432.820512,4203.076923,4227.692307,4510.769230,4225.641025,4653.333333,3992.820513,4074.358974
155,4400.000000,4505.128205,4537.948717,4262.564102,4497.435897,4167.179487,4430.769230,4201.538461,4226.153846,4508.717948,4220.000000,4650.256410,3998.974359,4070.256410
156,4409.743589,4516.923076,4547.179487,4269.230769,4502.564102,4172.820512,4441.538461,4209.743589,4237.948717,4523.589743,4232.307692,4657.948717,4006.666666,4077.948717
157,4416.923076,4517.948717,4555.384615,4273.333333,4508.717948,4176.923076,4446.666666,4222.051282,4249.743589,4534.358974,4241.538461,4668.205128,4011.282051,4083.589743
158,4411.282051,4507.692307,4548.717948,4265.641025,4502.564102,4175.384615,4443.076923,4217.948717,4244.102564,4528.205128,4233.846153,4662.564102,4003.589743,4075.384615
159,4403.589743,4505.128205,4545.641025,4261.538461,4502.051282,4173.333333,4443.076923,4204.615384,4237.948717,4521.025641,4227.179487,4654.871794,3990.769231,4070.256410
160,4404.102564,4511.282051,4548.205128,4263.589743,4508.205128,4175.384615,4443.076923,4204.102564,4236.410256,4520.000000,4222.564102,4653.846153,3990.769231,4070.256410
161,4408.717948,4511.282051,4545.641025,4268.205128,4507.179487,4175.897435,4442.564102,4212.307692,4232.820512,4520.512820,4213.846153,4652.307692,3997.948718,4069.230769
162,4411.282051,4507.179487,4548.205128,4273.333333,4505.641025,4174.358974,4443.589743,4212.307692,4232.820512,4518.974358,4218.461538,4655.384615,3999.487180,4075.384615
163,4412.820512,4514.871794,4559.487179,4276.410256,4511.282051,4177.435897,4444.102564,4212.307692,4238.974358,4516.923076,4238.974358,4666.153846,3999.487180,4082.564102
164,4413.333333,4520.000000,4559.487179,4274.358974,4509.230769,4176.923076,4446.153846,4215.384615,4245.128205,4522.051282,4245.128205,4667.692307,3997.948718,4081.538461
165,4411.794871,4512.307692,4547.692307,4267.179487,4498.461538,4171.282051,4445.128205,4214.871794,4239.487179,4526.666666,4233.333333,4655.897435,3995.897436,4078.974358
166,4407.692307,4507.179487,4546.666666,4261.538461,4492.307692,4170.256410,4441.025641,4210.769230,4231.794871,4517.948717,4227.692307,4649.743589,4000.000000,4074.358974
167,4401.025641,4505.128205,4548.717948,4262.051282,4492.307692,4172.820512,4440.512820,4204.615384,4232.820512,4507.692307,4224.615384,4650.256410,3998.974359,4064.102564
168,4399.487179,4499.487179,4544.102564,4261.538461,4495.897435,4168.717948,4441.025641,4202.051282,4231.282051,4510.769230,4218.461538,4651.282051,3986.153847,4060.512820
169,4407.692307,4504.615384,4546.666666,4262.051282,4499.487179,4168.205128,4440.512820,4208.717948,4231.282051,4516.410256,4225.641025,4652.307692,3982.564103,4069.230769
170,4414.871794,4510.769230,4554.871794,4267.179487,4502.051282,4175.897435,4442.051282,4211.794871,4236.410256,4517.948717,4236.410256,4655.384615,3993.846154,4074.358974
171,4410.256410,4501.025641,4553.333333,4265.128205,4499.487179,4174.871794,4444.102564,4206.666666,4234.871794,4516.923076,4227.179487,4651.794871,3994.358975,4064.615384
172,4402.051282,4501.025641,4549.743589,4262.564102,4495.897435,4170.769230,4444.102564,4205.641025,4229.743589,4513.333333,4214.358974,4646.153846,3978.461539,4059.487179
173,4403.589743,4509.230769,4551.282051,4264.615384,4498.974358,4174.358974,4443.589743,4204.615384,4230.256410,4506.153846,4221.025641,4647.692307,3973.333334,4066.153846
174,4409.743589,4505.641025,4552.820512,4264.615384,4503.076923,4176.410256,4442.564102,4198.974358,4229.230769,4505.128205,4230.256410,4649.743589,3987.179488,4071.282051
175,4414.871794,4507.179487,4557.948717,4268.717948,4508.205128,4176.410256,4443.589743,4201.538461,4231.794871,4512.307692,4231.794871,4653.846153,4000.512820,4073.333333
176,4420.512820,4522.051282,4564.102564,4281.025641,4512.307692,4183.589743,4446.153846,4213.333333,4242.051282,4522.564102,4237.435897,4662.564102,4001.538461,4078.974358
177,4418.461538,4523.076923,4558.974358,4278.461538,4513.846153,4183.076923,4445.641025,4214.871794,4241.538461,4522.051282,4237.948717,4657.435897,3989.743590,4076.410256
178,4406.666666,4508.205128,4546.153846,4260.000000,4508.205128,4170.769230,4442.051282,4206.153846,4230.769230,4511.282051,4222.564102,4640.512820,3977.435898,4060.000000
179,4402.564102,4502.051282,4544.615384,4257.435897,4498.461538,4169.230769,4441.025641,4206.666666,4227.692307,4510.256410,4212.820512,4640.000000,3980.000000,4055.384615
180,4409.230769,4507.692307,4549.743589,4266.666666,4497.948717,4176.410256,4445.641025,4210.769230,4228.717948,4512.307692,4225.641025,4650.769230,3986.666667,4064.102564
181,4408.205128,4506.666666,4546.153846,4264.615384,4498.974358,4170.256410,4443.589743,4202.564102,4224.615384,4506.666666,4234.358974,4645.641025,3981.025642,4062.051282
182,4402.051282,4495.897435,4540.512820,4259.487179,4494.358974,4166.153846,4431.794871,4196.410256,4218.461538,4502.564102,4222.564102,4636.923076,3973.846154,4050.769230
183,4408.205128,4495.897435,4545.128205,4263.076923,4489.743589,4169.743589,4431.794871,4203.589743,4222.051282,4510.769230,4217.435897,4644.102564,3980.000000,4054.871794
184,4418.461538,4505.641025,4554.358974,4265.641025,4494.358974,4170.769230,4444.102564,4212.307692,4230.256410,4517.948717,4229.743589,4652.307692,3991.282052,4067.692307
185,4418.461538,4511.794871,4552.307692,4266.153846,4499.487179,4170.256410,4444.615384,4217.948717,4235.384615,4512.820512,4238.461538,4648.717948,3990.769231,4067.179487
186,4415.897435,4510.256410,4547.179487,4273.333333,4497.948717,4171.282051,4441.025641,4216.923076,4235.897435,4508.717948,4233.333333,4643.076923,3983.076924,4062.051282
187,4415.384615,4503.076923,4552.307692,4274.358974,4493.846153,4170.256410,4442.564102,4209.230769,4230.256410,4512.820512,4225.128205,4644.102564,3983.589744,4062.051282
188,4413.333333,4501.538461,4556.923076,4266.153846,4491.794871,4170.256410,4441.025641,4201.025641,4227.179487,4510.256410,4224.102564,4647.179487,3983.076924,4064.615384
189,4417.948717,4511.794871,4557.948717,4268.205128,4498.461538,4172.820512,4438.974358,4196.923076,4228.205128,4503.589743,4228.205128,4648.717948,3975.384616,4064.102564
190,4425.128205,4514.871794,4559.487179,4274.871794,4505.128205,4172.307692,4442.564102,4198.974358,4222.564102,4506.666666,4230.769230,4650.769230,3976.410257,4063.589743
191,4423.589743,4506.666666,4560.000000,4269.230769,4502.051282,4173.333333,4442.564102,4201.025641,4219.487179,4506.153846,4227.692307,4649.743589,3985.641026,4065.128205
192,4421.538461,4507.179487,4556.923076,4264.615384,4496.410256,4175.897435,4441.025641,4201.538461,4227.692307,4505.128205,4230.769230,4649.230769,3988.205129,4067.692307
193,4422.564102,4509.230769,4552.307692,4267.179487,4498.974358,4173.333333,4441.538461,4202.564102,4233.333333,4512.820512,4236.923076,4647.179487,3983.076924,4065.128205
194,4415.384615,4503.076923,4547.179487,4262.564102,4497.948717,4167.692307,4440.512820,4199.487179,4225.641025,4507.692307,4229.230769,4638.461538,3972.820513,4057.435897
195,4411.794871,4504.615384,4547.179487,4262.564102,4492.307692,4168.205128,4440.512820,4198.974358,4222.051282,4501.538461,4220.512820,4637.948717,3975.384616,4058.461538
196,4421.025641,4511.794871,4553.333333,4269.743589,4498.461538,4173.846153,4441.538461,4203.076923,4228.205128,4516.410256,4228.205128,4647.692307,3992.307693,4066.666666
197,4418.974358,4505.128205,4551.794871,4266.666666,4503.076923,4170.256410,4432.820512,4201.538461,4227.179487,4521.025641,4232.820512,4647.692307,3992.307693,4063.589743
198,4411.282051,4498.461538,4545.641025,4266.666666,4494.358974,4164.615384,4424.102564,4197.435897,4223.076923,4506.153846,4226.666666,4640.000000,3982.564103,4058.461538
199,4422.051282,4511.282051,4548.205128,4276.410256,4495.384615,4174.358974,4434.871794,4206.666666,4229.743589,4511.282051,4231.282051,4644.102564,3990.256411,4064.102564
200,4427.692307,4522.051282,4548.717948,4275.384615,4504.615384,4183.589743,4445.641025,4210.769230,4234.871794,4524.102564,4239.487179,4647.692307,3994.871795,4064.615384
201,4415.384615,4511.794871,4542.051282,4265.641025,4500.000000,4174.871794,4437.948717,4202.051282,4223.076923,4512.820512,4234.871794,4638.974358,3977.948718,4054.358974
202,4412.820512,4500.000000,4540.000000,4263.589743,4493.846153,4166.153846,4427.179487,4194.358974,4212.307692,4499.487179,4225.128205,4632.820512,3967.692308,4048.205128
203,4419.487179,4503.589743,4543.076923,4265.641025,4495.897435,4167.692307,4426.666666,4191.794871,4217.435897,4505.641025,4221.025641,4634.871794,3976.410257,4050.769230
204,4421.025641,4510.256410,4545.128205,4267.692307,4490.256410,4168.205128,4428.205128,4195.384615,4222.564102,4512.307692,4224.102564,4641.538461,3985.641026,4055.897435
205,4424.102564,4510.256410,4543.589743,4271.282051,4486.666666,4168.205128,4427.179487,4195.384615,4221.025641,4509.743589,4231.794871,4644.615384,3985.128206,4058.974358
206,4426.153846,4511.282051,4541.025641,4267.179487,4490.769230,4170.769230,4429.230769,4191.794871,4217.435897,4504.615384,4234.871794,4639.487179,3976.923077,4056.923076
207,4417.948717,4504.102564,4537.948717,4258.974358,4490.769230,4168.717948,4428.205128,4190.769230,4214.358974,4505.128205,4228.205128,4632.820512,3973.846154,4053.333333
208,4414.358974,4492.307692,4534.871794,4258.461538,4487.692307,4168.205128,4429.230769,4194.871794,4214.871794,4509.230769,4218.974358,4630.769230,3980.512821,4053.333333
209,4420.000000,4494.871794,4536.923076,4263.589743,4485.641025,4172.820512,4436.923076,4197.948717,4221.538461,4505.128205,4218.461538,4632.820512,3983.076924,4053.333333
210,4426.666666,4506.153846,4543.589743,4264.102564,4489.230769,4170.769230,4435.897435,4200.512820,4229.230769,4503.589743,4229.230769,4635.897435,3985.128206,4057.435897
211,4430.769230,4510.256410,4547.692307,4266.666666,4501.538461,4170.769230,4431.282051,4207.179487,4233.333333,4516.410256,4242.564102,4643.076923,3993.846154,4068.205128
212,4430.256410,4509.230769,4549.743589,4273.333333,4508.205128,4177.948717,4435.897435,4212.307692,4234.871794,4525.641025,4246.666666,4649.743589,3998.974359,4072.820512
213,4434.358974,4511.282051,4556.410256,4269.230769,4508.717948,4178.974358,4443.589743,4216.410256,4236.410256,4524.102564,4245.128205,4654.871794,4007.179487,4075.897435
214,4440.000000,4517.948717,4564.102564,4270.256410,4513.846153,4177.435897,4446.153846,4218.974358,4242.564102,4527.692307,4247.179487,4657.948717,4021.025641,4084.615384
215,4433.846153,4521.025641,4561.025641,4280.000000,4520.000000,4181.025641,4447.179487,4216.410256,4241.025641,4525.641025,4244.102564,4653.846153,4017.948717,4085.128205
216,4417.435897,4510.769230,4548.717948,4272.820512,4511.282051,4174.871794,4445.128205,4205.128205,4224.615384,4511.794871,4224.615384,4643.589743,3996.923077,4067.179487
217,4406.666666,4500.512820,4540.000000,4257.948717,4500.512820,4163.076923,4437.435897,4194.358974,4214.358974,4508.717948,4206.666666,4632.307692,3986.153847,4053.333333
218,4409.743589,4506.666666,4542.051282,4262.051282,4503.589743,4165.128205,4435.384615,4200.512820,4223.589743,4513.333333,4211.794871,4633.846153,3993.846154,4057.948717
219,4412.820512,4511.282051,4544.102564,4267.692307,4507.692307,4170.769230,4437.948717,4208.205128,4230.769230,4515.384615,4219.487179,4643.076923,3996.923077,4064.102564
220,4406.153846,4504.102564,4544.615384,4263.076923,4507.179487,4169.743589,4440.512820,4204.102564,4225.641025,4513.333333,4210.256410,4647.692307,3992.820513,4062.051282
221,4398.974358,4502.051282,4547.179487,4264.102564,4508.205128,4170.256410,4441.538461,4201.538461,4221.538461,4512.307692,4200.512820,4646.666666,3993.846154,4058.974358
222,4393.846153,4501.025641,4545.641025,4264.102564,4506.666666,4168.717948,4436.923076,4201.025641,4217.948717,4513.333333,4196.923076,4640.512820,3994.358975,4056.410256
223,4390.769230,4495.897435,4536.410256,4257.435897,4504.102564,4166.666666,4430.256410,4192.307692,4210.256410,4505.641025,4194.871794,4633.333333,3985.128206,4052.820512
224,4391.282051,4497.948717,4535.897435,4261.538461,4505.128205,4168.205128,4427.692307,4188.205128,4207.179487,4497.948717,4196.923076,4637.435897,3975.897436,4054.358974
225,4394.871794,4505.641025,4545.128205,4270.769230,4507.179487,4167.179487,4429.743589,4197.948717,4213.846153,4505.128205,4203.589743,4650.256410,3985.641026,4061.538461
226,4398.461538,4510.769230,4547.692307,4268.717948,4506.153846,4161.025641,4427.179487,4201.025641,4217.435897,4510.256410,4201.025641,4650.769230,4002.564102,4065.641025
227,4406.666666,4518.461538,4550.769230,4269.230769,4504.102564,4162.564102,4424.102564,4201.025641,4218.974358,4504.615384,4201.025641,4647.179487,4007.692307,4067.179487
228,4415.384615,4524.102564,4558.974358,4277.948717,4505.641025,4170.256410,4432.307692,4208.717948,4229.743589,4513.846153,4214.871794,4656.923076,4002.051282,4072.307692
229,4412.307692,4513.846153,4558.461538,4281.025641,4508.717948,4170.256410,4437.435897,4209.230769,4234.871794,4526.153846,4215.897435,4663.589743,4002.051282,4076.410256
230,4402.564102,4502.051282,4550.769230,4275.384615,4507.179487,4166.153846,4430.769230,4200.000000,4225.641025,4515.897435,4197.435897,4654.358974,4004.615384,4068.717948
231,4400.000000,4505.641025,4549.743589,4270.256410,4505.641025,4168.205128,4428.205128,4197.948717,4218.461538,4506.666666,4197.435897,4649.743589,4003.076923,4061.538461
232,4403.076923,4517.435897,4551.282051,4267.692307,4509.230769,4171.282051,4432.820512,4202.564102,4222.564102,4514.358974,4213.846153,4654.871794,4001.538461,4069.230769
233,4401.025641,4518.974358,4545.128205,4266.153846,4508.205128,4169.743589,4430.256410,4202.564102,4229.230769,4519.487179,4212.820512,4651.794871,4000.512820,4074.358974
234,4395.384615,4508.205128,4537.948717,4265.641025,4507.692307,4167.692307,4425.641025,4205.128205,4232.307692,4518.974358,4202.051282,4643.076923,4000.512820,4064.102564
235,4400.512820,4513.846153,4542.564102,4271.794871,4514.358974,4171.794871,4433.333333,4216.923076,4238.974358,4525.128205,4209.230769,4647.692307,4010.256410,4065.641025
236,4404.102564,4523.589743,4549.743589,4274.871794,4514.358974,4175.384615,4435.384615,4218.461538,4238.461538,4526.153846,4214.358974,4655.897435,4011.282051,4076.923076
237,4394.871794,4510.769230,4545.128205,4266.153846,4504.102564,4167.692307,4427.692307,4203.076923,4223.076923,4513.846153,4205.641025,4652.307692,3990.769231,4064.615384
238,4391.794871,4500.512820,4541.538461,4257.948717,4501.538461,4162.051282,4426.153846,4197.948717,4213.846153,4505.128205,4197.948717,4649.743589,3978.461539,4052.307692
239,4398.461538,4508.205128,4548.205128,4267.179487,4506.666666,4167.692307,4431.282051,4203.589743,4218.461538,4508.717948,4197.435897,4652.820512,3992.820513,4061.025641
240,4398.461538,4508.205128,4547.179487,4275.897435,4507.179487,4170.256410,4430.256410,4201.025641,4220.000000,4509.743589,4196.410256,4651.794871,3998.461539,4064.615384
241,4396.923076,4504.615384,4544.615384,4271.282051,4506.153846,4167.179487,4428.205128,4198.461538,4216.410256,4504.102564,4201.538461,4648.717948,3982.051283,4056.410256
242,4400.000000,4515.384615,4549.743589,4271.794871,4508.205128,4168.717948,4426.153846,4202.051282,4221.538461,4507.692307,4205.128205,4652.307692,3976.410257,4060.000000
243,4397.435897,4515.897435,4547.179487,4272.820512,4504.102564,4164.102564,4417.435897,4199.487179,4224.102564,4512.820512,4197.948717,4652.307692,3988.717949,4064.615384
244,4395.384615,4511.282051,4544.615384,4268.205128,4498.974358,4158.461538,4414.358974,4197.435897,4223.589743,4511.794871,4199.487179,4645.641025,3997.435898,4060.000000
245,4400.000000,4513.846153,4556.410256,4270.256410,4503.589743,4168.717948,4426.666666,4207.692307,4229.230769,4517.948717,4213.333333,4649.230769,3995.384616,4061.538461
246,4396.410256,4507.692307,4558.461538,4273.846153,4505.641025,4173.846153,4434.358974,4212.820512,4231.282051,4519.487179,4214.871794,4653.846153,3984.102565,4061.538461
247,4390.256410,4497.435897,4542.564102,4264.615384,4495.384615,4162.564102,4420.000000,4201.538461,4218.461538,4502.051282,4201.025641,4642.564102,3972.820513,4053.846153
248,4391.794871,4501.538461,4536.410256,4256.923076,4486.666666,4156.923076,4407.179487,4191.794871,4207.179487,4491.794871,4193.846153,4632.307692,3971.794872,4049.230769
249,4397.435897,4514.871794,4543.589743,4267.179487,4492.820512,4164.102564,4417.435897,4197.435897,4216.410256,4504.102564,4199.487179,4637.948717,3976.410257,4055.384615
250,4405.641025,4520.512820,4547.179487,4278.461538,4504.102564,4168.205128,4429.743589,4206.666666,4229.230769,4518.461538,4207.692307,4647.692307,3980.000000,4060.512820
251,4408.717948,4518.461538,4548.205128,4280.512820,4500.512820,4167.179487,4427.692307,4205.128205,4226.666666,4518.974358,4209.230769,4649.743589,3980.000000,4061.025641
252,4393.333333,4517.435897,4547.179487,4278.974358,4495.897435,4168.717948,4425.128205,4205.641025,4222.051282,4511.794871,4206.666666,4650.256410,3978.974359,4063.076923
253,4374.358974,4516.410256,4545.128205,4274.358974,4501.025641,4168.717948,4429.230769,4209.230769,4225.641025,4509.743589,4208.717948,4650.769230,3983.076924,4065.128205
254,4375.897435,4517.435897,4546.153846,4269.230769,4504.102564,4170.769230,4430.769230,4210.256410,4232.307692,4515.897435,4214.871794,4649.743589,3986.666667,4064.615384
255,4380.000000,4517.948717,4544.102564,4269.230769,4503.076923,4174.871794,4429.230769,4207.692307,4230.769230,4517.948717,4219.487179,4648.717948,3980.512821,4062.564102
