,AF3,F7,F3,FC5,T7,P7,O1,O2,P8,T8,FC6,F4,F8,AF4
0,4380.000000,4541.538461,4525.128205,4266.153846,4489.743589,4170.256410,4440.000000,4219.487179,4235.897435,4497.435897,4219.487179,4661.538461,4096.410256,4052.307692
1,4374.871794,4539.487179,4523.076923,4264.615384,4492.820512,4165.641025,4429.230769,4214.871794,4231.282051,4491.282051,4211.282051,4656.410256,4092.820512,4045.128205
2,4365.641025,4528.205128,4521.538461,4261.538461,4501.538461,4164.102564,4424.102564,4211.794871,4226.666666,4488.717948,4214.358974,4651.282051,4094.871794,4040.512820
3,4371.794871,4528.717948,4521.025641,4269.230769,4506.666666,4172.820512,4437.435897,4215.897435,4231.794871,4492.820512,4218.974358,4654.871794,4103.076923,4050.256410
4,4378.974358,4537.948717,4527.179487,4282.051282,4507.179487,4182.051282,4447.179487,4216.923076,4232.307692,4490.769230,4216.410256,4659.487179,4106.666666,4058.974358
5,4375.897435,4541.025641,4534.871794,4281.025641,4504.102564,4184.615384,4441.538461,4216.410256,4228.717948,4493.333333,4212.820512,4657.435897,4102.051282,4052.307692
6,4375.897435,4537.435897,4533.846153,4273.846153,4500.000000,4183.589743,4434.358974,4218.461538,4237.435897,4506.153846,4216.410256,4652.820512,4101.538461,4049.230769
7,4379.487179,4537.948717,4530.769230,4275.384615,4503.589743,4182.051282,4435.897435,4219.487179,4245.641025,4504.102564,4219.487179,4649.230769,4105.128205,4058.461538
8,4373.846153,4537.948717,4532.307692,4280.000000,4509.743589,4178.974358,4439.487179,4215.897435,4234.871794,4489.230769,4210.769230,4645.641025,4100.000000,4061.025641
9,4369.230769,4536.410256,4532.307692,4283.589743,4505.641025,4181.025641,4440.000000,4214.871794,4228.717948,4492.820512,4217.435897,4646.666666,4096.410256,4057.948717
10,4376.410256,4544.102564,4535.384615,4290.256410,4504.102564,4188.717948,4444.102564,4221.538461,4240.000000,4504.615384,4233.846153,4654.358974,4108.205128,4060.000000
11,4377.435897,4546.153846,4538.461538,4286.153846,4511.794871,4189.743589,4447.179487,4222.051282,4241.538461,4501.538461,4228.717948,4654.358974,4113.846153,4061.538461
12,4366.666666,4534.871794,4528.205128,4269.230769,4506.153846,4184.102564,4442.051282,4215.897435,4230.769230,4494.358974,4208.717948,4642.051282,4100.000000,4059.487179
13,4360.512820,4534.871794,4518.461538,4262.051282,4492.820512,4184.102564,4438.974358,4215.897435,4230.769230,4494.871794,4207.692307,4635.897435,4089.743589,4054.871794
14,4360.000000,4538.461538,4522.051282,4264.102564,4490.256410,4186.666666,4436.923076,4218.974358,4236.410256,4495.897435,4216.410256,4639.487179,4089.743589,4045.128205
15,4359.487179,4528.717948,4521.538461,4265.128205,4493.333333,4184.615384,4430.256410,4213.846153,4231.282051,4489.743589,4208.717948,4637.435897,4087.692307,4038.974358
16,4362.564102,4527.692307,4520.000000,4272.307692,4496.923076,4188.205128,4434.871794,4209.230769,4229.230769,4489.230769,4203.589743,4636.410256,4087.179487,4049.230769
17,4368.717948,4541.025641,4527.692307,4280.000000,4507.692307,4199.487179,4447.179487,4216.923076,4243.076923,4498.461538,4209.230769,4645.128205,4089.743589,4061.025641
18,4364.615384,4536.410256,4525.128205,4272.307692,4511.282051,4199.487179,4442.051282,4220.000000,4244.615384,4497.948717,4210.256410,4644.615384,4081.538461,4050.769230
19,4351.282051,4518.461538,4511.282051,4262.051282,4488.717948,4181.025641,4424.615384,4204.615384,4218.974358,4484.102564,4198.461538,4631.794871,4064.102564,4032.307692
20,4348.717948,4518.461538,4511.794871,4263.589743,4472.820512,4169.230769,4421.538461,4196.410256,4206.666666,4480.000000,4193.846153,4631.282051,4062.051282,4032.820512
21,4356.410256,4531.282051,4523.076923,4267.179487,4485.128205,4176.410256,4428.717948,4210.256410,4224.102564,4487.692307,4207.179487,4644.615384,4078.461538,4047.179487
22,4357.948717,4533.333333,4527.179487,4266.153846,4494.871794,4184.102564,4429.743589,4217.948717,4232.307692,4486.153846,4214.358974,4649.743589,4082.051282,4052.307692
23,4358.461538,4528.717948,4528.205128,4267.692307,4490.256410,4185.128205,4428.205128,4214.358974,4228.205128,4489.230769,4218.461538,4649.230769,4077.948717,4051.794871
24,4356.410256,4526.666666,4529.230769,4274.871794,4490.256410,4181.538461,4427.692307,4215.384615,4229.230769,4503.589743,4221.025641,4651.282051,4085.128205,4049.230769
25,4345.128205,4522.564102,4525.128205,4271.282051,4491.794871,4169.743589,4423.589743,4213.846153,4225.641025,4497.435897,4205.641025,4649.743589,4086.153846,4044.615384
26,4344.102564,4522.051282,4523.589743,4261.538461,4492.820512,4170.256410,4423.589743,4212.307692,4226.153846,4489.743589,4189.230769,4650.769230,4078.461538,4050.769230
27,4353.846153,4531.794871,4528.717948,4267.179487,4502.564102,4180.512820,4429.230769,4221.538461,4232.820512,4501.538461,4202.564102,4658.974358,4076.923076,4055.897435
28,4349.743589,4540.000000,4530.256410,4274.358974,4508.205128,4180.512820,4429.230769,4224.615384,4232.820512,4510.256410,4216.410256,4659.487179,4076.923076,4049.743589
29,4340.000000,4538.974358,4529.230769,4268.205128,4507.692307,4175.897435,4424.615384,4218.974358,4231.794871,4507.692307,4207.179487,4653.846153,4072.820512,4051.794871
30,4342.051282,4533.846153,4526.666666,4262.564102,4506.153846,4175.384615,4421.025641,4213.333333,4228.205128,4505.641025,4194.358974,4650.769230,4070.256410,4057.435897
31,4346.666666,4530.256410,4520.000000,4264.615384,4502.051282,4174.358974,4422.564102,4209.743589,4220.000000,4505.641025,4192.307692,4646.666666,4070.256410,4054.358974
32,4351.794871,4534.871794,4523.589743,4267.179487,4512.307692,4181.538461,4428.717948,4213.333333,4227.692307,4512.820512,4205.641025,4650.769230,4074.358974,4054.871794
33,4352.307692,4543.076923,4536.410256,4271.282051,4523.589743,4191.282051,4431.282051,4221.538461,4243.589743,4521.538461,4213.333333,4662.564102,4078.461538,4058.461538
34,4336.410256,4536.923076,4533.846153,4269.743589,4512.820512,4186.153846,4427.692307,4218.974358,4237.435897,4511.794871,4201.025641,4661.025641,4067.179487,4052.820512
35,4326.666666,4526.666666,4525.641025,4262.564102,4502.051282,4180.512820,4426.666666,4212.820512,4224.615384,4503.076923,4193.333333,4654.871794,4055.384615,4049.230769
36,4334.358974,4532.820512,4531.282051,4265.128205,4508.205128,4184.615384,4427.179487,4215.897435,4226.666666,4508.717948,4197.435897,4660.000000,4061.025641,4053.846153
37,4335.384615,4535.897435,4534.358974,4265.641025,4514.358974,4184.102564,4427.179487,4215.384615,4230.769230,4507.692307,4192.820512,4661.538461,4066.666666,4055.897435
38,4329.230769,4527.692307,4528.717948,4261.025641,4510.256410,4183.589743,4428.717948,4212.820512,4229.230769,4504.615384,4187.692307,4656.410256,4069.743589,4053.333333
39,4332.307692,4524.615384,4527.179487,4262.051282,4508.205128,4185.128205,4427.692307,4216.410256,4232.820512,4507.692307,4187.692307,4655.384615,4075.384615,4050.769230
40,4330.769230,4523.076923,4526.666666,4264.102564,4504.102564,4184.615384,4424.615384,4214.358974,4228.717948,4507.179487,4184.615384,4652.307692,4074.871794,4047.179487
41,4323.589743,4524.615384,4525.641025,4262.564102,4498.974358,4185.641025,4425.641025,4205.641025,4221.538461,4506.666666,4184.615384,4651.794871,4069.743589,4048.717948
42,4326.666666,4531.282051,4527.692307,4260.512820,4502.051282,4189.743589,4426.666666,4201.538461,4224.102564,4505.128205,4189.743589,4655.897435,4071.282051,4051.794871
43,4326.666666,4530.256410,4525.128205,4261.025641,4506.153846,4188.717948,4422.051282,4200.000000,4223.589743,4501.538461,4194.871794,4655.384615,4073.846153,4049.743589
44,4324.102564,4530.256410,4524.102564,4264.615384,4509.743589,4185.128205,4422.564102,4205.641025,4223.076923,4509.230769,4204.615384,4655.897435,4075.897435,4049.743589
45,4330.769230,4536.410256,4527.692307,4265.128205,4512.307692,4186.153846,4425.641025,4213.846153,4233.333333,4515.384615,4207.692307,4660.512820,4086.666666,4055.897435
46,4335.384615,4531.794871,4524.102564,4257.948717,4508.717948,4186.666666,4421.025641,4215.384615,4240.000000,4507.692307,4201.538461,4658.461538,4092.307692,4057.435897
47,4333.846153,4526.666666,4521.025641,4257.435897,4506.666666,4185.641025,4417.948717,4212.820512,4231.794871,4506.666666,4200.512820,4655.384615,4083.589743,4049.230769
48,4333.333333,4536.923076,4528.205128,4265.128205,4511.282051,4181.538461,4423.589743,4207.692307,4227.179487,4516.923076,4201.025641,4657.435897,4080.000000,4051.282051
49,4333.846153,4541.538461,4533.333333,4268.205128,4511.794871,4181.538461,4426.666666,4207.179487,4232.307692,4523.076923,4198.974358,4660.512820,4088.717948,4058.461538
50,4335.384615,4536.923076,4534.358974,4268.717948,4506.666666,4181.538461,4428.205128,4214.358974,4240.000000,4520.000000,4207.179487,4665.128205,4091.794871,4060.512820
51,4334.871794,4538.974358,4536.410256,4270.256410,4507.692307,4175.897435,4429.743589,4220.512820,4245.128205,4512.820512,4207.692307,4666.153846,4086.153846,4060.000000
52,4327.692307,4537.948717,4531.794871,4265.128205,4506.153846,4173.846153,4426.666666,4214.871794,4236.410256,4506.153846,4188.205128,4658.461538,4084.615384,4051.794871
53,4326.153846,4537.435897,4527.179487,4258.461538,4504.615384,4177.948717,4431.282051,4213.846153,4226.666666,4504.102564,4188.205128,4657.948717,4085.128205,4048.717948
54,4328.205128,4539.487179,4532.820512,4263.589743,4509.230769,4181.025641,4440.000000,4218.974358,4231.282051,4505.641025,4204.102564,4662.564102,4082.051282,4056.410256
55,4326.666666,4538.461538,4540.000000,4272.820512,4509.230769,4179.487179,4436.410256,4218.461538,4235.384615,4510.256410,4203.589743,4660.512820,4083.076923,4063.076923
56,4331.282051,4539.487179,4540.512820,4271.794871,4505.641025,4175.384615,4433.333333,4216.923076,4234.871794,4515.384615,4195.384615,4660.000000,4086.153846,4059.487179
57,4338.461538,4542.051282,4537.435897,4272.307692,4506.666666,4171.282051,4440.512820,4218.974358,4240.000000,4514.871794,4194.358974,4664.102564,4081.025641,4053.846153
58,4331.794871,4537.948717,4536.923076,4269.743589,4509.743589,4171.282051,4442.051282,4217.948717,4241.025641,4504.615384,4196.923076,4662.564102,4069.743589,4050.256410
59,4324.102564,4535.897435,4533.333333,4256.410256,4506.153846,4171.794871,4432.307692,4207.692307,4232.820512,4496.923076,4198.974358,4655.897435,4067.179487,4045.641025
60,4324.102564,4537.948717,4530.256410,4254.871794,4502.051282,4169.230769,4428.717948,4204.102564,4229.743589,4506.153846,4193.846153,4650.769230,4071.794871,4044.102564
61,4319.487179,4531.794871,4529.230769,4261.538461,4505.128205,4171.282051,4431.282051,4206.153846,4230.769230,4510.256410,4184.102564,4649.743589,4065.641025,4038.974358
62,4309.743589,4523.076923,4525.641025,4257.948717,4506.666666,4170.769230,4429.743589,4204.102564,4225.641025,4495.897435,4183.076923,4648.717948,4055.384615,4030.769230
63,4309.230769,4522.564102,4527.179487,4254.871794,4505.128205,4167.692307,4429.743589,4203.589743,4226.153846,4495.384615,4193.846153,4648.717948,4058.461538,4030.256410
64,4316.923076,4524.615384,4530.769230,4254.358974,4506.153846,4173.846153,4429.743589,4205.641025,4232.820512,4508.717948,4203.589743,4651.282051,4068.717948,4040.512820
65,4322.564102,4528.205128,4529.743589,4251.794871,4501.538461,4182.051282,4430.256410,4208.205128,4233.846153,4506.153846,4202.564102,4653.846153,4073.846153,4050.769230
66,4324.102564,4539.487179,4531.794871,4260.000000,4501.025641,4186.153846,4437.948717,4212.307692,4234.358974,4501.025641,4198.461538,4655.897435,4076.410256,4050.256410
67,4320.000000,4540.512820,4530.769230,4260.512820,4512.820512,4186.666666,4440.000000,4209.743589,4232.820512,4508.717948,4198.461538,4652.307692,4074.871794,4040.512820
68,4318.974358,4523.589743,4523.076923,4245.128205,4513.333333,4184.102564,4428.205128,4199.487179,4228.717948,4505.641025,4196.923076,4645.128205,4059.487179,4030.256410
69,4330.256410,4523.076923,4525.641025,4249.230769,4502.564102,4182.564102,4427.692307,4205.128205,4231.794871,4498.461538,4194.358974,4648.205128,4045.641025,4033.846153
70,4338.974358,4536.410256,4534.358974,4264.102564,4505.641025,4184.102564,4439.487179,4216.410256,4235.384615,4505.128205,4189.230769,4656.410256,4049.743589,4043.076923
71,4337.435897,4537.948717,4528.205128,4262.564102,4511.282051,4185.128205,4437.435897,4213.333333,4229.230769,4509.230769,4183.589743,4653.846153,4058.974358,4042.564102
72,4342.564102,4536.410256,4531.282051,4260.512820,4506.666666,4185.128205,4432.820512,4211.794871,4235.384615,4509.230769,4200.000000,4654.358974,4056.410256,4042.564102
73,4353.333333,4538.974358,4542.564102,4264.615384,4505.641025,4184.102564,4434.358974,4217.435897,4247.179487,4510.769230,4216.923076,4665.641025,4051.282051,4049.743589
74,4352.820512,4536.410256,4537.435897,4265.641025,4507.692307,4182.564102,4428.717948,4218.461538,4238.974358,4507.692307,4209.230769,4665.128205,4055.384615,4050.256410
75,4348.717948,4537.435897,4533.333333,4263.589743,4506.666666,4190.256410,4431.282051,4215.384615,4236.410256,4500.000000,4198.974358,4656.923076,4057.435897,4043.076923
76,4349.230769,4543.589743,4541.538461,4265.128205,4506.153846,4198.461538,4443.076923,4217.948717,4244.615384,4502.051282,4202.051282,4658.461538,4055.897435,4044.615384
77,4338.974358,4536.410256,4539.487179,4266.153846,4507.692307,4193.846153,4441.025641,4220.000000,4241.025641,4510.769230,4206.666666,4661.025641,4056.923076,4047.179487
78,4324.102564,4522.564102,4527.179487,4259.487179,4509.230769,4185.128205,4428.717948,4210.256410,4229.743589,4504.615384,4199.487179,4653.846153,4052.307692,4037.948717
79,4323.589743,4521.538461,4526.153846,4260.000000,4503.076923,4185.641025,4425.128205,4204.615384,4227.692307,4494.358974,4186.666666,4650.256410,4045.128205,4034.358974
80,4329.743589,4532.307692,4536.923076,4265.641025,4499.487179,4195.384615,4435.384615,4215.384615,4235.897435,4500.512820,4189.230769,4658.461538,4043.589743,4043.589743
81,4329.230769,4535.897435,4541.538461,4262.564102,4503.076923,4200.000000,4444.615384,4221.538461,4244.102564,4510.256410,4198.461538,4663.076923,4043.076923,4047.179487
82,4330.769230,4533.333333,4537.435897,4259.487179,4501.538461,4200.000000,4438.974358,4217.435897,4241.538461,4512.820512,4199.487179,4661.025641,4046.666666,4045.128205
83,4333.333333,4530.769230,4532.820512,4260.512820,4500.512820,4201.025641,4429.743589,4216.923076,4234.358974,4509.230769,4198.461538,4658.461538,4049.743589,4046.153846
84,4321.538461,4522.051282,4525.641025,4251.794871,4504.615384,4194.358974,4427.179487,4212.820512,4230.256410,4495.384615,4194.358974,4650.256410,4034.358974,4041.538461
85,4309.230769,4516.923076,4518.461538,4246.153846,4498.461538,4187.179487,4426.666666,4203.589743,4222.564102,4484.615384,4184.102564,4638.461538,4015.897435,4029.743589
86,4320.512820,4523.076923,4525.128205,4253.846153,4488.205128,4193.846153,4428.205128,4209.230769,4224.102564,4496.923076,4188.205128,4642.051282,4027.179487,4030.769230
87,4330.256410,4529.230769,4536.923076,4262.564102,4496.923076,4204.615384,4433.846153,4219.487179,4242.051282,4512.307692,4203.589743,4653.333333,4051.794871,4046.666666
88,4320.512820,4525.641025,4534.358974,4261.025641,4506.153846,4202.564102,4431.794871,4218.461538,4250.256410,4511.282051,4205.641025,4654.358974,4045.641025,4051.282051
89,4309.743589,4523.076923,4523.589743,4251.794871,4502.051282,4192.307692,4424.102564,4210.256410,4235.897435,4500.000000,4195.384615,4647.692307,4020.512820,4038.974358
90,4304.615384,4523.589743,4522.051282,4247.179487,4494.871794,4187.692307,4424.102564,4207.179487,4223.589743,4495.897435,4189.230769,4645.641025,4020.000000,4032.307692
91,4302.564102,4526.153846,4525.641025,4248.717948,4489.230769,4196.923076,4429.743589,4212.820512,4228.205128,4500.000000,4194.871794,4648.205128,4035.897435,4036.923076
92,4301.025641,4527.692307,4522.051282,4248.205128,4496.410256,4201.538461,4431.282051,4218.461538,4234.871794,4499.487179,4203.589743,4646.666666,4033.333333,4038.461538
93,4298.461538,4524.102564,4520.512820,4252.820512,4507.179487,4188.205128,4427.692307,4216.923076,4230.256410,4494.871794,4200.000000,4644.615384,4023.589743,4035.384615
94,4294.358974,4522.051282,4522.051282,4258.974358,4498.461538,4180.512820,4426.153846,4211.794871,4228.717948,4494.871794,4192.307692,4647.179487,4025.641025,4034.871794
95,4296.410256,4525.641025,4521.025641,4255.897435,4487.692307,4187.179487,4427.692307,4210.256410,4232.307692,4493.846153,4193.846153,4647.692307,4023.076923,4032.820512
96,4300.512820,4528.205128,4522.051282,4252.820512,4499.487179,4191.794871,4428.717948,4212.307692,4231.794871,4488.205128,4204.102564,4644.102564,4018.461538,4034.358974
97,4297.435897,4526.153846,4524.615384,4254.358974,4509.743589,4189.230769,4426.666666,4211.794871,4231.282051,4488.205128,4203.589743,4643.589743,4027.692307,4039.487179
98,4293.846153,4530.256410,4520.000000,4256.410256,4503.076923,4184.615384,4425.128205,4207.692307,4233.333333,4495.897435,4188.205128,4644.615384,4037.435897,4041.025641
99,4296.410256,4533.846153,4520.512820,4260.000000,4500.512820,4183.076923,4426.153846,4209.230769,4233.846153,4499.487179,4192.820512,4646.666666,4031.282051,4040.512820
100,4301.538461,4530.256410,4528.717948,4263.076923,4506.153846,4184.615384,4428.717948,4214.358974,4233.846153,4503.076923,4218.974358,4650.256410,4024.102564,4042.564102
101,4300.000000,4532.307692,4528.205128,4260.512820,4507.179487,4189.230769,4429.230769,4214.358974,4238.974358,4505.128205,4220.000000,4652.307692,4031.282051,4045.641025
102,4303.589743,4540.512820,4527.179487,4260.512820,4505.641025,4199.487179,4432.307692,4216.923076,4242.564102,4500.000000,4202.564102,4652.307692,4044.615384,4043.589743
103,4310.256410,4540.512820,4528.205128,4266.153846,4502.051282,4200.000000,4432.820512,4217.948717,4236.410256,4497.948717,4198.974358,4652.820512,4048.205128,4042.564102
104,4304.102564,4538.461538,4528.205128,4269.230769,4500.000000,4187.692307,4427.179487,4213.333333,4231.282051,4500.512820,4204.615384,4653.846153,4047.692307,4049.743589
105,4294.358974,4541.025641,4529.743589,4269.743589,4508.205128,4184.615384,4426.666666,4211.282051,4231.794871,4497.948717,4207.179487,4651.794871,4050.769230,4052.820512
106,4292.820512,4535.897435,4527.692307,4261.538461,4508.205128,4186.666666,4427.692307,4212.820512,4232.307692,4491.282051,4201.025641,4647.179487,4054.871794,4043.589743
107,4295.384615,4532.820512,4522.564102,4254.871794,4492.820512,4184.102564,4425.128205,4214.358974,4231.282051,4489.743589,4191.794871,4647.692307,4057.435897,4040.512820
108,4301.538461,4539.487179,4524.615384,4260.512820,4490.769230,4193.333333,4432.307692,4215.384615,4231.282051,4495.897435,4202.051282,4653.333333,4060.512820,4049.743589
109,4307.179487,4538.974358,4530.769230,4267.692307,4504.615384,4203.076923,4444.615384,4216.923076,4234.358974,4503.076923,4218.461538,4653.846153,4062.051282,4048.717948
110,4301.538461,4528.717948,4523.589743,4264.615384,4509.743589,4192.820512,4438.974358,4217.948717,4240.000000,4497.948717,4212.307692,4647.692307,4062.564102,4037.948717
111,4292.307692,4522.051282,4514.871794,4258.974358,4501.025641,4180.512820,4421.538461,4212.820512,4231.794871,4485.641025,4197.435897,4644.102564,4064.615384,4037.435897
112,4294.358974,4524.615384,4515.897435,4258.461538,4490.769230,4182.564102,4419.487179,4207.179487,4219.487179,4487.179487,4197.948717,4644.615384,4065.641025,4044.102564
113,4299.487179,4533.333333,4520.512820,4259.487179,4486.153846,4186.666666,4426.153846,4209.230769,4227.179487,4495.897435,4210.256410,4647.692307,4064.615384,4045.128205
114,4297.948717,4534.871794,4524.102564,4264.102564,4490.769230,4186.153846,4428.717948,4214.871794,4235.897435,4498.974358,4213.333333,4650.256410,4067.692307,4042.051282
115,4295.384615,4525.128205,4520.512820,4263.076923,4494.358974,4179.487179,4426.153846,4216.923076,4232.820512,4499.487179,4203.589743,4648.717948,4074.358974,4044.615384
116,4291.794871,4519.487179,4510.769230,4250.256410,4487.692307,4168.205128,4418.461538,4213.846153,4230.769230,4495.384615,4198.461538,4643.076923,4070.256410,4044.615384
117,4288.717948,4521.025641,4508.205128,4242.564102,4482.051282,4165.641025,4418.461538,4206.153846,4228.717948,4487.179487,4204.102564,4638.974358,4060.000000,4036.923076
118,4294.871794,4526.666666,4512.820512,4253.846153,4490.769230,4170.769230,4428.205128,4204.615384,4224.615384,4487.179487,4205.128205,4644.615384,4064.102564,4035.384615
119,4306.666666,4533.846153,4516.410256,4266.666666,4497.948717,4169.743589,4431.794871,4213.333333,4228.205128,4494.358974,4199.487179,4651.794871,4070.256410,4043.589743
120,4311.282051,4538.461538,4518.974358,4265.128205,4494.358974,4169.743589,4428.205128,4219.487179,4235.897435,4496.923076,4205.128205,4655.384615,4065.128205,4048.717948
121,4306.666666,4539.487179,4519.487179,4259.487179,4494.358974,4172.307692,4427.179487,4217.948717,4240.000000,4492.307692,4207.179487,4656.410256,4061.538461,4044.102564
122,4306.153846,4533.846153,4517.948717,4261.538461,4495.897435,4170.256410,4432.307692,4212.820512,4233.333333,4489.230769,4200.000000,4651.794871,4058.461538,4038.974358
123,4310.256410,4527.692307,4515.384615,4265.641025,4494.871794,4174.871794,4434.871794,4208.717948,4223.076923,4491.282051,4196.923076,4646.153846,4053.846153,4036.923076
124,4308.205128,4535.897435,4516.923076,4264.615384,4499.487179,4184.615384,4433.846153,4213.846153,4228.205128,4492.307692,4201.025641,4649.743589,4051.794871,4036.923076
125,4297.948717,4537.948717,4515.897435,4259.487179,4501.025641,4180.000000,4430.769230,4216.410256,4232.307692,4484.102564,4198.461538,4650.769230,4046.666666,4036.923076
126,4290.769230,4524.615384,4511.282051,4262.564102,4491.282051,4167.692307,4427.692307,4208.717948,4223.589743,4474.871794,4200.000000,4644.615384,4037.948717,4035.897435
127,4297.948717,4528.205128,4515.384615,4270.769230,4487.179487,4167.179487,4428.717948,4210.256410,4225.641025,4484.615384,4209.743589,4650.256410,4044.102564,4041.025641
128,4303.589743,4544.102564,4526.153846,4270.769230,4496.410256,4172.820512,4435.384615,4217.948717,4237.435897,4503.076923,4210.256410,4659.487179,4054.871794,4051.282051
129,4299.487179,4545.641025,4527.692307,4268.205128,4503.589743,4174.871794,4439.487179,4218.461538,4242.051282,4510.256410,4209.230769,4660.000000,4056.923076,4051.282051
130,4294.871794,4535.897435,4522.051282,4268.205128,4505.641025,4174.358974,4438.461538,4217.948717,4239.487179,4507.179487,4213.333333,4660.512820,4061.025641,4042.564102
131,4290.769230,4530.256410,4517.435897,4267.179487,4508.205128,4169.743589,4432.307692,4216.410256,4233.846153,4495.897435,4208.205128,4657.435897,4063.589743,4041.538461
132,4281.538461,4532.307692,4513.846153,4264.615384,4504.615384,4163.589743,4428.205128,4212.307692,4228.717948,4486.153846,4194.871794,4649.743589,4055.384615,4043.589743
133,4283.076923,4538.974358,4514.358974,4263.589743,4492.820512,4166.666666,4433.333333,4216.410256,4231.794871,4491.282051,4195.384615,4652.820512,4052.820512,4045.641025
134,4295.384615,4541.025641,4523.589743,4266.153846,4489.230769,4174.871794,4437.948717,4218.974358,4235.897435,4495.384615,4208.717948,4662.051282,4056.410256,4047.179487
135,4288.717948,4534.871794,4524.102564,4271.282051,4497.435897,4172.820512,4430.256410,4209.230769,4233.333333,4489.230769,4209.230769,4661.025641,4048.717948,4038.461538
136,4274.871794,4533.333333,4513.846153,4269.230769,4496.923076,4166.666666,4419.487179,4200.512820,4230.769230,4491.282051,4196.923076,4653.846153,4042.051282,4034.358974
137,4278.974358,4536.923076,4511.794871,4261.025641,4489.230769,4168.717948,4421.025641,4201.538461,4228.717948,4490.256410,4193.333333,4651.282051,4044.102564,4048.205128
138,4285.128205,4533.333333,4517.948717,4264.615384,4491.282051,4174.871794,4425.641025,4203.589743,4228.717948,4478.974358,4203.589743,4651.794871,4043.076923,4053.333333
139,4287.179487,4523.589743,4514.358974,4267.179487,4491.794871,4171.794871,4418.974358,4200.512820,4225.128205,4481.538461,4204.615384,4650.769230,4040.512820,4040.512820
140,4283.076923,4521.025641,4510.256410,4262.564102,4488.205128,4163.076923,4410.769230,4198.974358,4217.948717,4488.717948,4198.461538,4645.641025,4041.538461,4038.974358
141,4273.333333,4530.256410,4515.897435,4262.564102,4489.743589,4163.589743,4413.846153,4203.076923,4221.025641,4485.128205,4196.923076,4645.128205,4040.512820,4045.641025
142,4295.897435,4537.435897,4517.948717,4265.128205,4492.307692,4168.205128,4420.512820,4204.615384,4227.179487,4483.589743,4199.487179,4653.333333,4041.538461,4048.205128
143,4273.333333,4532.307692,4509.743589,4264.615384,4489.743589,4161.538461,4418.974358,4201.025641,4221.538461,4483.076923,4201.025641,4651.282051,4043.589743,4047.179487
144,4134.871794,4522.564102,4502.051282,4261.538461,4485.641025,4149.743589,4413.333333,4195.384615,4212.307692,4477.948717,4196.923076,4635.384615,4030.769230,4035.897435
145,4048.717948,4521.025641,4505.641025,4260.000000,4486.153846,4152.307692,4413.846153,4195.897435,4213.846153,4482.564102,4193.846153,4634.358974,4020.512820,4029.230769
146,4106.153846,4528.205128,4512.307692,4264.615384,4495.384615,4158.461538,4421.538461,4200.512820,4220.000000,4494.871794,4192.820512,4647.692307,4033.846153,4041.025641
147,4148.717948,4524.615384,4510.256410,4262.051282,4501.025641,4152.820512,4427.179487,4201.538461,4223.076923,4496.410256,4190.256410,4645.128205,4046.153846,4049.230769
148,4128.717948,4521.025641,4507.692307,4248.717948,4498.974358,4154.871794,4425.641025,4202.564102,4229.230769,4500.512820,4193.333333,4637.948717,4042.051282,4039.487179
149,4140.512820,4532.820512,4513.846153,4251.794871,4503.589743,4166.666666,4427.179487,4211.282051,4236.923076,4513.846153,4204.615384,4648.205128,4041.025641,4037.948717
150,4160.512820,4534.871794,4518.461538,4265.641025,4511.794871,4170.769230,4432.307692,4217.948717,4239.487179,4518.461538,4203.076923,4654.358974,4045.128205,4049.230769
151,4157.435897,4527.179487,4516.410256,4266.153846,4509.743589,4175.897435,4432.820512,4215.384615,4236.923076,4510.769230,4188.717948,4646.666666,4042.564102,4052.820512
152,4158.974358,4531.794871,4513.333333,4258.461538,4507.692307,4183.076923,4428.717948,4211.282051,4230.769230,4506.153846,4185.128205,4645.641025,4035.897435,4046.153846
153,4155.384615,4532.307692,4506.666666,4250.256410,4510.769230,4174.358974,4420.512820,4207.179487,4223.076923,4509.743589,4185.128205,4646.153846,4031.794871,4033.333333
154,4153.846153,4523.076923,4500.512820,4246.153846,4506.153846,4164.102564,4415.384615,4202.564102,4217.435897,4506.666666,4179.487179,4640.512820,4030.256410,4029.230769
155,4166.153846,4527.179487,4506.666666,4253.846153,4503.589743,4175.384615,4422.051282,4199.487179,4214.358974,4500.512820,4176.410256,4643.076923,4031.794871,4039.487179
156,4177.435897,4538.461538,4517.435897,4261.538461,4506.666666,4187.179487,4429.743589,4206.666666,4221.538461,4511.282051,4188.717948,4653.333333,4037.948717,4049.230769
157,4175.384615,4537.435897,4517.435897,4262.051282,4507.692307,4185.128205,4430.256410,4214.871794,4230.256410,4523.076923,4197.948717,4652.307692,4043.589743,4045.641025
158,4170.769230,4530.256410,4509.230769,4258.461538,4506.153846,4185.128205,4426.153846,4208.717948,4223.589743,4510.256410,4185.641025,4640.512820,4038.461538,4031.794871
159,4172.307692,4524.615384,4505.128205,4252.307692,4504.102564,4188.205128,4425.641025,4198.461538,4212.820512,4499.487179,4178.461538,4639.487179,4035.384615,4027.692307
160,4172.820512,4520.512820,4511.282051,4247.179487,4505.128205,4187.179487,4427.692307,4198.974358,4213.846153,4510.769230,4182.051282,4647.179487,4037.435897,4035.897435
161,4170.769230,4523.589743,4515.384615,4248.717948,4505.641025,4185.128205,4426.666666,4201.025641,4215.897435,4513.333333,4180.000000,4649.230769,4033.846153,4040.000000
162,4171.282051,4524.615384,4513.333333,4253.846153,4506.666666,4185.128205,4426.666666,4198.461538,4211.794871,4504.102564,4178.461538,4647.692307,4029.743589,4032.307692
163,4171.282051,4518.461538,4510.256410,4250.769230,4501.025641,4179.487179,4426.666666,4198.461538,4204.102564,4500.000000,4177.435897,4643.076923,4032.307692,4023.589743
164,4171.282051,4522.051282,4509.230769,4249.230769,4494.358974,4176.923076,4427.179487,4198.461538,4202.564102,4504.615384,4172.307692,4638.974358,4035.384615,4027.692307
165,4171.794871,4533.333333,4511.282051,4255.384615,4499.487179,4182.564102,4428.717948,4203.589743,4217.948717,4512.307692,4177.435897,4642.051282,4037.435897,4036.923076
166,4172.307692,4529.230769,4513.846153,4255.897435,4507.692307,4186.153846,4428.717948,4207.179487,4228.717948,4511.282051,4188.717948,4644.102564,4039.487179,4037.435897
167,4172.307692,4523.589743,4511.282051,4249.230769,4507.692307,4185.641025,4427.179487,4202.564102,4217.435897,4509.743589,4187.692307,4638.461538,4041.538461,4031.794871
168,4170.256410,4532.307692,4510.769230,4246.666666,4506.153846,4186.666666,4427.179487,4200.512820,4210.256410,4516.923076,4182.051282,4637.948717,4042.564102,4027.692307
169,4172.307692,4534.871794,4514.871794,4252.307692,4512.307692,4186.666666,4426.666666,4201.538461,4214.871794,4515.384615,4180.512820,4644.615384,4045.128205,4031.794871
170,4182.051282,4532.820512,4514.871794,4260.000000,4513.846153,4189.743589,4427.179487,4201.025641,4215.384615,4502.051282,4184.102564,4646.153846,4049.230769,4040.000000
171,4187.179487,4538.974358,4514.358974,4258.974358,4511.282051,4198.974358,4430.256410,4202.564102,4217.948717,4504.615384,4191.282051,4646.153846,4048.205128,4041.025641
172,4183.589743,4542.051282,4515.897435,4256.923076,4513.846153,4206.153846,4430.256410,4204.102564,4222.564102,4520.000000,4189.743589,4648.717948,4041.025641,4032.307692
173,4184.102564,4534.358974,4517.948717,4258.461538,4512.820512,4199.487179,4427.692307,4203.076923,4221.538461,4518.974358,4180.512820,4650.769230,4047.179487,4032.820512
174,4187.179487,4530.256410,4516.410256,4253.333333,4506.666666,4193.846153,4427.179487,4202.564102,4217.435897,4512.307692,4177.435897,4646.666666,4064.102564,4037.948717
175,4184.615384,4530.769230,4511.282051,4247.692307,4504.102564,4195.384615,4427.692307,4203.076923,4216.923076,4513.846153,4186.666666,4642.051282,4062.564102,4031.794871
176,4183.589743,4526.153846,4510.256410,4253.333333,4506.666666,4193.333333,4427.692307,4201.538461,4214.358974,4510.769230,4192.820512,4642.051282,4044.102564,4019.487179
177,4191.282051,4521.025641,4514.871794,4252.820512,4506.153846,4185.641025,4426.666666,4205.128205,4215.384615,4505.128205,4183.076923,4644.102564,4032.307692,4017.948717
178,4200.512820,4527.692307,4520.000000,4246.153846,4506.153846,4185.128205,4429.230769,4211.794871,4225.641025,4510.769230,4177.435897,4647.179487,4035.897435,4031.794871
179,4202.564102,4533.846153,4515.897435,4248.205128,4510.256410,4188.205128,4430.256410,4208.205128,4223.589743,4514.871794,4187.692307,4646.153846,4043.589743,4036.410256
180,4198.461538,4524.615384,4510.256410,4247.179487,4507.179487,4182.051282,4418.461538,4195.897435,4207.692307,4505.128205,4185.641025,4638.461538,4043.589743,4023.589743
181,4197.948717,4517.435897,4514.358974,4246.666666,4504.102564,4179.487179,4412.307692,4193.846153,4205.641025,4498.974358,4176.923076,4640.512820,4039.487179,4021.025641
182,4206.153846,4527.179487,4520.512820,4252.307692,4505.128205,4184.615384,4424.102564,4201.538461,4219.487179,4500.000000,4188.717948,4650.769230,4036.410256,4033.846153
183,4214.358974,4534.358974,4519.487179,4251.794871,4505.128205,4185.128205,4432.307692,4202.564102,4225.128205,4503.076923,4197.948717,4655.384615,4038.461538,4035.897435
184,4210.769230,4528.717948,4516.410256,4247.692307,4507.692307,4184.615384,4429.230769,4201.538461,4222.051282,4508.717948,4188.717948,4654.358974,4042.564102,4029.230769
185,4201.025641,4518.974358,4514.871794,4247.692307,4507.179487,4184.615384,4428.717948,4202.564102,4218.974358,4510.769230,4185.128205,4650.256410,4039.487179,4026.666666
186,4201.538461,4517.948717,4507.692307,4247.692307,4493.846153,4178.974358,4429.230769,4201.025641,4209.743589,4503.589743,4186.153846,4645.128205,4032.307692,4023.076923
187,4204.102564,4523.076923,4504.102564,4251.282051,4489.743589,4176.410256,4424.615384,4200.000000,4204.615384,4495.897435,4173.846153,4645.128205,4034.358974,4019.487179
188,4203.076923,4523.589743,4509.230769,4256.410256,4501.025641,4183.589743,4424.102564,4198.461538,4209.743589,4497.948717,4170.256410,4645.641025,4036.923076,4018.461538
189,4207.179487,4520.512820,4512.820512,4251.282051,4503.076923,4188.205128,4427.179487,4197.435897,4216.923076,4505.128205,4186.153846,4641.538461,4036.410256,4021.025641
190,4215.384615,4525.128205,4519.487179,4251.282051,4502.564102,4188.205128,4430.769230,4203.076923,4220.000000,4506.153846,4190.256410,4646.153846,4046.153846,4031.282051
191,4220.512820,4535.897435,4525.641025,4262.564102,4510.769230,4187.692307,4432.820512,4204.102564,4219.487179,4504.102564,4185.128205,4655.384615,4051.282051,4041.538461
192,4216.923076,4530.769230,4520.512820,4261.025641,4508.205128,4185.641025,4432.820512,4199.487179,4218.461538,4505.641025,4186.666666,4652.820512,4040.000000,4038.461538
193,4215.384615,4518.974358,4516.410256,4255.897435,4500.512820,4187.692307,4435.897435,4203.076923,4218.974358,4501.025641,4184.615384,4649.743589,4035.897435,4032.307692
194,4223.076923,4523.076923,4521.538461,4258.461538,4506.153846,4192.307692,4444.102564,4209.230769,4223.589743,4496.923076,4181.025641,4656.923076,4046.666666,4036.923076
195,4225.128205,4529.230769,4522.564102,4252.307692,4512.820512,4188.205128,4443.076923,4207.179487,4221.538461,4502.564102,4183.076923,4658.974358,4047.179487,4035.897435
196,4221.538461,4524.102564,4516.410256,4243.076923,4500.000000,4181.025641,4432.820512,4200.000000,4213.846153,4504.615384,4183.076923,4650.769230,4038.461538,4028.205128
197,4226.666666,4520.512820,4513.333333,4248.205128,4489.743589,4181.538461,4433.846153,4202.564102,4219.487179,4501.025641,4184.102564,4650.256410,4043.589743,4028.717948
198,4234.871794,4521.025641,4515.897435,4254.358974,4500.512820,4184.615384,4443.589743,4210.256410,4230.769230,4500.000000,4188.205128,4658.461538,4054.871794,4031.282051
199,4233.333333,4522.051282,4520.000000,4253.333333,4504.615384,4185.128205,4443.076923,4206.666666,4226.153846,4500.512820,4187.179487,4657.435897,4057.948717,4029.743589
200,4229.743589,4524.102564,4517.435897,4248.205128,4493.846153,4184.102564,4433.333333,4198.461538,4214.358974,4500.000000,4185.128205,4650.256410,4063.076923,4028.205128
201,4231.794871,4522.051282,4512.307692,4246.666666,4497.435897,4184.615384,4431.794871,4198.461538,4211.794871,4501.025641,4192.820512,4650.769230,4068.205128,4028.205128
202,4235.897435,4522.564102,4514.358974,4260.512820,4509.230769,4192.307692,4440.000000,4205.128205,4222.564102,4503.589743,4206.666666,4655.897435,4070.256410,4032.307692
203,4235.897435,4524.615384,4514.358974,4266.666666,4505.641025,4198.974358,4436.410256,4203.589743,4228.717948,4502.564102,4200.512820,4653.333333,4077.435897,4034.871794
204,4232.820512,4522.051282,4510.256410,4251.282051,4501.025641,4198.461538,4425.641025,4198.461538,4221.025641,4502.051282,4185.128205,4649.743589,4086.153846,4030.256410
205,4241.538461,4531.794871,4513.846153,4251.282051,4509.743589,4200.512820,4433.333333,4207.179487,4221.025641,4508.205128,4200.000000,4657.435897,4091.282051,4037.948717
206,4251.794871,4541.025641,4520.512820,4264.102564,4510.769230,4201.025641,4443.589743,4212.820512,4227.179487,4515.897435,4216.410256,4662.051282,4091.794871,4048.717948
207,4245.128205,4529.230769,4513.846153,4260.000000,4496.410256,4189.230769,4437.435897,4201.025641,4220.512820,4512.307692,4203.589743,4655.897435,4081.538461,4038.974358
208,4243.589743,4525.128205,4511.282051,4255.897435,4489.743589,4182.051282,4435.897435,4198.974358,4212.820512,4504.102564,4201.025641,4655.897435,4076.410256,4032.820512
209,4260.000000,4541.025641,4521.538461,4264.102564,4503.589743,4189.230769,4445.128205,4212.307692,4221.025641,4503.076923,4212.307692,4665.641025,4083.589743,4041.538461
210,4258.974358,4538.974358,4520.512820,4265.128205,4511.794871,4188.717948,4445.128205,4208.205128,4220.000000,4495.384615,4203.589743,4664.102564,4084.615384,4040.000000
211,4247.179487,4522.564102,4513.333333,4258.974358,4497.435897,4180.512820,4435.897435,4194.871794,4208.205128,4485.128205,4194.358974,4652.307692,4078.461538,4032.307692
212,4255.897435,4523.589743,4516.923076,4256.410256,4491.794871,4183.076923,4434.871794,4199.487179,4212.820512,4489.743589,4204.615384,4652.820512,4083.589743,4037.435897
213,4261.025641,4525.641025,4516.410256,4251.794871,4500.000000,4187.179487,4433.333333,4203.589743,4218.461538,4493.846153,4202.564102,4656.923076,4082.564102,4036.923076
214,4249.230769,4517.948717,4509.230769,4245.641025,4494.871794,4184.615384,4423.076923,4192.307692,4206.666666,4487.692307,4185.128205,4650.256410,4071.794871,4022.564102
215,4245.641025,4518.461538,4511.282051,4247.692307,4488.205128,4183.589743,4419.487179,4190.769230,4202.564102,4489.230769,4183.076923,4648.717948,4080.512820,4023.076923
216,4251.282051,4525.641025,4517.435897,4255.897435,4499.487179,4187.692307,4429.230769,4203.076923,4218.974358,4497.948717,4198.974358,4659.487179,4093.333333,4036.410256
217,4252.307692,4523.589743,4511.794871,4255.897435,4508.717948,4188.205128,4432.820512,4206.666666,4226.153846,4496.923076,4203.076923,4657.948717,4086.153846,4034.358974
218,4245.128205,4512.307692,4506.666666,4239.487179,4493.846153,4184.615384,4429.230769,4198.974358,4216.410256,4488.717948,4193.333333,4644.615384,4073.846153,4019.487179
219,4236.410256,4504.102564,4504.102564,4228.205128,4483.076923,4181.025641,4426.666666,4195.897435,4208.717948,4483.076923,4191.282051,4641.025641,4071.794871,4016.410256
220,4237.948717,4509.743589,4504.102564,4239.487179,4490.256410,4175.384615,4426.666666,4198.974358,4208.717948,4481.538461,4196.923076,4645.641025,4075.897435,4024.102564
221,4244.102564,4522.051282,4509.743589,4250.769230,4491.282051,4171.794871,4428.717948,4199.487179,4214.358974,4486.153846,4201.538461,4648.205128,4076.410256,4029.743589
222,4235.897435,4517.435897,4509.230769,4249.743589,4487.692307,4168.205128,4424.615384,4192.307692,4214.871794,4494.358974,4199.487179,4646.666666,4072.820512,4026.666666
223,4227.692307,4507.692307,4503.076923,4246.153846,4489.743589,4167.692307,4421.538461,4183.589743,4206.666666,4490.256410,4190.256410,4643.076923,4068.717948,4014.871794
224,4238.461538,4517.435897,4508.717948,4247.179487,4493.846153,4175.384615,4427.692307,4189.230769,4207.692307,4483.076923,4189.230769,4646.666666,4073.846153,4021.025641
225,4251.282051,4531.794871,4520.000000,4255.897435,4495.384615,4180.512820,4434.358974,4202.564102,4219.487179,4492.307692,4204.102564,4654.871794,4080.512820,4041.538461
226,4248.205128,4527.179487,4516.923076,4263.076923,4491.794871,4173.846153,4429.743589,4198.974358,4214.871794,4494.358974,4209.230769,4651.282051,4077.948717,4042.564102
227,4242.051282,4521.538461,4505.641025,4259.487179,4490.256410,4169.743589,4423.076923,4187.179487,4200.000000,4480.512820,4196.923076,4642.564102,4070.256410,4029.743589
228,4245.641025,4526.666666,4503.076923,4249.743589,4494.358974,4171.794871,4418.461538,4185.641025,4202.051282,4478.974358,4190.769230,4642.051282,4063.589743,4025.128205
229,4249.230769,4523.076923,4508.717948,4246.666666,4494.871794,4167.692307,4413.846153,4186.153846,4213.846153,4490.769230,4193.333333,4645.641025,4062.564102,4029.230769
230,4248.205128,4522.051282,4515.384615,4255.384615,4489.230769,4168.717948,4418.974358,4184.102564,4215.897435,4493.333333,4198.974358,4651.282051,4068.717948,4036.923076
231,4251.794871,4535.384615,4513.846153,4266.153846,4496.410256,4183.076923,4427.692307,4191.282051,4216.923076,4489.230769,4205.128205,4656.923076,4075.897435,4043.589743
232,4252.307692,4535.384615,4512.307692,4265.128205,4502.051282,4185.641025,4430.769230,4196.410256,4221.538461,4491.794871,4196.923076,4655.384615,4073.333333,4040.512820
233,4250.256410,4526.153846,4514.358974,4260.512820,4496.410256,4178.461538,4427.692307,4190.256410,4218.974358,4491.794871,4184.102564,4649.230769,4067.692307,4034.358974
234,4251.794871,4528.205128,4513.333333,4262.051282,4494.871794,4179.487179,4425.641025,4187.179487,4211.282051,4487.179487,4191.794871,4649.743589,4066.666666,4039.487179
235,4250.769230,4531.282051,4513.846153,4256.410256,4492.307692,4183.589743,4426.666666,4190.256410,4213.333333,4486.666666,4205.641025,4653.846153,4068.717948,4045.641025
236,4249.230769,4529.743589,4518.974358,4255.897435,4487.692307,4186.666666,4430.769230,4195.384615,4221.025641,4500.000000,4208.717948,4654.358974,4076.410256,4047.179487
237,4250.769230,4528.205128,4518.461538,4264.102564,4491.794871,4187.179487,4434.871794,4202.051282,4224.102564,4510.769230,4208.205128,4653.333333,4074.871794,4045.128205
238,4248.205128,4523.589743,4511.794871,4255.384615,4494.358974,4176.410256,4428.205128,4197.948717,4220.512820,4492.820512,4203.589743,4650.769230,4052.307692,4036.410256
239,4246.153846,4518.461538,4509.743589,4246.666666,4491.282051,4166.666666,4422.051282,4185.641025,4211.282051,4471.282051,4198.461538,4650.256410,4042.051282,4033.846153
240,4245.641025,4513.333333,4506.153846,4252.820512,4487.692307,4163.589743,4424.102564,4185.641025,4205.641025,4472.820512,4198.461538,4647.692307,4050.256410,4035.897435
241,4235.384615,4508.717948,4497.948717,4248.205128,4478.974358,4161.025641,4422.051282,4189.743589,4203.589743,4481.025641,4197.435897,4641.025641,4041.538461,4028.205128
242,4233.846153,4516.923076,4503.076923,4243.589743,4470.769230,4163.589743,4420.000000,4184.102564,4198.974358,4481.538461,4193.846153,4644.102564,4033.333333,4026.666666
243,4249.743589,4528.205128,4516.410256,4259.487179,4480.512820,4171.282051,4426.666666,4190.256410,4205.641025,4489.743589,4195.384615,4656.410256,4047.692307,4042.051282
244,4254.358974,4526.666666,4516.410256,4267.692307,4491.794871,4169.230769,4431.282051,4200.512820,4214.871794,4490.256410,4198.461538,4655.384615,4047.179487,4046.666666
245,4238.974358,4519.487179,4506.153846,4260.000000,4490.256410,4165.128205,4428.717948,4189.743589,4206.153846,4476.410256,4195.897435,4643.076923,4027.692307,4032.307692
246,4232.307692,4513.846153,4506.153846,4250.256410,4489.230769,4169.230769,4426.666666,4183.589743,4198.461538,4473.333333,4192.820512,4643.589743,4030.769230,4027.692307
247,4237.435897,4515.384615,4511.282051,4245.128205,4487.692307,4168.205128,4424.102564,4191.282051,4208.205128,4475.897435,4196.410256,4650.256410,4042.564102,4032.820512
248,4241.025641,4522.564102,4508.205128,4252.820512,4484.615384,4168.717948,4421.538461,4193.846153,4212.820512,4472.307692,4201.025641,4649.743589,4038.461538,4036.410256
249,4245.641025,4524.102564,4511.282051,4263.076923,4486.153846,4178.974358,4426.666666,4195.897435,4212.307692,4479.487179,4205.128205,4653.846153,4037.948717,4041.025641
250,4248.717948,4522.051282,4520.512820,4265.128205,4486.666666,4186.666666,4430.256410,4200.512820,4215.897435,4490.769230,4209.230769,4659.487179,4041.025641,4043.589743
251,4249.230769,4526.153846,4523.589743,4264.615384,4486.153846,4191.282051,4431.794871,4204.615384,4223.076923,4493.333333,4217.948717,4662.051282,4040.000000,4045.128205
252,4252.820512,4534.358974,4524.102564,4266.666666,4491.282051,4196.923076,4435.384615,4211.794871,4227.692307,4493.846153,4224.102564,4665.641025,4045.128205,4053.846153
253,4255.897435,4539.487179,4529.230769,4267.179487,4495.384615,4195.384615,4437.435897,4212.820512,4226.153846,4498.461538,4224.102564,4666.666666,4051.794871,4064.102564
254,4251.794871,4533.333333,4524.615384,4266.153846,4494.871794,4187.692307,4431.794871,4203.076923,4222.564102,4499.487179,4220.512820,4662.051282,4048.205128,4060.000000
255,4247.692307,4523.076923,4513.333333,4261.538461,4487.692307,4179.487179,4422.564102,4197.948717,4218.461538,4492.820512,4218.461538,4656.410256,4032.307692,4045.128205
