,AF3,F7,F3,FC5,T7,P7,O1,O2,P8,T8,FC6,F4,F8,AF4
0,4396.410256,4528.205128,4529.743589,4268.205128,4506.153846,4193.846153,4443.589743,4220.000000,4243.589743,4524.102564,4218.461538,4655.897435,4007.179487,4067.179487
1,4396.410256,4523.076923,4525.128205,4266.153846,4505.128205,4198.461538,4441.025641,4225.641025,4248.205128,4510.256410,4211.794871,4651.282051,4002.051282,4062.564102
2,4408.205128,4525.641025,4534.871794,4277.948717,4510.769230,4196.923076,4445.128205,4229.743589,4252.820512,4516.923076,4213.333333,4656.410256,4012.820512,4063.589743
3,4413.846153,4533.333333,4540.512820,4282.051282,4514.358974,4197.435897,4449.230769,4229.230769,4252.307692,4526.666666,4215.384615,4659.487179,4027.692307,4070.256410
4,4409.743589,4539.487179,4535.897435,4271.794871,4512.307692,4202.051282,4447.692307,4230.256410,4246.666666,4520.000000,4218.461538,4657.435897,4027.692307,4075.384615
5,4410.256410,4540.000000,4537.948717,4273.333333,4514.358974,4203.589743,4445.128205,4228.205128,4243.076923,4517.435897,4218.461538,4658.461538,4023.589743,4076.923076
6,4409.743589,4533.333333,4538.974358,4279.487179,4514.358974,4197.435897,4443.076923,4222.564102,4242.564102,4522.564102,4207.179487,4653.846153,4026.153846,4075.384615
7,4398.461538,4527.179487,4526.153846,4269.230769,4506.153846,4189.743589,4440.000000,4220.512820,4240.000000,4516.410256,4202.564102,4645.128205,4026.153846,4067.179487
8,4397.948717,4529.230769,4523.076923,4262.564102,4506.153846,4191.794871,4446.153846,4224.615384,4240.000000,4511.282051,4214.871794,4647.692307,4028.205128,4061.538461
9,4412.307692,4538.974358,4537.435897,4277.948717,4518.974358,4204.615384,4453.333333,4233.333333,4249.230769,4521.025641,4221.025641,4659.487179,4038.974358,4073.846153
10,4417.948717,4546.153846,4540.512820,4288.205128,4526.153846,4207.179487,4449.743589,4235.384615,4252.307692,4524.102564,4211.282051,4662.051282,4043.589743,4085.128205
11,4410.769230,4542.051282,4531.794871,4281.025641,4516.923076,4200.000000,4442.564102,4227.692307,4243.589743,4515.384615,4199.487179,4651.794871,4036.923076,4078.461538
12,4406.153846,4533.333333,4529.743589,4278.461538,4510.256410,4200.000000,4442.051282,4219.487179,4236.410256,4509.743589,4200.512820,4645.641025,4031.794871,4071.282051
13,4404.615384,4533.846153,4532.820512,4280.000000,4513.846153,4202.564102,4442.051282,4213.333333,4234.871794,4504.102564,4207.179487,4648.717948,4028.717948,4068.205128
14,4401.025641,4536.923076,4534.871794,4274.871794,4511.794871,4193.846153,4438.461538,4214.358974,4231.794871,4495.384615,4204.615384,4652.820512,4027.179487,4063.589743
15,4401.538461,4533.846153,4535.897435,4270.769230,4505.641025,4190.256410,4435.897435,4216.410256,4227.692307,4499.487179,4201.538461,4653.333333,4028.717948,4066.666666
16,4408.205128,4534.358974,4536.410256,4277.435897,4511.282051,4196.410256,4439.487179,4216.410256,4228.205128,4513.846153,4211.282051,4656.923076,4031.794871,4076.923076
17,4414.358974,4542.051282,4536.923076,4284.615384,4514.871794,4196.923076,4445.128205,4219.487179,4235.384615,4517.435897,4222.051282,4661.025641,4032.820512,4078.974358
18,4411.794871,4538.974358,4535.897435,4277.435897,4505.128205,4192.307692,4442.564102,4226.153846,4243.076923,4508.717948,4218.461538,4657.435897,4035.897435,4072.307692
19,4404.615384,4532.307692,4531.282051,4267.692307,4503.076923,4192.820512,4441.538461,4229.230769,4247.692307,4510.769230,4209.743589,4653.846153,4041.025641,4066.666666
20,4397.948717,4527.179487,4527.179487,4267.179487,4509.743589,4194.871794,4445.641025,4225.641025,4242.051282,4515.897435,4204.615384,4652.307692,4033.846153,4063.076923
21,4390.769230,4519.487179,4522.564102,4261.025641,4501.538461,4187.179487,4438.461538,4215.384615,4222.051282,4495.384615,4198.461538,4647.179487,4014.871794,4054.871794
22,4388.717948,4518.461538,4518.461538,4257.435897,4490.256410,4182.564102,4429.230769,4208.205128,4211.282051,4481.025641,4195.384615,4642.051282,4009.743589,4051.282051
23,4393.333333,4526.666666,4521.538461,4269.743589,4498.461538,4187.179487,4436.410256,4211.794871,4221.025641,4496.923076,4194.358974,4645.641025,4026.153846,4057.435897
24,4397.948717,4530.256410,4525.128205,4277.948717,4507.179487,4188.205128,4445.128205,4217.948717,4231.794871,4505.128205,4200.512820,4648.717948,4038.461538,4061.538461
25,4395.897435,4523.589743,4521.025641,4266.666666,4503.589743,4190.256410,4442.564102,4217.948717,4232.820512,4495.897435,4205.128205,4645.641025,4031.794871,4059.487179
26,4389.743589,4517.435897,4513.846153,4257.435897,4502.564102,4193.846153,4437.435897,4214.358974,4228.717948,4497.435897,4196.410256,4641.538461,4020.000000,4052.820512
27,4388.205128,4521.025641,4514.358974,4263.076923,4508.717948,4192.307692,4437.948717,4214.358974,4223.589743,4498.974358,4190.769230,4639.487179,4019.487179,4048.717948
28,4392.307692,4527.179487,4521.025641,4270.256410,4509.230769,4189.743589,4442.564102,4222.051282,4225.641025,4492.820512,4195.384615,4643.076923,4030.256410,4053.846153
29,4393.846153,4526.666666,4522.564102,4270.256410,4504.102564,4192.820512,4446.153846,4232.307692,4233.333333,4498.974358,4197.435897,4647.179487,4036.410256,4060.512820
30,4392.820512,4526.666666,4522.051282,4265.128205,4502.564102,4195.897435,4447.179487,4234.358974,4237.948717,4508.717948,4204.102564,4652.307692,4038.461538,4062.051282
31,4398.974358,4531.282051,4525.128205,4263.076923,4505.128205,4196.410256,4449.743589,4233.333333,4240.512820,4511.282051,4222.051282,4659.487179,4040.512820,4069.743589
32,4403.589743,4528.717948,4525.641025,4263.076923,4508.205128,4193.846153,4450.256410,4234.358974,4241.538461,4515.384615,4222.051282,4662.564102,4043.589743,4078.461538
33,4404.102564,4524.102564,4523.076923,4268.717948,4507.179487,4193.846153,4445.128205,4235.897435,4238.461538,4519.487179,4209.743589,4662.564102,4044.102564,4072.820512
34,4407.692307,4527.692307,4527.179487,4275.384615,4506.666666,4196.410256,4444.102564,4232.307692,4233.333333,4513.846153,4212.820512,4663.589743,4041.538461,4065.128205
35,4408.717948,4530.256410,4530.256410,4271.794871,4507.692307,4196.410256,4445.641025,4223.589743,4232.820512,4503.589743,4218.974358,4663.076923,4037.948717,4069.230769
36,4404.615384,4524.615384,4525.128205,4268.205128,4505.641025,4192.307692,4442.564102,4220.000000,4233.333333,4498.974358,4210.256410,4658.974358,4030.769230,4074.871794
37,4406.153846,4522.051282,4524.615384,4268.205128,4505.128205,4192.307692,4438.974358,4222.051282,4234.871794,4505.128205,4203.589743,4660.000000,4026.153846,4072.820512
38,4410.769230,4528.205128,4533.333333,4267.179487,4509.230769,4195.897435,4442.051282,4224.102564,4242.051282,4514.871794,4210.769230,4667.692307,4033.333333,4074.871794
39,4413.846153,4529.743589,4539.487179,4272.820512,4508.717948,4197.948717,4451.282051,4227.692307,4245.128205,4515.384615,4215.384615,4673.333333,4045.128205,4086.153846
40,4417.435897,4525.641025,4540.000000,4277.948717,4507.179487,4198.974358,4457.948717,4234.871794,4237.948717,4513.333333,4212.307692,4673.846153,4050.769230,4091.282051
41,4421.025641,4526.153846,4541.538461,4275.384615,4515.384615,4200.000000,4458.974358,4236.923076,4234.871794,4514.358974,4213.333333,4673.846153,4053.846153,4090.769230
42,4421.538461,4529.743589,4541.538461,4273.333333,4520.512820,4205.128205,4457.435897,4232.820512,4238.461538,4515.384615,4216.410256,4672.820512,4054.871794,4092.820512
43,4417.435897,4527.692307,4534.871794,4272.820512,4512.307692,4203.589743,4456.410256,4231.282051,4238.461538,4513.333333,4205.128205,4667.179487,4046.153846,4087.179487
44,4409.230769,4518.461538,4523.076923,4265.641025,4505.641025,4196.923076,4452.820512,4228.205128,4239.487179,4508.717948,4191.794871,4657.948717,4033.333333,4076.410256
45,4404.615384,4512.307692,4518.974358,4263.076923,4507.692307,4196.923076,4447.179487,4223.076923,4241.538461,4508.205128,4196.410256,4653.333333,4030.769230,4073.333333
46,4406.666666,4516.923076,4524.615384,4270.256410,4514.871794,4198.974358,4442.051282,4223.076923,4231.794871,4508.717948,4203.076923,4657.435897,4040.512820,4074.871794
47,4408.717948,4522.051282,4528.205128,4272.307692,4514.871794,4201.538461,4443.076923,4223.589743,4223.076923,4510.256410,4200.000000,4662.051282,4047.692307,4076.410256
48,4408.717948,4518.461538,4523.076923,4269.230769,4510.769230,4200.000000,4446.666666,4220.000000,4225.128205,4512.307692,4201.538461,4661.538461,4044.615384,4077.435897
49,4407.179487,4514.358974,4523.076923,4272.307692,4509.743589,4196.923076,4441.538461,4219.487179,4225.128205,4507.179487,4211.282051,4656.410256,4039.487179,4072.820512
50,4410.256410,4525.641025,4533.333333,4278.461538,4512.820512,4200.000000,4441.025641,4228.205128,4227.179487,4507.179487,4212.820512,4660.512820,4047.692307,4077.435897
51,4415.897435,4534.871794,4537.948717,4275.897435,4516.923076,4203.589743,4453.333333,4235.897435,4244.615384,4520.512820,4210.769230,4669.743589,4057.948717,4091.282051
52,4413.333333,4524.615384,4534.871794,4264.615384,4514.358974,4200.512820,4455.897435,4230.769230,4248.717948,4525.128205,4206.153846,4667.692307,4051.282051,4085.641025
53,4406.666666,4514.871794,4530.769230,4264.102564,4511.794871,4201.025641,4447.179487,4223.076923,4227.692307,4512.307692,4188.205128,4660.000000,4040.512820,4071.794871
54,4408.717948,4520.000000,4532.820512,4274.871794,4514.358974,4208.717948,4452.820512,4223.589743,4217.435897,4504.615384,4183.589743,4661.025641,4042.051282,4074.358974
55,4409.743589,4521.538461,4535.384615,4275.384615,4515.384615,4207.179487,4463.589743,4225.128205,4226.153846,4507.692307,4204.102564,4662.564102,4042.564102,4072.820512
56,4403.076923,4515.384615,4528.205128,4263.076923,4514.358974,4205.128205,4459.487179,4225.128205,4230.769230,4513.333333,4215.897435,4657.435897,4032.820512,4064.102564
57,4401.025641,4515.897435,4526.666666,4260.000000,4515.384615,4207.179487,4456.923076,4227.179487,4227.692307,4515.897435,4208.717948,4655.384615,4033.333333,4065.641025
58,4402.051282,4517.435897,4529.743589,4271.282051,4516.923076,4205.641025,4462.051282,4229.230769,4225.641025,4511.282051,4197.948717,4655.897435,4041.025641,4067.692307
59,4400.000000,4516.923076,4529.230769,4277.435897,4517.435897,4203.589743,4462.051282,4230.256410,4226.666666,4510.256410,4186.153846,4655.384615,4035.384615,4063.589743
60,4400.512820,4518.461538,4530.256410,4274.358974,4518.974358,4204.102564,4462.564102,4234.358974,4231.282051,4515.897435,4180.000000,4655.897435,4029.230769,4062.051282
61,4407.692307,4522.051282,4537.435897,4267.692307,4517.435897,4206.666666,4470.256410,4239.487179,4234.871794,4516.923076,4195.897435,4661.538461,4039.487179,4067.179487
62,4413.846153,4528.205128,4543.076923,4268.717948,4515.897435,4210.769230,4472.820512,4243.589743,4236.923076,4514.358974,4214.871794,4671.282051,4053.846153,4077.435897
63,4414.871794,4531.282051,4544.102564,4280.512820,4517.435897,4209.230769,4466.666666,4244.102564,4241.025641,4515.897435,4212.307692,4674.358974,4056.410256,4082.051282
64,4405.641025,4522.564102,4541.538461,4280.000000,4508.205128,4197.948717,4457.435897,4232.307692,4231.282051,4513.846153,4198.461538,4664.102564,4046.153846,4072.307692
65,4396.923076,4516.410256,4534.358974,4267.692307,4501.025641,4196.923076,4451.282051,4220.000000,4216.410256,4506.666666,4190.769230,4653.846153,4037.435897,4062.051282
66,4403.076923,4525.641025,4536.923076,4270.256410,4510.256410,4203.589743,4454.871794,4225.128205,4222.564102,4509.230769,4195.897435,4657.435897,4040.512820,4063.589743
67,4404.102564,4529.743589,4541.025641,4276.923076,4515.384615,4202.051282,4457.435897,4232.307692,4233.846153,4511.794871,4203.589743,4665.641025,4043.589743,4067.179487
68,4397.948717,4523.076923,4536.923076,4270.256410,4510.256410,4199.487179,4450.769230,4227.179487,4227.179487,4506.153846,4205.641025,4661.538461,4042.051282,4066.666666
69,4401.538461,4522.051282,4535.897435,4266.666666,4511.282051,4200.000000,4448.717948,4223.589743,4221.025641,4508.205128,4200.000000,4651.282051,4040.512820,4066.153846
70,4407.179487,4526.153846,4536.923076,4273.846153,4515.384615,4202.051282,4454.358974,4231.794871,4231.794871,4524.102564,4196.923076,4654.871794,4037.948717,4065.128205
71,4405.641025,4528.205128,4539.487179,4278.461538,4516.410256,4204.102564,4457.948717,4238.461538,4242.564102,4530.256410,4204.102564,4667.179487,4042.564102,4066.153846
72,4401.538461,4520.000000,4540.512820,4270.769230,4514.358974,4202.051282,4453.333333,4232.820512,4238.461538,4521.025641,4207.692307,4667.692307,4052.307692,4068.205128
73,4399.487179,4510.256410,4533.846153,4259.487179,4510.256410,4193.333333,4446.666666,4223.076923,4227.179487,4514.871794,4198.461538,4657.948717,4047.179487,4064.102564
74,4402.051282,4516.923076,4530.256410,4259.487179,4507.692307,4192.307692,4442.564102,4222.564102,4224.615384,4514.358974,4195.384615,4654.871794,4037.435897,4061.025641
75,4401.025641,4525.128205,4535.897435,4267.179487,4509.743589,4195.897435,4443.076923,4228.717948,4231.282051,4514.358974,4205.641025,4660.512820,4038.461538,4064.615384
76,4393.846153,4516.923076,4537.435897,4266.153846,4511.282051,4196.410256,4444.615384,4226.153846,4231.282051,4513.333333,4207.179487,4661.538461,4037.435897,4065.641025
77,4396.923076,4512.820512,4534.871794,4265.641025,4512.307692,4198.461538,4447.179487,4222.051282,4218.974358,4509.230769,4196.923076,4656.923076,4033.846153,4062.051282
78,4405.641025,4521.538461,4538.461538,4271.794871,4514.358974,4198.461538,4450.256410,4224.615384,4216.410256,4507.692307,4194.358974,4656.923076,4038.974358,4061.538461
79,4400.000000,4523.076923,4533.333333,4268.717948,4509.230769,4194.871794,4446.153846,4220.512820,4223.589743,4504.102564,4199.487179,4654.358974,4038.461538,4061.025641
80,4390.256410,4514.871794,4523.589743,4260.512820,4502.564102,4191.282051,4439.487179,4211.794871,4220.000000,4497.435897,4195.384615,4650.256410,4028.717948,4054.871794
81,4394.871794,4513.333333,4532.307692,4264.102564,4506.666666,4194.871794,4444.615384,4220.512820,4217.435897,4502.564102,4194.871794,4656.410256,4032.820512,4055.897435
82,4406.153846,4517.948717,4544.102564,4269.743589,4512.307692,4200.512820,4453.846153,4233.333333,4225.128205,4511.794871,4204.615384,4665.128205,4044.615384,4067.179487
83,4407.692307,4520.512820,4539.487179,4265.641025,4509.743589,4197.948717,4451.282051,4227.179487,4225.641025,4507.179487,4207.692307,4662.051282,4041.538461,4070.769230
84,4403.589743,4526.153846,4535.897435,4266.666666,4505.641025,4194.871794,4444.615384,4222.564102,4223.589743,4510.256410,4208.717948,4657.948717,4041.025641,4068.205128
85,4400.000000,4528.205128,4539.487179,4268.205128,4505.128205,4194.871794,4442.564102,4226.153846,4224.615384,4518.461538,4210.256410,4654.871794,4043.589743,4066.153846
86,4395.384615,4518.974358,4533.333333,4261.538461,4508.205128,4193.333333,4437.435897,4215.897435,4214.358974,4505.641025,4199.487179,4647.179487,4033.333333,4057.435897
87,4398.461538,4518.461538,4529.230769,4265.128205,4513.846153,4195.897435,4437.948717,4209.230769,4206.666666,4496.410256,4192.820512,4649.743589,4033.846153,4053.846153
88,4406.153846,4529.230769,4535.384615,4276.923076,4514.871794,4198.461538,4442.564102,4218.974358,4210.769230,4502.564102,4201.538461,4658.461538,4042.564102,4064.615384
89,4404.615384,4529.230769,4536.410256,4276.923076,4508.205128,4193.846153,4441.025641,4218.461538,4209.230769,4503.589743,4205.128205,4655.897435,4034.871794,4067.692307
90,4404.102564,4527.692307,4536.410256,4271.794871,4506.666666,4191.282051,4438.974358,4211.794871,4213.333333,4508.717948,4207.692307,4653.846153,4033.333333,4068.205128
91,4410.256410,4531.794871,4541.025641,4271.282051,4510.256410,4195.384615,4440.000000,4211.794871,4217.948717,4511.282051,4215.897435,4659.487179,4047.179487,4072.820512
92,4402.564102,4526.666666,4537.435897,4270.769230,4505.641025,4189.743589,4433.333333,4208.717948,4208.205128,4497.435897,4203.076923,4657.948717,4042.564102,4063.589743
93,4397.435897,4526.666666,4536.410256,4270.769230,4502.051282,4184.102564,4430.256410,4209.743589,4207.179487,4500.000000,4188.717948,4655.384615,4030.769230,4061.538461
94,4411.794871,4538.974358,4548.205128,4271.794871,4510.256410,4193.333333,4440.000000,4216.410256,4218.974358,4513.333333,4207.179487,4662.051282,4038.974358,4076.923076
95,4414.358974,4538.461538,4547.692307,4271.794871,4514.871794,4197.435897,4445.128205,4214.871794,4215.897435,4504.615384,4215.897435,4663.589743,4047.692307,4081.538461
96,4404.102564,4530.256410,4538.461538,4273.333333,4509.743589,4193.846153,4441.025641,4217.435897,4207.692307,4502.051282,4204.615384,4660.000000,4045.641025,4074.358974
97,4404.615384,4532.307692,4540.000000,4275.384615,4510.256410,4192.820512,4437.435897,4221.538461,4207.179487,4516.410256,4204.615384,4660.000000,4043.589743,4069.230769
98,4406.666666,4532.820512,4540.512820,4271.794871,4509.743589,4189.230769,4434.358974,4211.282051,4209.230769,4514.871794,4208.717948,4657.435897,4040.000000,4064.102564
99,4401.025641,4531.794871,4536.410256,4272.307692,4508.717948,4188.205128,4436.923076,4209.230769,4216.410256,4510.256410,4208.205128,4654.871794,4038.974358,4066.153846
100,4394.871794,4533.846153,4538.461538,4276.923076,4517.948717,4197.435897,4442.564102,4222.564102,4216.923076,4514.358974,4210.256410,4656.410256,4043.076923,4070.769230
101,4395.897435,4530.256410,4540.000000,4281.025641,4520.512820,4203.076923,4446.666666,4225.641025,4209.743589,4513.333333,4204.615384,4657.948717,4045.641025,4067.692307
102,4403.076923,4529.230769,4538.974358,4277.948717,4510.256410,4192.820512,4444.615384,4217.435897,4208.205128,4509.743589,4202.051282,4655.897435,4043.076923,4066.666666
103,4401.538461,4531.282051,4540.000000,4268.717948,4503.589743,4184.102564,4437.435897,4213.333333,4203.076923,4505.128205,4209.743589,4652.820512,4036.410256,4063.589743
104,4385.128205,4524.102564,4532.307692,4262.051282,4503.076923,4186.153846,4429.230769,4211.282051,4202.051282,4492.820512,4201.025641,4646.666666,4030.256410,4051.794871
105,4381.538461,4518.461538,4525.641025,4258.461538,4503.076923,4188.717948,4432.820512,4217.435897,4218.974358,4497.435897,4195.384615,4647.179487,4032.307692,4049.743589
106,4398.461538,4528.205128,4534.358974,4262.564102,4507.179487,4190.769230,4446.153846,4231.794871,4230.769230,4521.025641,4218.974358,4661.538461,4042.051282,4065.128205
107,4402.051282,4533.846153,4540.512820,4267.692307,4512.820512,4194.358974,4445.641025,4235.384615,4220.000000,4525.128205,4224.102564,4666.666666,4045.128205,4069.743589
108,4393.846153,4528.205128,4537.435897,4268.717948,4513.333333,4196.410256,4440.512820,4228.717948,4214.358974,4512.307692,4205.641025,4658.461538,4045.128205,4061.025641
109,4394.358974,4527.692307,4536.410256,4267.692307,4511.282051,4194.358974,4441.025641,4224.615384,4223.589743,4509.230769,4201.025641,4656.410256,4044.102564,4056.410256
110,4396.410256,4533.846153,4536.923076,4269.743589,4507.179487,4192.820512,4437.948717,4222.564102,4221.538461,4511.794871,4206.666666,4657.948717,4033.846153,4056.410256
111,4397.435897,4538.974358,4539.487179,4277.435897,4507.179487,4194.358974,4432.820512,4221.538461,4209.743589,4511.282051,4212.307692,4658.461538,4035.897435,4062.564102
112,4400.512820,4531.282051,4537.948717,4273.846153,4506.666666,4190.769230,4431.282051,4221.025641,4207.179487,4508.717948,4213.333333,4656.923076,4044.615384,4067.692307
113,4395.897435,4517.948717,4529.230769,4261.538461,4502.051282,4182.564102,4427.692307,4215.897435,4212.307692,4501.538461,4196.410256,4650.769230,4032.820512,4056.923076
114,4389.230769,4526.153846,4525.128205,4263.076923,4504.102564,4186.153846,4427.692307,4214.358974,4210.256410,4497.948717,4189.743589,4645.128205,4020.512820,4046.666666
115,4391.794871,4539.487179,4526.153846,4269.743589,4508.717948,4195.384615,4436.410256,4221.538461,4206.153846,4500.000000,4204.102564,4646.666666,4027.179487,4048.717948
116,4395.897435,4532.820512,4528.205128,4265.128205,4507.179487,4192.307692,4437.435897,4223.076923,4208.717948,4504.102564,4207.179487,4648.205128,4032.307692,4052.307692
117,4401.538461,4528.717948,4529.743589,4268.717948,4506.153846,4187.179487,4430.256410,4225.641025,4213.846153,4512.820512,4207.692307,4652.307692,4034.871794,4061.538461
118,4411.282051,4545.128205,4535.384615,4281.025641,4507.692307,4189.743589,4429.743589,4230.769230,4223.076923,4519.487179,4213.846153,4659.487179,4046.153846,4071.282051
119,4407.179487,4546.153846,4533.846153,4276.410256,4502.564102,4189.230769,4429.743589,4225.641025,4222.051282,4516.410256,4207.692307,4655.384615,4043.076923,4062.564102
120,4395.384615,4528.717948,4524.615384,4262.564102,4500.512820,4183.589743,4428.205128,4213.333333,4208.205128,4509.743589,4198.974358,4645.128205,4032.820512,4056.410256
121,4397.435897,4526.666666,4527.692307,4262.564102,4503.076923,4182.564102,4430.256410,4214.358974,4205.128205,4503.076923,4204.102564,4648.205128,4036.410256,4064.102564
122,4401.025641,4534.358974,4533.333333,4266.153846,4500.512820,4184.615384,4431.794871,4220.000000,4212.820512,4501.538461,4207.692307,4655.384615,4040.512820,4063.589743
123,4400.000000,4533.333333,4530.256410,4265.128205,4500.512820,4186.666666,4426.666666,4213.846153,4208.717948,4507.692307,4208.205128,4650.256410,4038.461538,4060.512820
124,4408.205128,4537.948717,4531.282051,4273.333333,4507.692307,4191.282051,4427.692307,4214.358974,4210.769230,4514.871794,4221.025641,4652.820512,4044.615384,4070.256410
125,4416.923076,4547.179487,4543.589743,4284.615384,4515.897435,4195.897435,4437.435897,4224.615384,4226.153846,4517.435897,4226.153846,4666.153846,4053.333333,4075.897435
126,4409.230769,4545.128205,4541.025641,4278.974358,4513.846153,4193.846153,4434.871794,4222.564102,4224.102564,4515.897435,4209.743589,4662.564102,4043.076923,4066.666666
127,4400.000000,4538.461538,4530.256410,4267.692307,4510.769230,4190.769230,4426.153846,4213.846153,4213.333333,4509.743589,4195.897435,4649.743589,4028.717948,4059.487179
128,4406.153846,4538.974358,4535.384615,4275.897435,4510.769230,4190.769230,4429.230769,4218.974358,4212.307692,4504.102564,4204.102564,4653.846153,4034.358974,4061.025641
129,4408.205128,4537.948717,4541.025641,4281.025641,4509.743589,4191.282051,4434.358974,4224.102564,4213.333333,4504.102564,4209.743589,4660.512820,4041.025641,4061.538461
130,4397.948717,4531.794871,4532.820512,4272.307692,4506.153846,4187.692307,4429.743589,4219.487179,4208.717948,4507.692307,4202.051282,4651.794871,4032.820512,4058.461538
131,4393.846153,4528.205128,4526.153846,4269.743589,4503.076923,4183.589743,4425.128205,4217.435897,4210.769230,4509.743589,4204.615384,4648.205128,4028.205128,4058.461538
132,4397.435897,4532.820512,4535.384615,4272.820512,4507.179487,4188.205128,4431.282051,4223.076923,4220.512820,4513.846153,4215.897435,4655.384615,4035.384615,4060.000000
133,4402.564102,4540.512820,4542.564102,4273.846153,4514.358974,4195.384615,4436.923076,4227.179487,4222.564102,4517.435897,4216.923076,4658.974358,4039.487179,4060.000000
134,4407.692307,4538.461538,4537.435897,4276.410256,4513.846153,4195.384615,4434.358974,4222.564102,4213.846153,4512.820512,4208.717948,4656.923076,4037.435897,4060.000000
135,4410.256410,4530.769230,4536.410256,4278.974358,4511.794871,4193.333333,4430.769230,4221.025641,4210.769230,4509.230769,4204.615384,4655.384615,4037.435897,4062.051282
136,4409.743589,4531.794871,4538.974358,4275.384615,4513.846153,4194.358974,4430.256410,4226.153846,4220.000000,4512.820512,4209.743589,4656.923076,4040.512820,4062.564102
137,4407.692307,4533.846153,4536.923076,4267.692307,4511.282051,4191.282051,4430.256410,4225.128205,4226.666666,4506.153846,4218.461538,4657.435897,4036.923076,4062.564102
138,4404.615384,4525.641025,4534.871794,4263.076923,4504.102564,4184.102564,4431.282051,4217.948717,4219.487179,4497.948717,4211.282051,4653.333333,4027.179487,4060.512820
139,4402.051282,4517.948717,4530.769230,4263.589743,4503.589743,4183.589743,4430.769230,4212.307692,4203.076923,4502.051282,4193.333333,4647.692307,4027.692307,4056.923076
140,4401.538461,4518.461538,4522.564102,4264.102564,4504.102564,4185.128205,4428.205128,4210.256410,4202.564102,4507.179487,4192.307692,4648.205128,4034.871794,4058.461538
141,4405.128205,4523.076923,4528.205128,4265.641025,4503.589743,4187.692307,4432.307692,4220.000000,4222.051282,4511.282051,4209.743589,4655.897435,4039.487179,4067.692307
142,4410.256410,4526.153846,4537.435897,4271.794871,4508.717948,4190.769230,4437.435897,4231.282051,4230.256410,4516.410256,4221.538461,4658.974358,4041.538461,4071.282051
143,4407.179487,4521.538461,4530.256410,4269.743589,4508.717948,4188.717948,4436.410256,4227.692307,4223.589743,4511.794871,4215.897435,4653.846153,4033.846153,4062.051282
144,4405.128205,4518.461538,4527.179487,4262.564102,4505.641025,4184.615384,4436.410256,4225.641025,4222.564102,4506.666666,4213.333333,4653.333333,4026.666666,4061.538461
145,4414.358974,4527.692307,4538.461538,4264.615384,4507.179487,4187.692307,4440.000000,4230.769230,4227.179487,4514.358974,4217.948717,4660.000000,4040.512820,4071.282051
146,4414.358974,4532.307692,4541.538461,4270.256410,4506.153846,4193.846153,4442.051282,4230.256410,4227.179487,4515.897435,4214.358974,4661.025641,4049.230769,4069.743589
147,4407.692307,4526.666666,4537.435897,4271.794871,4507.179487,4193.333333,4446.153846,4230.769230,4226.153846,4510.256410,4211.794871,4659.487179,4041.538461,4065.641025
148,4409.230769,4524.102564,4537.948717,4268.205128,4509.230769,4190.769230,4446.153846,4231.282051,4227.692307,4511.282051,4215.897435,4662.564102,4039.487179,4068.717948
149,4410.256410,4522.564102,4537.948717,4260.512820,4508.205128,4190.256410,4441.538461,4226.666666,4224.615384,4510.769230,4213.333333,4661.025641,4035.897435,4066.153846
150,4408.205128,4525.128205,4537.948717,4263.589743,4506.666666,4191.282051,4444.102564,4230.256410,4226.153846,4510.769230,4209.230769,4659.487179,4031.794871,4061.025641
151,4409.230769,4530.256410,4541.025641,4271.794871,4514.358974,4193.333333,4445.128205,4237.948717,4236.410256,4516.923076,4215.384615,4663.076923,4038.461538,4065.641025
152,4411.794871,4525.641025,4544.615384,4269.743589,4518.461538,4195.384615,4441.538461,4235.897435,4238.974358,4519.487179,4212.820512,4664.615384,4042.564102,4067.692307
153,4414.358974,4526.666666,4550.256410,4270.769230,4515.897435,4198.461538,4447.692307,4237.948717,4231.282051,4519.487179,4202.564102,4664.615384,4041.025641,4066.666666
154,4413.333333,4534.871794,4551.282051,4273.333333,4514.871794,4195.897435,4452.307692,4241.538461,4229.743589,4518.461538,4208.717948,4666.666666,4042.051282,4067.692307
155,4411.794871,4532.307692,4549.230769,4268.205128,4512.820512,4192.820512,4445.128205,4235.897435,4234.358974,4510.256410,4219.487179,4667.692307,4038.974358,4065.641025
156,4416.410256,4532.307692,4553.846153,4272.307692,4516.410256,4197.948717,4449.230769,4236.923076,4234.358974,4509.230769,4223.076923,4672.820512,4044.102564,4070.256410
157,4417.948717,4536.410256,4556.923076,4275.384615,4520.000000,4204.615384,4458.461538,4242.051282,4236.410256,4518.974358,4217.948717,4673.846153,4052.820512,4072.820512
158,4411.794871,4533.846153,4547.692307,4266.666666,4516.923076,4201.025641,4449.743589,4237.435897,4238.461538,4519.487179,4212.820512,4665.641025,4044.102564,4063.076923
159,4408.205128,4529.230769,4540.512820,4267.179487,4513.846153,4197.435897,4442.564102,4229.743589,4233.333333,4512.307692,4210.256410,4660.000000,4035.384615,4055.384615
160,4410.256410,4531.282051,4545.641025,4275.897435,4517.948717,4202.564102,4446.666666,4226.666666,4223.589743,4510.769230,4209.743589,4663.076923,4041.025641,4058.974358
161,4412.307692,4535.384615,4551.282051,4273.846153,4522.564102,4203.589743,4444.615384,4224.102564,4221.538461,4513.333333,4212.307692,4663.589743,4042.051282,4061.538461
162,4413.846153,4538.461538,4552.820512,4270.256410,4516.923076,4197.948717,4443.076923,4228.205128,4227.692307,4515.384615,4217.948717,4663.076923,4042.564102,4067.179487
163,4412.307692,4540.000000,4551.282051,4272.307692,4513.333333,4196.923076,4448.717948,4236.410256,4230.256410,4516.410256,4222.564102,4666.153846,4052.307692,4069.743589
164,4403.589743,4533.846153,4543.589743,4268.205128,4514.358974,4196.923076,4445.641025,4230.256410,4224.615384,4515.897435,4214.871794,4664.615384,4048.205128,4053.846153
165,4396.923076,4527.179487,4535.897435,4263.076923,4512.820512,4193.333333,4438.461538,4222.051282,4220.000000,4510.769230,4208.205128,4659.487179,4033.846153,4044.102564
166,4402.564102,4529.743589,4539.487179,4264.615384,4511.282051,4193.333333,4442.564102,4225.128205,4221.538461,4507.179487,4212.307692,4664.615384,4035.384615,4053.846153
167,4413.333333,4538.974358,4549.743589,4268.717948,4514.871794,4200.000000,4450.256410,4231.282051,4229.230769,4515.897435,4216.410256,4673.846153,4047.692307,4065.128205
168,4415.897435,4543.589743,4554.358974,4274.358974,4520.000000,4206.153846,4451.282051,4234.358974,4236.923076,4521.538461,4217.948717,4675.384615,4053.333333,4069.230769
169,4408.717948,4538.461538,4548.205128,4267.179487,4518.974358,4203.589743,4447.179487,4232.820512,4233.333333,4511.282051,4218.461538,4671.282051,4050.256410,4060.512820
170,4398.974358,4529.230769,4538.974358,4252.820512,4512.307692,4194.358974,4442.051282,4224.102564,4221.025641,4506.666666,4213.846153,4666.153846,4041.025641,4046.153846
171,4392.820512,4523.076923,4531.794871,4250.769230,4509.230769,4191.794871,4441.538461,4220.512820,4218.974358,4509.230769,4206.153846,4660.512820,4032.307692,4041.025641
172,4393.333333,4525.128205,4529.743589,4256.923076,4513.333333,4195.897435,4444.102564,4227.179487,4224.615384,4505.128205,4194.358974,4657.948717,4027.179487,4044.102564
173,4395.897435,4529.743589,4534.358974,4262.564102,4514.871794,4197.435897,4446.666666,4232.307692,4226.153846,4504.615384,4192.820512,4661.025641,4033.333333,4047.692307
174,4396.923076,4533.333333,4538.974358,4263.076923,4514.358974,4197.435897,4451.282051,4234.871794,4222.051282,4510.256410,4212.820512,4667.179487,4046.153846,4052.307692
175,4395.897435,4532.307692,4536.923076,4256.410256,4516.923076,4199.487179,4452.820512,4238.461538,4219.487179,4504.102564,4220.512820,4667.692307,4043.589743,4051.282051
176,4396.410256,4529.743589,4536.923076,4255.897435,4517.948717,4199.487179,4447.179487,4235.897435,4224.615384,4498.461538,4209.743589,4662.564102,4028.717948,4044.102564
177,4395.384615,4530.256410,4537.948717,4264.615384,4513.333333,4195.897435,4441.538461,4228.205128,4227.692307,4506.666666,4207.179487,4660.512820,4026.666666,4041.025641
178,4391.282051,4527.179487,4536.410256,4266.666666,4511.282051,4195.897435,4445.128205,4227.179487,4221.538461,4510.769230,4206.666666,4661.538461,4034.871794,4045.128205
179,4390.256410,4526.153846,4537.948717,4264.615384,4512.820512,4196.410256,4445.128205,4229.743589,4218.461538,4505.128205,4204.102564,4661.025641,4036.410256,4049.230769
180,4395.384615,4534.871794,4541.025641,4270.256410,4513.333333,4198.461538,4442.564102,4232.307692,4220.512820,4504.102564,4211.794871,4662.564102,4037.948717,4051.282051
181,4400.000000,4540.000000,4543.076923,4272.820512,4513.846153,4201.538461,4446.153846,4234.871794,4227.179487,4513.846153,4216.923076,4669.230769,4042.564102,4050.256410
182,4397.435897,4533.846153,4542.051282,4265.128205,4512.820512,4197.435897,4444.615384,4234.358974,4230.256410,4513.846153,4207.692307,4670.256410,4035.384615,4047.179487
183,4394.871794,4535.897435,4536.410256,4262.051282,4511.794871,4195.384615,4440.512820,4230.769230,4225.128205,4506.666666,4212.307692,4665.641025,4027.179487,4047.692307
184,4402.051282,4546.666666,4541.025641,4269.743589,4515.384615,4203.076923,4450.256410,4235.384615,4220.000000,4511.794871,4226.153846,4670.256410,4034.358974,4056.410256
185,4411.794871,4550.256410,4555.384615,4278.974358,4523.076923,4210.256410,4462.051282,4245.641025,4231.282051,4520.000000,4226.666666,4681.538461,4050.256410,4066.666666
186,4407.692307,4542.564102,4555.384615,4273.333333,4526.153846,4204.102564,4457.435897,4247.179487,4240.512820,4519.487179,4217.948717,4681.025641,4053.846153,4065.641025
187,4397.948717,4535.384615,4541.538461,4269.230769,4517.948717,4196.923076,4452.820512,4243.076923,4231.282051,4512.820512,4217.435897,4672.820512,4047.692307,4056.923076
188,4397.948717,4536.923076,4538.974358,4271.794871,4511.794871,4201.538461,4455.384615,4241.025641,4226.153846,4512.307692,4220.512820,4671.794871,4043.076923,4053.333333
189,4394.871794,4535.384615,4541.538461,4255.384615,4512.820512,4203.076923,4450.769230,4237.948717,4230.769230,4515.384615,4211.282051,4670.769230,4033.333333,4050.256410
190,4385.641025,4530.256410,4537.948717,4242.051282,4511.794871,4195.384615,4443.589743,4230.256410,4226.666666,4517.435897,4207.692307,4664.615384,4025.641025,4047.179487
191,4391.282051,4530.769230,4533.846153,4258.461538,4512.820512,4194.358974,4445.641025,4225.641025,4216.410256,4511.794871,4218.974358,4662.564102,4036.410256,4048.717948
192,4401.025641,4534.871794,4535.897435,4271.282051,4517.435897,4200.000000,4446.666666,4224.102564,4215.897435,4501.538461,4221.025641,4663.589743,4048.205128,4054.871794
193,4396.410256,4538.974358,4537.948717,4264.615384,4515.897435,4197.948717,4443.076923,4222.564102,4221.538461,4505.641025,4210.256410,4661.538461,4037.435897,4047.692307
194,4392.307692,4540.512820,4533.333333,4262.564102,4512.820512,4195.897435,4445.128205,4223.076923,4225.128205,4513.333333,4208.205128,4661.025641,4027.692307,4036.410256
195,4393.333333,4535.897435,4529.743589,4263.076923,4514.871794,4197.435897,4441.025641,4218.461538,4220.000000,4503.076923,4210.256410,4660.000000,4027.692307,4036.410256
196,4386.153846,4529.230769,4528.717948,4257.948717,4513.846153,4194.871794,4430.769230,4210.769230,4210.769230,4495.384615,4206.153846,4653.846153,4023.589743,4039.487179
197,4387.179487,4531.794871,4530.256410,4262.051282,4512.307692,4196.923076,4432.820512,4215.897435,4215.384615,4505.128205,4205.641025,4654.871794,4025.641025,4041.025641
198,4397.435897,4537.435897,4534.358974,4267.692307,4514.358974,4197.948717,4440.000000,4222.564102,4224.615384,4512.820512,4208.205128,4662.051282,4036.410256,4045.128205
199,4400.000000,4541.025641,4536.923076,4267.692307,4513.846153,4196.410256,4441.025641,4223.076923,4221.025641,4512.307692,4210.769230,4663.589743,4038.974358,4045.641025
200,4397.948717,4544.102564,4537.435897,4267.179487,4517.948717,4204.102564,4444.615384,4226.153846,4222.051282,4514.358974,4216.410256,4663.076923,4033.846153,4040.000000
201,4398.461538,4545.128205,4537.435897,4269.230769,4526.153846,4210.769230,4447.179487,4226.666666,4235.384615,4514.871794,4220.512820,4664.102564,4033.333333,4041.025641
202,4402.564102,4548.205128,4540.000000,4276.923076,4524.102564,4205.641025,4445.641025,4225.128205,4234.358974,4514.358974,4218.461538,4667.692307,4036.923076,4049.230769
203,4401.538461,4549.230769,4541.025641,4274.871794,4520.512820,4203.589743,4445.641025,4228.717948,4222.051282,4510.769230,4218.461538,4668.205128,4038.974358,4048.717948
204,4393.333333,4543.076923,4536.410256,4260.000000,4520.512820,4202.051282,4445.128205,4224.102564,4221.538461,4506.666666,4219.487179,4663.589743,4036.923076,4042.051282
205,4393.333333,4541.538461,4536.410256,4261.538461,4520.000000,4197.948717,4443.589743,4218.461538,4225.641025,4511.282051,4215.384615,4663.076923,4032.307692,4040.000000
206,4397.948717,4545.641025,4539.487179,4275.384615,4523.589743,4201.538461,4445.641025,4223.589743,4225.641025,4519.487179,4211.794871,4663.589743,4027.692307,4038.974358
207,4392.820512,4540.512820,4532.307692,4269.230769,4522.564102,4201.538461,4442.564102,4221.538461,4219.487179,4508.717948,4209.743589,4656.410256,4023.589743,4033.846153
208,4387.692307,4531.794871,4526.666666,4257.948717,4516.410256,4198.461538,4440.000000,4212.820512,4214.871794,4490.769230,4213.333333,4655.384615,4026.666666,4033.333333
209,4394.871794,4535.897435,4534.358974,4264.615384,4518.974358,4200.512820,4446.666666,4221.538461,4221.025641,4494.358974,4218.974358,4663.589743,4033.333333,4037.948717
210,4397.948717,4544.102564,4538.461538,4270.769230,4523.589743,4200.512820,4451.794871,4229.743589,4228.205128,4509.743589,4217.948717,4665.641025,4031.282051,4036.410256
211,4393.846153,4546.666666,4534.358974,4269.743589,4517.948717,4201.025641,4449.743589,4225.128205,4224.615384,4511.282051,4211.282051,4663.589743,4026.153846,4036.923076
212,4395.384615,4544.102564,4536.410256,4272.820512,4516.410256,4202.051282,4447.179487,4223.076923,4218.974358,4502.051282,4210.769230,4666.153846,4024.615384,4040.000000
213,4395.897435,4539.487179,4538.461538,4269.230769,4520.000000,4198.974358,4445.641025,4223.589743,4220.512820,4500.000000,4211.794871,4664.102564,4024.615384,4038.974358
214,4393.846153,4536.923076,4531.794871,4265.128205,4518.974358,4200.512820,4445.128205,4219.487179,4220.000000,4500.000000,4210.256410,4660.512820,4027.179487,4038.974358
215,4394.358974,4539.487179,4529.743589,4271.282051,4518.974358,4202.564102,4442.051282,4215.384615,4214.358974,4494.358974,4213.333333,4663.076923,4028.205128,4041.538461
216,4388.717948,4537.435897,4530.769230,4272.307692,4514.871794,4190.769230,4433.846153,4214.358974,4207.692307,4492.307692,4210.256410,4661.025641,4016.923076,4037.948717
217,4380.512820,4532.307692,4525.641025,4265.641025,4510.769230,4187.179487,4434.871794,4213.333333,4204.615384,4490.769230,4195.897435,4651.282051,4005.641025,4028.717948
218,4384.102564,4531.794871,4526.666666,4265.641025,4515.897435,4197.948717,4441.025641,4213.846153,4205.641025,4488.205128,4190.256410,4650.769230,4007.179487,4027.692307
219,4391.282051,4533.846153,4531.794871,4267.179487,4518.974358,4197.948717,4437.435897,4218.461538,4206.666666,4485.128205,4198.461538,4656.923076,4011.282051,4033.846153
220,4391.282051,4533.846153,4528.717948,4260.000000,4513.846153,4190.256410,4436.410256,4223.076923,4214.871794,4489.230769,4208.205128,4657.948717,4015.897435,4035.897435
221,4391.282051,4535.897435,4526.666666,4260.000000,4509.743589,4187.179487,4440.000000,4224.102564,4226.666666,4500.000000,4214.358974,4656.923076,4024.615384,4036.923076
222,4392.820512,4534.871794,4529.230769,4267.692307,4509.230769,4189.743589,4440.512820,4222.051282,4221.025641,4502.051282,4208.717948,4656.410256,4025.128205,4043.589743
223,4395.384615,4534.358974,4528.717948,4273.846153,4510.256410,4192.307692,4442.051282,4222.051282,4210.769230,4496.410256,4196.923076,4656.410256,4022.051282,4047.692307
224,4397.435897,4540.000000,4528.205128,4272.820512,4511.794871,4192.307692,4440.512820,4218.974358,4209.230769,4496.923076,4203.076923,4659.487179,4026.153846,4042.051282
225,4390.769230,4538.461538,4526.666666,4264.615384,4510.769230,4189.743589,4432.820512,4212.307692,4206.153846,4502.051282,4214.871794,4655.897435,4022.051282,4035.384615
226,4384.615384,4530.256410,4520.000000,4260.512820,4506.666666,4187.179487,4429.743589,4214.358974,4209.743589,4500.000000,4208.205128,4648.717948,4014.358974,4032.307692
227,4390.769230,4531.282051,4522.564102,4263.589743,4505.641025,4186.666666,4432.820512,4217.948717,4220.512820,4492.307692,4197.948717,4649.743589,4018.461538,4034.871794
228,4394.358974,4534.871794,4526.666666,4268.205128,4510.769230,4189.743589,4433.846153,4214.358974,4214.358974,4488.717948,4201.538461,4652.820512,4020.512820,4038.461538
229,4392.307692,4531.794871,4521.538461,4270.769230,4512.820512,4191.282051,4432.820512,4214.358974,4201.538461,4488.205128,4212.820512,4653.846153,4012.307692,4035.897435
230,4392.820512,4527.692307,4522.564102,4266.153846,4513.333333,4192.820512,4431.794871,4216.410256,4202.564102,4492.820512,4214.871794,4652.820512,4011.282051,4032.820512
231,4391.794871,4527.692307,4525.641025,4261.025641,4514.871794,4194.358974,4434.358974,4212.820512,4207.692307,4496.923076,4203.076923,4651.794871,4017.948717,4033.333333
232,4391.794871,4530.256410,4523.076923,4267.692307,4512.820512,4192.820512,4439.487179,4218.974358,4209.230769,4495.897435,4198.974358,4653.846153,4018.461538,4036.923076
233,4396.923076,4533.333333,4527.179487,4273.846153,4510.769230,4191.794871,4441.025641,4233.846153,4214.871794,4498.461538,4213.333333,4659.487179,4020.000000,4044.102564
234,4402.051282,4538.974358,4538.461538,4271.794871,4514.358974,4196.923076,4445.641025,4241.538461,4223.589743,4511.794871,4227.692307,4664.615384,4027.179487,4052.820512
235,4400.512820,4543.076923,4538.461538,4268.717948,4517.435897,4198.974358,4448.717948,4239.487179,4225.641025,4517.948717,4225.128205,4665.128205,4030.769230,4055.384615
236,4386.666666,4528.717948,4522.564102,4258.461538,4508.717948,4188.717948,4433.846153,4222.051282,4209.230769,4492.307692,4205.641025,4654.871794,4015.384615,4039.487179
237,4373.333333,4511.794871,4514.871794,4253.333333,4500.000000,4181.538461,4418.974358,4203.589743,4196.923076,4471.282051,4188.205128,4642.564102,3997.435898,4018.461538
238,4382.051282,4515.384615,4521.025641,4264.102564,4503.589743,4188.717948,4427.179487,4209.743589,4204.615384,4487.692307,4190.256410,4648.205128,4002.051282,4025.128205
239,4397.948717,4524.102564,4523.589743,4269.230769,4510.769230,4195.897435,4441.538461,4221.538461,4210.256410,4496.923076,4201.025641,4656.923076,4013.846153,4043.589743
240,4401.025641,4526.153846,4521.538461,4267.179487,4513.846153,4194.871794,4442.051282,4223.589743,4208.717948,4486.666666,4203.076923,4657.948717,4016.410256,4046.666666
241,4403.589743,4529.743589,4528.717948,4270.769230,4514.871794,4195.384615,4441.025641,4225.641025,4217.948717,4491.794871,4207.179487,4662.051282,4013.846153,4049.230769
242,4408.205128,4533.333333,4533.333333,4272.820512,4518.974358,4201.538461,4445.641025,4227.179487,4224.615384,4502.051282,4217.435897,4666.153846,4013.333333,4061.538461
243,4409.743589,4534.871794,4530.256410,4269.230769,4521.025641,4202.051282,4445.128205,4225.641025,4216.410256,4492.820512,4218.974358,4665.128205,4015.897435,4060.512820
244,4413.846153,4535.897435,4533.333333,4271.282051,4518.461538,4198.974358,4443.076923,4224.102564,4211.282051,4490.256410,4214.358974,4665.128205,4023.076923,4057.435897
245,4417.435897,4534.358974,4538.461538,4274.871794,4514.358974,4194.358974,4444.615384,4224.102564,4212.820512,4501.025641,4208.205128,4666.666666,4028.717948,4065.128205
246,4411.282051,4528.205128,4536.923076,4276.410256,4515.897435,4194.871794,4440.512820,4225.641025,4214.871794,4500.512820,4199.487179,4665.641025,4024.615384,4065.641025
247,4406.666666,4527.692307,4532.307692,4281.538461,4523.589743,4201.538461,4437.948717,4226.153846,4218.974358,4495.384615,4199.487179,4662.564102,4017.435897,4060.000000
248,4407.692307,4533.846153,4527.692307,4281.025641,4524.615384,4204.102564,4441.538461,4217.435897,4219.487179,4492.820512,4203.589743,4658.461538,4011.282051,4059.487179
249,4407.179487,4534.358974,4529.230769,4273.333333,4518.461538,4197.948717,4436.923076,4212.307692,4210.769230,4487.179487,4202.051282,4657.948717,4007.179487,4057.435897
250,4402.051282,4529.230769,4533.846153,4272.820512,4513.846153,4194.871794,4428.717948,4216.410256,4208.717948,4487.179487,4200.512820,4661.025641,4008.717948,4051.794871
251,4400.512820,4527.692307,4534.871794,4277.948717,4515.384615,4195.897435,4434.358974,4220.000000,4215.897435,4492.307692,4198.974358,4662.564102,4009.743589,4054.358974
252,4406.666666,4531.282051,4534.358974,4280.512820,4520.512820,4198.461538,4445.128205,4222.564102,4223.589743,4495.897435,4197.435897,4666.666666,4010.769230,4062.051282
253,4413.333333,4535.897435,4541.025641,4282.564102,4523.076923,4205.128205,4450.769230,4230.769230,4231.282051,4503.076923,4206.666666,4674.871794,4016.923076,4064.102564
254,4412.307692,4534.358974,4547.179487,4284.102564,4522.564102,4207.179487,4452.307692,4234.358974,4233.333333,4506.153846,4212.820512,4678.974358,4020.000000,4061.538461
255,4408.717948,4530.256410,4546.666666,4280.000000,4520.512820,4201.538461,4448.717948,4225.641025,4224.102564,4497.948717,4205.641025,4672.307692,4014.358974,4063.076923
256,4409.230769,4529.743589,4542.564102,4278.461538,4516.923076,4198.461538,4444.102564,4219.487179,4218.974358,4492.820512,4203.076923,4665.641025,4009.743589,4067.179487
257,4407.179487,4528.205128,4537.948717,4274.871794,4516.923076,4198.461538,4444.615384,4223.076923,4219.487179,4495.384615,4202.051282,4663.589743,4006.153846,4057.948717
258,4396.923076,4524.102564,4537.435897,4268.205128,4520.512820,4196.410256,4441.025641,4217.435897,4213.333333,4489.743589,4195.384615,4658.974358,3998.974359,4045.128205
259,4392.820512,4525.641025,4536.923076,4273.846153,4517.948717,4194.871794,4438.974358,4210.256410,4206.666666,4483.589743,4196.410256,4653.846153,3998.461539,4046.666666
