,AF3,F7,F3,FC5,T7,P7,O1,O2,P8,T8,FC6,F4,F8,AF4
0,4384.615384,4556.410256,4576.410256,4086.153846,4470.256410,4208.717948,4435.897435,4229.230769,4246.153846,4468.205128,4138.974358,4642.564102,4021.538461,4073.846153
1,4384.615384,4547.179487,4572.820512,4093.846153,4469.230769,4204.615384,4433.846153,4229.743589,4252.820512,4479.487179,4134.871794,4646.153846,4038.461538,4078.974358
2,4377.435897,4548.717948,4566.666666,4089.743589,4465.641025,4201.538461,4427.179487,4210.769230,4232.307692,4467.179487,4134.358974,4636.410256,4034.358974,4069.230769
3,4375.384615,4554.871794,4564.102564,4080.512820,4468.205128,4211.282051,4429.743589,4207.692307,4220.000000,4452.820512,4136.923076,4631.282051,4026.666666,4066.153846
4,4373.333333,4543.589743,4560.000000,4076.410256,4466.666666,4212.307692,4432.820512,4218.974358,4228.205128,4456.923076,4137.948717,4632.820512,4016.410256,4066.666666
5,4370.256410,4535.897435,4554.871794,4074.358974,4464.615384,4198.461538,4431.282051,4216.923076,4229.230769,4456.923076,4136.410256,4630.256410,4011.282051,4057.948717
6,4376.923076,4543.076923,4557.435897,4074.871794,4470.769230,4195.897435,4433.846153,4213.846153,4228.717948,4453.333333,4141.025641,4630.256410,4025.641025,4055.897435
7,4380.512820,4546.153846,4565.641025,4083.076923,4475.897435,4210.256410,4440.512820,4224.102564,4239.487179,4465.128205,4151.794871,4635.897435,4036.410256,4066.666666
8,4376.410256,4550.769230,4569.743589,4093.333333,4472.307692,4214.358974,4445.128205,4230.256410,4246.666666,4472.820512,4157.435897,4637.948717,4027.692307,4072.307692
9,4377.435897,4560.512820,4565.128205,4093.846153,4469.743589,4205.128205,4444.102564,4224.615384,4244.102564,4464.102564,4157.435897,4637.948717,4027.179487,4068.717948
10,4378.461538,4557.948717,4556.923076,4085.128205,4469.743589,4205.641025,4441.025641,4220.512820,4238.461538,4454.871794,4154.358974,4635.384615,4036.923076,4066.153846
11,4375.384615,4549.230769,4556.410256,4085.128205,4473.333333,4212.307692,4441.538461,4223.589743,4235.384615,4455.897435,4150.769230,4632.820512,4032.307692,4067.692307
12,4384.102564,4555.897435,4569.743589,4094.871794,4478.461538,4214.358974,4449.743589,4229.743589,4243.589743,4465.641025,4161.025641,4642.051282,4028.205128,4075.384615
13,4394.871794,4568.717948,4572.820512,4099.487179,4477.435897,4211.794871,4452.307692,4232.820512,4252.820512,4470.769230,4172.820512,4648.205128,4041.538461,4080.512820
14,4385.641025,4565.641025,4558.461538,4085.128205,4474.871794,4207.692307,4445.128205,4227.179487,4245.128205,4462.564102,4160.512820,4636.923076,4037.948717,4069.743589
15,4371.282051,4550.769230,4550.256410,4069.230769,4470.769230,4205.641025,4439.487179,4220.000000,4235.897435,4450.769230,4145.641025,4625.641025,4014.871794,4053.846153
16,4372.307692,4545.641025,4552.820512,4071.282051,4467.692307,4207.179487,4443.589743,4218.461538,4238.461538,4454.871794,4149.230769,4628.717948,4017.948717,4054.358974
17,4379.487179,4553.846153,4554.871794,4074.871794,4469.743589,4211.282051,4448.717948,4220.512820,4240.000000,4461.538461,4156.923076,4633.333333,4031.282051,4063.589743
18,4383.589743,4558.974358,4556.410256,4070.256410,4473.333333,4211.282051,4447.179487,4222.564102,4238.461538,4457.948717,4163.589743,4634.358974,4028.205128,4066.153846
19,4388.717948,4560.512820,4555.384615,4064.615384,4476.410256,4207.179487,4445.641025,4223.076923,4241.025641,4456.923076,4166.666666,4634.358974,4029.230769,4067.692307
20,4392.820512,4570.769230,4555.384615,4065.128205,4476.923076,4207.179487,4444.615384,4222.564102,4240.512820,4467.179487,4168.717948,4635.897435,4031.282051,4071.282051
21,4395.384615,4571.282051,4565.128205,4065.128205,4474.871794,4210.256410,4441.538461,4228.205128,4243.589743,4476.410256,4177.435897,4643.589743,4034.358974,4074.871794
22,4398.974358,4561.538461,4571.282051,4060.000000,4477.948717,4208.717948,4440.512820,4235.384615,4252.307692,4476.410256,4184.102564,4648.717948,4050.769230,4074.871794
23,4397.948717,4563.076923,4560.000000,4050.769230,4481.025641,4203.589743,4441.025641,4232.307692,4250.769230,4467.179487,4177.948717,4642.051282,4051.794871,4073.846153
24,4390.256410,4564.615384,4550.256410,4041.538461,4473.333333,4203.589743,4438.461538,4224.615384,4237.435897,4456.923076,4170.256410,4632.820512,4029.743589,4070.256410
25,4386.153846,4561.025641,4552.307692,4042.051282,4464.102564,4203.589743,4438.461538,4217.948717,4229.230769,4457.435897,4168.717948,4631.282051,4024.615384,4066.666666
26,4385.641025,4560.000000,4553.333333,4046.153846,4470.256410,4204.102564,4441.025641,4215.384615,4226.153846,4457.948717,4168.717948,4633.846153,4033.333333,4064.102564
27,4381.538461,4558.461538,4549.743589,4044.102564,4475.897435,4206.153846,4440.000000,4216.923076,4224.615384,4448.717948,4168.205128,4632.307692,4033.333333,4063.076923
28,4380.000000,4563.589743,4549.743589,4041.538461,4472.820512,4200.512820,4438.461538,4214.871794,4224.615384,4447.692307,4174.358974,4629.743589,4032.820512,4065.641025
29,4386.153846,4572.307692,4552.820512,4047.692307,4473.333333,4199.487179,4438.461538,4214.871794,4232.820512,4457.948717,4181.538461,4634.871794,4035.384615,4069.230769
30,4388.205128,4566.153846,4555.384615,4052.307692,4474.358974,4203.076923,4438.974358,4216.923076,4237.435897,4465.128205,4178.461538,4640.000000,4038.461538,4068.717948
31,4382.564102,4561.025641,4556.410256,4045.128205,4472.820512,4201.025641,4438.974358,4215.897435,4231.794871,4458.974358,4175.897435,4635.384615,4034.358974,4064.615384
32,4382.051282,4570.769230,4554.871794,4041.538461,4475.897435,4201.025641,4438.974358,4216.410256,4230.769230,4448.205128,4184.102564,4633.333333,4028.205128,4064.615384
33,4388.205128,4576.410256,4555.384615,4044.102564,4478.461538,4207.692307,4438.461538,4223.589743,4236.410256,4454.358974,4192.820512,4640.512820,4031.794871,4068.717948
34,4393.333333,4577.948717,4561.538461,4047.179487,4477.948717,4211.282051,4443.589743,4230.256410,4236.923076,4468.717948,4189.743589,4644.615384,4032.820512,4071.794871
35,4393.846153,4581.025641,4564.615384,4051.282051,4476.410256,4212.307692,4446.153846,4230.256410,4239.487179,4471.282051,4181.538461,4644.615384,4027.692307,4072.820512
36,4394.871794,4575.384615,4565.128205,4052.820512,4474.358974,4212.307692,4442.564102,4228.717948,4246.666666,4467.179487,4189.230769,4648.205128,4036.923076,4073.846153
37,4398.461538,4573.333333,4566.666666,4046.153846,4476.410256,4208.717948,4443.076923,4232.307692,4246.153846,4468.205128,4199.487179,4650.769230,4048.205128,4074.871794
38,4393.333333,4583.076923,4562.051282,4035.384615,4480.512820,4208.717948,4445.128205,4234.871794,4240.512820,4470.769230,4189.743589,4642.564102,4037.435897,4070.256410
39,4382.564102,4580.512820,4552.307692,4033.846153,4476.923076,4212.307692,4443.076923,4226.153846,4237.948717,4465.641025,4181.538461,4633.846153,4026.153846,4062.051282
40,4385.641025,4569.743589,4551.794871,4042.051282,4477.435897,4214.871794,4443.589743,4224.102564,4242.051282,4465.641025,4187.179487,4635.897435,4031.794871,4061.538461
41,4394.871794,4578.461538,4557.435897,4048.717948,4485.641025,4212.820512,4446.666666,4230.769230,4246.666666,4468.205128,4186.153846,4640.512820,4035.897435,4067.692307
42,4392.307692,4589.230769,4552.307692,4047.179487,4483.589743,4208.205128,4444.102564,4226.153846,4242.051282,4465.128205,4185.128205,4636.923076,4036.410256,4069.743589
43,4389.743589,4580.512820,4547.179487,4049.743589,4477.948717,4206.666666,4441.025641,4224.102564,4238.461538,4467.179487,4196.410256,4636.923076,4039.487179,4067.179487
44,4391.282051,4573.333333,4551.794871,4062.051282,4473.333333,4206.666666,4440.512820,4229.743589,4240.000000,4468.717948,4201.025641,4642.564102,4041.025641,4067.692307
45,4386.666666,4574.358974,4551.282051,4058.461538,4466.666666,4202.564102,4435.897435,4226.666666,4240.512820,4463.076923,4189.743589,4640.512820,4029.230769,4066.153846
46,4377.948717,4568.205128,4541.025641,4039.487179,4463.076923,4195.897435,4428.205128,4220.000000,4237.948717,4458.461538,4180.512820,4632.307692,4014.358974,4059.487179
47,4376.923076,4564.615384,4534.358974,4036.410256,4465.128205,4196.923076,4426.153846,4223.589743,4238.461538,4462.051282,4188.717948,4630.769230,4029.230769,4057.948717
48,4388.205128,4574.358974,4538.974358,4051.794871,4471.794871,4205.641025,4435.897435,4228.205128,4244.615384,4472.820512,4207.179487,4637.435897,4056.923076,4067.692307
49,4395.897435,4584.102564,4548.205128,4059.487179,4476.923076,4210.769230,4440.000000,4230.769230,4250.256410,4480.512820,4214.871794,4643.589743,4047.179487,4070.256410
50,4390.256410,4586.153846,4549.743589,4048.717948,4476.923076,4205.128205,4433.333333,4234.358974,4246.153846,4472.307692,4208.717948,4642.564102,4026.666666,4066.666666
51,4381.538461,4576.923076,4544.615384,4038.461538,4469.230769,4196.410256,4432.307692,4231.794871,4241.025641,4465.128205,4197.948717,4638.974358,4033.846153,4066.666666
52,4383.589743,4566.153846,4547.179487,4048.717948,4464.615384,4195.897435,4434.358974,4224.102564,4241.538461,4471.794871,4196.923076,4636.923076,4039.487179,4064.615384
53,4388.717948,4577.435897,4555.897435,4065.128205,4469.230769,4197.948717,4434.358974,4219.487179,4236.923076,4468.205128,4206.666666,4640.000000,4033.333333,4064.102564
54,4387.692307,4592.820512,4556.410256,4063.589743,4475.384615,4198.461538,4433.846153,4213.846153,4226.666666,4452.820512,4208.205128,4642.564102,4036.410256,4068.205128
55,4385.641025,4582.564102,4551.282051,4056.410256,4475.897435,4200.000000,4433.333333,4208.205128,4224.615384,4451.794871,4200.000000,4635.897435,4035.384615,4066.666666
56,4383.589743,4571.282051,4550.256410,4057.948717,4472.307692,4200.512820,4434.358974,4210.769230,4228.205128,4461.538461,4195.897435,4628.205128,4028.717948,4063.589743
57,4385.641025,4580.512820,4552.820512,4061.025641,4472.820512,4199.487179,4435.897435,4221.538461,4234.358974,4465.641025,4196.410256,4634.358974,4030.769230,4068.205128
58,4389.230769,4587.692307,4553.846153,4059.487179,4473.846153,4196.923076,4432.820512,4222.564102,4233.846153,4462.051282,4201.025641,4641.025641,4030.256410,4069.230769
59,4386.666666,4581.538461,4547.179487,4054.871794,4471.794871,4197.435897,4432.307692,4215.897435,4227.179487,4454.358974,4203.076923,4637.435897,4025.641025,4062.051282
60,4380.512820,4577.435897,4538.974358,4047.692307,4467.692307,4200.512820,4436.410256,4212.307692,4224.615384,4450.256410,4193.846153,4631.794871,4030.256410,4058.461538
61,4373.333333,4579.487179,4538.974358,4049.230769,4466.666666,4200.000000,4433.333333,4210.769230,4218.974358,4447.179487,4185.641025,4624.102564,4022.564102,4052.307692
62,4366.666666,4577.948717,4539.487179,4059.487179,4470.769230,4198.461538,4435.897435,4210.769230,4210.256410,4445.641025,4187.179487,4619.487179,4005.641025,4046.153846
63,4368.717948,4575.897435,4536.410256,4062.051282,4473.333333,4203.589743,4445.641025,4216.410256,4219.487179,4453.333333,4184.615384,4624.615384,4014.358974,4049.743589
64,4377.948717,4587.179487,4539.487179,4059.487179,4475.897435,4209.743589,4445.641025,4225.128205,4237.435897,4458.974358,4189.230769,4631.282051,4027.179487,4056.410256
65,4381.538461,4595.384615,4549.743589,4066.153846,4479.487179,4207.692307,4445.128205,4226.153846,4234.358974,4460.512820,4201.538461,4634.358974,4021.538461,4057.435897
66,4377.435897,4585.128205,4550.769230,4075.384615,4476.923076,4208.205128,4449.743589,4225.128205,4222.051282,4457.948717,4200.000000,4635.384615,4022.051282,4057.948717
67,4375.384615,4581.538461,4541.538461,4068.205128,4472.820512,4211.794871,4447.179487,4223.589743,4223.589743,4455.384615,4187.179487,4632.820512,4024.615384,4057.948717
68,4371.794871,4591.794871,4536.923076,4056.923076,4474.358974,4206.153846,4441.025641,4221.025641,4226.666666,4453.846153,4186.666666,4630.256410,4013.333333,4053.333333
69,4367.179487,4590.256410,4537.948717,4058.461538,4473.846153,4202.051282,4441.538461,4221.538461,4224.615384,4453.333333,4194.358974,4629.230769,4014.358974,4051.282051
70,4368.205128,4576.410256,4537.948717,4064.615384,4473.333333,4205.641025,4443.076923,4224.615384,4230.256410,4455.384615,4189.743589,4627.692307,4028.717948,4054.871794
71,4373.333333,4576.410256,4537.948717,4068.717948,4475.384615,4209.743589,4440.000000,4228.205128,4237.948717,4465.128205,4186.153846,4630.256410,4027.179487,4057.435897
72,4376.923076,4594.358974,4538.974358,4069.230769,4471.282051,4205.128205,4438.461538,4227.179487,4233.846153,4468.205128,4193.333333,4632.820512,4024.615384,4056.923076
73,4372.820512,4602.051282,4538.461538,4066.666666,4465.641025,4200.512820,4440.000000,4221.538461,4222.051282,4451.282051,4194.871794,4630.256410,4027.692307,4055.384615
74,4367.179487,4584.102564,4538.461538,4071.282051,4469.743589,4203.589743,4440.512820,4213.846153,4220.000000,4447.692307,4188.717948,4628.717948,4019.487179,4054.871794
75,4366.666666,4574.871794,4537.948717,4077.435897,4475.897435,4207.179487,4443.589743,4213.846153,4226.666666,4467.179487,4186.153846,4628.717948,4021.025641,4054.358974
76,4367.179487,4593.333333,4538.461538,4077.435897,4477.948717,4208.205128,4446.666666,4224.615384,4229.743589,4470.769230,4188.717948,4628.717948,4037.435897,4053.333333
77,4368.205128,4601.025641,4538.974358,4076.410256,4476.410256,4208.205128,4445.641025,4228.205128,4227.692307,4456.923076,4192.307692,4632.820512,4032.307692,4055.384615
78,4366.666666,4587.692307,4538.974358,4075.384615,4470.769230,4206.153846,4441.538461,4224.102564,4226.153846,4451.794871,4191.282051,4632.820512,4010.769230,4057.948717
79,4360.000000,4582.051282,4537.435897,4067.179487,4466.153846,4202.051282,4439.487179,4220.512820,4224.615384,4452.820512,4183.589743,4626.666666,4013.333333,4052.307692
80,4362.051282,4589.743589,4536.923076,4061.025641,4472.820512,4204.615384,4443.589743,4220.512820,4223.076923,4451.794871,4177.948717,4626.666666,4024.102564,4048.717948
81,4370.769230,4595.897435,4539.487179,4060.000000,4481.538461,4208.205128,4449.743589,4225.128205,4226.153846,4457.435897,4180.512820,4632.820512,4020.512820,4055.384615
82,4364.102564,4588.205128,4537.948717,4052.307692,4470.769230,4201.025641,4445.641025,4227.692307,4226.666666,4456.923076,4177.948717,4629.230769,4015.897435,4051.794871
83,4354.358974,4575.384615,4534.358974,4046.153846,4456.410256,4190.769230,4435.384615,4222.051282,4222.051282,4449.230769,4173.846153,4624.615384,4010.256410,4041.025641
84,4361.025641,4578.461538,4536.923076,4050.256410,4463.589743,4190.256410,4435.897435,4220.512820,4225.128205,4455.897435,4179.487179,4630.256410,4007.179487,4046.666666
85,4369.230769,4592.820512,4542.051282,4049.743589,4471.794871,4200.000000,4442.051282,4228.717948,4233.846153,4469.230769,4182.051282,4635.384615,4022.564102,4053.333333
86,4365.641025,4594.871794,4539.487179,4039.487179,4469.230769,4202.564102,4443.076923,4225.128205,4230.256410,4464.615384,4177.948717,4632.307692,4031.794871,4049.743589
87,4362.051282,4592.307692,4536.410256,4038.461538,4465.641025,4197.948717,4442.564102,4212.820512,4222.051282,4449.743589,4178.461538,4626.153846,4015.384615,4046.153846
88,4360.512820,4591.794871,4538.974358,4044.102564,4464.102564,4200.000000,4441.025641,4215.897435,4225.641025,4444.615384,4180.000000,4625.128205,4003.589743,4043.589743
89,4355.897435,4586.666666,4536.410256,4037.435897,4470.256410,4204.102564,4436.410256,4218.461538,4223.076923,4445.641025,4172.820512,4626.666666,4012.307692,4041.025641
90,4353.333333,4585.128205,4530.769230,4029.230769,4472.307692,4197.435897,4430.256410,4211.282051,4212.307692,4449.230769,4169.230769,4622.564102,4013.333333,4038.974358
91,4357.435897,4592.820512,4533.846153,4031.794871,4465.128205,4191.282051,4429.230769,4211.282051,4215.384615,4451.794871,4175.897435,4622.564102,4008.717948,4041.538461
92,4366.153846,4595.384615,4541.025641,4036.410256,4465.641025,4195.384615,4434.358974,4216.410256,4224.615384,4450.256410,4181.025641,4632.307692,4020.512820,4050.256410
93,4368.717948,4592.820512,4541.025641,4032.820512,4468.717948,4202.051282,4435.897435,4211.794871,4219.487179,4455.897435,4187.179487,4636.410256,4035.897435,4056.923076
94,4364.615384,4595.384615,4538.461538,4025.128205,4464.615384,4202.051282,4434.871794,4207.692307,4216.410256,4466.153846,4186.153846,4629.230769,4032.820512,4052.820512
95,4363.076923,4594.871794,4538.461538,4023.076923,4464.102564,4196.923076,4435.384615,4218.461538,4225.128205,4461.025641,4175.384615,4625.641025,4022.564102,4048.205128
96,4367.179487,4590.769230,4538.461538,4027.692307,4467.179487,4192.820512,4434.358974,4225.641025,4230.769230,4450.769230,4178.461538,4627.692307,4023.076923,4049.230769
97,4368.205128,4589.230769,4539.487179,4033.333333,4466.666666,4193.846153,4433.846153,4225.128205,4230.256410,4458.974358,4188.205128,4631.794871,4026.666666,4051.282051
98,4365.641025,4589.230769,4543.076923,4035.384615,4468.717948,4201.025641,4440.000000,4230.256410,4231.282051,4472.820512,4184.615384,4634.358974,4032.307692,4053.333333
99,4363.076923,4591.794871,4538.974358,4031.794871,4472.820512,4203.589743,4445.641025,4232.307692,4234.871794,4465.641025,4177.948717,4631.282051,4032.307692,4048.205128
100,4354.871794,4593.846153,4526.153846,4023.076923,4468.205128,4198.974358,4441.538461,4216.923076,4228.717948,4446.666666,4173.333333,4622.564102,4012.820512,4038.461538
101,4346.153846,4586.666666,4523.589743,4023.076923,4461.538461,4198.974358,4437.948717,4206.153846,4216.923076,4440.000000,4169.230769,4614.358974,4005.128205,4035.897435
102,4351.794871,4582.564102,4535.384615,4034.871794,4463.589743,4202.051282,4440.512820,4216.923076,4216.923076,4449.230769,4173.333333,4617.948717,4025.128205,4040.512820
103,4363.076923,4596.410256,4541.538461,4040.512820,4473.846153,4203.076923,4442.564102,4223.076923,4225.128205,4461.538461,4181.538461,4628.205128,4029.743589,4048.205128
104,4361.538461,4607.179487,4538.461538,4033.333333,4475.384615,4201.538461,4438.461538,4211.794871,4221.025641,4459.487179,4181.025641,4626.666666,4012.307692,4050.256410
105,4353.846153,4598.461538,4535.384615,4029.743589,4470.256410,4199.487179,4436.410256,4205.641025,4213.846153,4444.615384,4171.282051,4617.948717,4012.820512,4044.102564
106,4356.410256,4590.256410,4536.410256,4043.589743,4474.871794,4200.512820,4441.025641,4215.384615,4220.000000,4443.076923,4166.153846,4620.000000,4024.102564,4045.128205
107,4362.564102,4595.897435,4538.461538,4056.923076,4474.871794,4200.512820,4441.538461,4219.487179,4224.615384,4450.769230,4173.333333,4627.179487,4024.102564,4048.717948
108,4363.589743,4606.666666,4538.974358,4055.897435,4468.717948,4197.948717,4433.846153,4215.384615,4223.076923,4450.769230,4178.974358,4628.205128,4021.538461,4047.179487
109,4367.692307,4607.179487,4539.487179,4055.897435,4470.769230,4198.974358,4431.794871,4218.461538,4227.692307,4454.358974,4180.512820,4629.230769,4023.076923,4049.230769
110,4375.897435,4598.461538,4542.051282,4063.076923,4474.871794,4203.589743,4439.487179,4221.025641,4232.820512,4461.538461,4186.153846,4634.358974,4032.820512,4056.923076
111,4375.897435,4595.897435,4541.025641,4061.538461,4474.871794,4205.128205,4436.923076,4218.974358,4231.282051,4461.538461,4183.076923,4634.358974,4042.564102,4057.948717
112,4370.769230,4594.358974,4537.948717,4057.435897,4472.307692,4202.564102,4430.769230,4217.435897,4228.717948,4458.974358,4167.692307,4628.717948,4038.461538,4054.871794
113,4373.846153,4583.076923,4538.974358,4061.025641,4473.846153,4200.000000,4432.307692,4215.384615,4226.666666,4452.820512,4167.179487,4627.179487,4030.769230,4051.282051
114,4379.487179,4575.897435,4538.974358,4061.538461,4477.948717,4202.051282,4433.333333,4215.384615,4231.794871,4450.256410,4178.974358,4630.256410,4029.743589,4048.717948
115,4381.538461,4580.000000,4540.512820,4060.000000,4475.897435,4207.179487,4434.358974,4220.512820,4238.974358,4459.487179,4181.538461,4630.769230,4035.384615,4052.307692
116,4382.051282,4588.205128,4547.692307,4064.615384,4473.333333,4205.128205,4437.948717,4224.102564,4238.974358,4466.153846,4177.435897,4632.307692,4053.846153,4058.974358
117,4382.051282,4591.794871,4546.666666,4062.564102,4478.461538,4205.641025,4438.461538,4220.000000,4237.435897,4462.051282,4171.794871,4632.307692,4056.410256,4057.435897
118,4377.948717,4580.000000,4536.923076,4050.256410,4481.538461,4210.256410,4434.871794,4214.871794,4240.000000,4455.384615,4165.641025,4624.615384,4037.948717,4048.205128
119,4377.948717,4569.230769,4536.923076,4049.743589,4476.410256,4207.179487,4436.410256,4216.923076,4239.487179,4451.794871,4167.179487,4623.076923,4041.025641,4048.717948
120,4387.179487,4579.487179,4550.769230,4061.025641,4474.358974,4205.128205,4438.974358,4225.641025,4239.487179,4453.333333,4180.512820,4634.358974,4063.076923,4060.512820
121,4393.333333,4589.743589,4555.384615,4064.102564,4477.948717,4208.205128,4438.461538,4226.153846,4241.025641,4462.564102,4187.692307,4637.948717,4063.076923,4064.102564
122,4390.769230,4589.230769,4543.589743,4054.871794,4477.435897,4206.666666,4435.384615,4218.461538,4237.435897,4463.589743,4178.461538,4630.769230,4055.384615,4058.974358
123,4389.743589,4590.256410,4542.051282,4045.128205,4474.871794,4204.615384,4435.384615,4219.487179,4237.435897,4454.358974,4176.410256,4629.230769,4063.589743,4059.487179
124,4392.307692,4583.589743,4554.358974,4046.153846,4474.871794,4207.692307,4444.615384,4225.641025,4242.564102,4454.358974,4185.128205,4634.871794,4065.128205,4064.102564
125,4387.692307,4573.333333,4550.769230,4050.256410,4475.384615,4208.717948,4447.179487,4222.564102,4240.000000,4461.025641,4183.076923,4631.282051,4054.871794,4058.974358
126,4379.487179,4576.923076,4537.435897,4046.153846,4471.282051,4204.102564,4436.410256,4211.794871,4229.230769,4454.358974,4168.205128,4621.538461,4053.333333,4050.256410
127,4385.128205,4584.102564,4540.512820,4041.025641,4467.692307,4201.538461,4430.256410,4207.692307,4225.128205,4440.512820,4165.641025,4620.512820,4066.666666,4053.333333
128,4394.358974,4592.820512,4551.282051,4046.666666,4471.794871,4203.589743,4435.384615,4214.358974,4233.846153,4446.153846,4178.461538,4628.205128,4073.333333,4060.512820
129,4391.282051,4593.333333,4552.307692,4053.333333,4476.410256,4207.179487,4434.871794,4216.410256,4242.051282,4458.461538,4179.487179,4631.794871,4056.410256,4057.435897
130,4383.589743,4576.410256,4543.589743,4047.692307,4477.948717,4204.102564,4431.282051,4209.743589,4234.871794,4456.410256,4167.692307,4624.102564,4047.179487,4052.307692
131,4385.128205,4574.358974,4542.564102,4038.461538,4471.282051,4199.487179,4435.897435,4209.743589,4225.128205,4447.179487,4163.589743,4620.000000,4063.589743,4053.846153
132,4387.692307,4591.282051,4549.743589,4034.358974,4464.102564,4200.512820,4438.461538,4218.974358,4227.179487,4446.153846,4168.717948,4626.666666,4070.256410,4056.410256
133,4381.025641,4582.564102,4546.666666,4033.846153,4467.179487,4198.461538,4433.846153,4217.435897,4230.256410,4449.743589,4167.692307,4626.153846,4054.871794,4050.256410
134,4375.384615,4563.076923,4537.435897,4030.769230,4471.282051,4198.974358,4430.769230,4209.743589,4230.769230,4449.743589,4164.102564,4621.025641,4050.769230,4044.615384
135,4377.948717,4575.897435,4540.512820,4021.538461,4472.307692,4204.102564,4434.358974,4211.282051,4230.256410,4449.230769,4162.564102,4624.615384,4060.512820,4046.666666
136,4375.897435,4589.743589,4542.564102,4010.769230,4470.769230,4201.538461,4438.974358,4213.846153,4226.666666,4443.589743,4150.769230,4625.128205,4056.923076,4044.615384
137,4366.666666,4576.410256,4536.410256,4011.794871,4464.102564,4196.410256,4438.461538,4207.692307,4222.051282,4433.846153,4141.025641,4615.384615,4040.000000,4033.333333
138,4366.666666,4562.564102,4536.410256,4015.897435,4460.000000,4198.461538,4431.794871,4198.461538,4214.871794,4429.230769,4143.589743,4614.358974,4035.384615,4031.282051
139,4376.923076,4567.179487,4537.948717,4012.820512,4465.641025,4200.000000,4426.666666,4193.846153,4207.179487,4436.923076,4145.641025,4618.974358,4046.666666,4041.025641
140,4380.000000,4575.897435,4537.948717,4014.871794,4472.307692,4198.461538,4431.282051,4198.974358,4210.256410,4444.102564,4146.153846,4620.000000,4053.333333,4047.692307
141,4378.974358,4580.000000,4546.666666,4023.076923,4472.307692,4200.512820,4435.384615,4207.692307,4220.512820,4440.512820,4146.153846,4625.128205,4051.282051,4047.692307
142,4382.564102,4584.615384,4549.230769,4022.051282,4469.743589,4202.051282,4432.820512,4207.179487,4222.564102,4442.051282,4146.666666,4628.205128,4052.820512,4045.128205
143,4385.641025,4593.846153,4545.128205,4017.435897,4468.717948,4203.589743,4433.333333,4206.153846,4220.000000,4455.384615,4150.256410,4629.743589,4066.666666,4049.743589
144,4386.153846,4593.333333,4551.282051,4021.538461,4475.384615,4207.179487,4437.948717,4217.948717,4229.230769,4464.102564,4158.974358,4632.820512,4069.230769,4057.435897
145,4387.179487,4580.512820,4553.333333,4028.717948,4479.487179,4204.102564,4435.897435,4223.589743,4237.435897,4453.846153,4157.948717,4632.820512,4056.410256,4055.384615
146,4389.230769,4590.769230,4548.205128,4027.692307,4470.769230,4198.974358,4434.358974,4215.384615,4229.743589,4447.692307,4149.230769,4630.256410,4061.538461,4053.333333
147,4390.256410,4610.769230,4547.692307,4020.512820,4463.589743,4200.512820,4434.871794,4215.384615,4228.717948,4461.025641,4151.794871,4631.794871,4078.974358,4057.948717
148,4386.153846,4594.871794,4547.692307,4017.948717,4466.666666,4200.000000,4433.333333,4220.512820,4235.897435,4465.128205,4157.948717,4631.794871,4071.282051,4056.410256
149,4378.974358,4572.820512,4544.615384,4020.000000,4467.179487,4198.461538,4431.282051,4216.410256,4227.692307,4449.743589,4151.794871,4628.205128,4055.897435,4048.717948
150,4381.025641,4589.743589,4550.256410,4028.205128,4467.179487,4200.000000,4433.333333,4215.384615,4222.051282,4446.666666,4145.641025,4628.205128,4063.076923,4050.769230
151,4389.743589,4607.692307,4557.435897,4038.461538,4469.230769,4202.051282,4436.410256,4220.000000,4238.461538,4461.025641,4158.461538,4634.871794,4071.282051,4060.512820
152,4386.666666,4597.435897,4554.358974,4034.358974,4466.153846,4198.461538,4436.410256,4213.333333,4237.435897,4459.487179,4160.000000,4635.897435,4071.794871,4062.564102
153,4374.871794,4585.641025,4544.102564,4024.102564,4462.051282,4194.358974,4429.743589,4204.102564,4218.461538,4445.641025,4141.025641,4625.128205,4071.282051,4050.256410
154,4373.846153,4587.179487,4541.025641,4033.333333,4463.589743,4195.897435,4426.153846,4210.256410,4221.538461,4446.666666,4141.538461,4617.435897,4063.076923,4043.076923
155,4383.589743,4596.923076,4552.307692,4046.153846,4467.179487,4198.461538,4430.769230,4215.384615,4229.743589,4455.384615,4154.358974,4623.589743,4060.512820,4051.794871
156,4386.666666,4604.615384,4558.974358,4044.102564,4465.641025,4198.461538,4429.743589,4212.820512,4226.666666,4454.871794,4150.256410,4631.282051,4066.153846,4058.461538
157,4383.589743,4599.487179,4553.333333,4043.589743,4463.076923,4198.974358,4427.692307,4216.410256,4225.641025,4457.948717,4140.512820,4632.820512,4071.794871,4056.410256
158,4380.000000,4590.769230,4556.410256,4054.358974,4468.205128,4204.102564,4433.333333,4219.487179,4228.717948,4463.076923,4144.615384,4631.282051,4076.923076,4055.384615
159,4379.487179,4594.871794,4562.564102,4059.487179,4473.333333,4207.179487,4442.051282,4215.897435,4229.230769,4456.410256,4148.205128,4633.846153,4066.153846,4056.410256
160,4384.615384,4600.512820,4559.487179,4050.256410,4469.743589,4203.589743,4443.589743,4219.487179,4228.205128,4449.743589,4145.128205,4635.384615,4053.846153,4056.410256
161,4380.512820,4588.717948,4553.333333,4044.615384,4461.025641,4198.974358,4431.282051,4215.897435,4216.923076,4450.769230,4135.897435,4623.589743,4060.000000,4050.256410
162,4372.307692,4577.948717,4551.282051,4053.333333,4463.076923,4197.435897,4423.076923,4203.076923,4210.769230,4450.256410,4132.307692,4613.846153,4063.076923,4045.641025
163,4381.538461,4588.205128,4554.871794,4062.564102,4471.794871,4201.025641,4432.820512,4207.692307,4226.153846,4450.256410,4145.128205,4627.692307,4063.076923,4053.846153
164,4389.230769,4599.487179,4557.435897,4057.948717,4469.230769,4202.564102,4440.512820,4218.974358,4231.282051,4455.384615,4153.846153,4638.461538,4067.692307,4057.948717
165,4377.948717,4595.897435,4553.333333,4046.153846,4462.564102,4200.512820,4431.794871,4215.897435,4222.564102,4459.487179,4146.153846,4629.230769,4065.128205,4048.205128
166,4374.358974,4593.333333,4549.743589,4045.641025,4465.641025,4203.076923,4430.769230,4213.333333,4228.205128,4463.589743,4142.051282,4622.564102,4063.589743,4048.717948
167,4382.564102,4593.333333,4552.820512,4054.358974,4475.384615,4207.692307,4437.435897,4217.435897,4234.871794,4467.179487,4147.179487,4629.743589,4068.205128,4055.897435
168,4383.076923,4594.358974,4554.871794,4054.871794,4477.948717,4204.615384,4433.333333,4218.461538,4226.666666,4466.666666,4151.794871,4634.871794,4070.256410,4055.897435
169,4380.000000,4596.410256,4555.384615,4047.179487,4469.743589,4196.410256,4428.205128,4222.051282,4228.717948,4465.128205,4155.384615,4634.871794,4077.435897,4060.512820
170,4382.564102,4596.923076,4556.410256,4045.641025,4461.538461,4194.358974,4429.230769,4223.589743,4242.051282,4466.153846,4157.948717,4633.846153,4079.487179,4062.564102
171,4386.153846,4602.051282,4557.948717,4049.743589,4465.641025,4198.461538,4430.769230,4222.051282,4239.487179,4469.230769,4158.974358,4635.384615,4070.256410,4056.410256
172,4386.666666,4606.153846,4556.410256,4046.153846,4472.307692,4199.487179,4430.769230,4223.589743,4232.820512,4467.179487,4153.333333,4637.948717,4070.769230,4055.384615
173,4378.974358,4594.358974,4551.794871,4039.487179,4466.666666,4199.487179,4429.230769,4219.487179,4233.846153,4460.512820,4142.051282,4632.307692,4067.692307,4052.307692
174,4376.410256,4588.717948,4551.794871,4045.128205,4466.666666,4205.641025,4431.794871,4213.333333,4230.256410,4462.564102,4146.153846,4630.256410,4058.461538,4051.282051
175,4383.589743,4606.153846,4556.410256,4052.820512,4477.948717,4208.717948,4441.025641,4218.461538,4232.307692,4471.282051,4158.461538,4637.948717,4073.333333,4058.974358
176,4384.615384,4607.692307,4556.410256,4045.128205,4474.871794,4208.205128,4444.615384,4222.564102,4235.384615,4466.153846,4153.846153,4638.974358,4083.076923,4061.538461
177,4375.897435,4593.846153,4552.820512,4034.871794,4468.717948,4207.692307,4437.435897,4215.384615,4229.743589,4455.384615,4146.153846,4631.794871,4066.153846,4055.384615
178,4376.410256,4602.564102,4554.871794,4040.000000,4475.897435,4206.666666,4432.820512,4214.358974,4229.743589,4461.025641,4152.307692,4633.333333,4065.641025,4058.974358
179,4386.153846,4611.282051,4557.435897,4047.692307,4481.538461,4210.256410,4436.923076,4217.435897,4238.974358,4473.846153,4160.000000,4636.923076,4081.025641,4069.230769
180,4387.692307,4602.564102,4555.897435,4043.589743,4477.948717,4209.743589,4435.897435,4217.435897,4241.025641,4475.897435,4159.487179,4633.333333,4080.512820,4066.666666
181,4384.615384,4604.102564,4553.333333,4039.487179,4474.871794,4206.153846,4432.820512,4216.923076,4233.333333,4465.641025,4155.384615,4630.769230,4077.435897,4057.948717
182,4388.717948,4615.897435,4554.358974,4048.205128,4472.307692,4208.717948,4433.333333,4216.923076,4230.769230,4463.589743,4151.794871,4632.307692,4081.025641,4057.948717
183,4398.461538,4614.358974,4559.487179,4057.948717,4476.410256,4209.743589,4435.384615,4217.435897,4234.871794,4477.435897,4157.435897,4638.461538,4081.025641,4066.153846
184,4403.076923,4607.179487,4564.102564,4055.384615,4484.615384,4207.179487,4436.923076,4222.564102,4239.487179,4483.589743,4164.615384,4645.128205,4080.512820,4072.820512
185,4402.564102,4611.794871,4568.205128,4053.846153,4484.102564,4208.205128,4435.897435,4225.128205,4244.102564,4480.512820,4170.769230,4648.717948,4089.230769,4074.871794
186,4401.025641,4624.615384,4566.666666,4064.615384,4477.948717,4212.820512,4438.974358,4222.564102,4250.256410,4482.564102,4176.410256,4649.743589,4097.948717,4074.871794
187,4395.897435,4627.179487,4557.948717,4067.179487,4476.410256,4212.307692,4441.025641,4217.948717,4244.615384,4478.461538,4169.743589,4642.564102,4090.769230,4069.230769
188,4390.256410,4612.307692,4552.820512,4057.948717,4477.948717,4208.717948,4435.897435,4209.230769,4225.641025,4464.615384,4158.461538,4633.333333,4075.384615,4063.589743
189,4386.666666,4599.487179,4551.282051,4057.948717,4475.897435,4204.615384,4432.820512,4209.743589,4223.589743,4464.102564,4158.461538,4632.307692,4072.307692,4058.974358
190,4382.051282,4602.564102,4544.615384,4062.564102,4468.717948,4205.128205,4435.897435,4214.358974,4231.282051,4468.717948,4162.051282,4628.205128,4071.282051,4053.333333
191,4375.384615,4608.205128,4535.384615,4057.948717,4466.666666,4204.615384,4434.358974,4209.230769,4227.179487,4461.025641,4156.410256,4614.871794,4063.076923,4049.230769
192,4372.307692,4596.923076,4537.435897,4051.794871,4465.641025,4198.461538,4426.153846,4205.128205,4221.025641,4453.333333,4150.769230,4612.820512,4057.435897,4046.666666
193,4375.897435,4587.179487,4542.564102,4051.794871,4461.025641,4199.487179,4427.692307,4214.358974,4224.102564,4457.948717,4154.871794,4623.589743,4060.512820,4048.717948
194,4381.538461,4603.076923,4543.076923,4063.589743,4467.179487,4206.666666,4436.410256,4223.589743,4231.282051,4467.692307,4161.025641,4628.717948,4077.435897,4055.897435
195,4383.076923,4614.358974,4547.179487,4073.333333,4473.333333,4207.692307,4439.487179,4222.564102,4233.846153,4469.230769,4168.205128,4627.179487,4085.128205,4057.948717
196,4380.000000,4605.641025,4548.717948,4067.692307,4467.179487,4203.589743,4434.358974,4217.948717,4228.717948,4463.589743,4172.307692,4625.641025,4062.564102,4054.871794
197,4381.025641,4610.769230,4545.128205,4064.102564,4465.641025,4202.051282,4431.794871,4214.358974,4224.615384,4462.051282,4171.282051,4626.666666,4056.410256,4055.384615
198,4389.230769,4622.051282,4549.743589,4074.358974,4470.256410,4206.153846,4436.410256,4216.923076,4232.820512,4467.179487,4169.743589,4633.333333,4087.692307,4063.076923
199,4390.769230,4610.769230,4555.897435,4078.461538,4469.230769,4204.102564,4433.846153,4221.025641,4238.974358,4467.692307,4167.179487,4634.358974,4095.897435,4065.128205
200,4380.000000,4599.487179,4547.179487,4065.128205,4466.666666,4195.384615,4423.076923,4213.333333,4227.692307,4458.974358,4165.641025,4622.564102,4066.666666,4057.435897
201,4375.897435,4610.256410,4538.461538,4057.435897,4465.128205,4194.358974,4425.128205,4209.743589,4220.512820,4453.333333,4170.769230,4617.435897,4051.282051,4051.282051
202,4380.512820,4613.846153,4543.589743,4065.128205,4460.512820,4200.000000,4434.358974,4214.358974,4225.641025,4456.923076,4172.307692,4622.564102,4065.128205,4052.307692
203,4373.333333,4591.794871,4539.487179,4066.666666,4458.974358,4201.025641,4433.333333,4209.230769,4222.051282,4456.923076,4160.000000,4620.512820,4070.769230,4050.256410
204,4368.205128,4586.153846,4536.923076,4062.051282,4465.128205,4204.102564,4428.205128,4202.051282,4212.307692,4451.794871,4153.846153,4616.410256,4059.487179,4045.641025
205,4383.076923,4620.512820,4550.769230,4069.230769,4471.794871,4209.743589,4428.205128,4209.743589,4218.461538,4451.794871,4168.205128,4626.153846,4058.461538,4053.846153
206,4391.794871,4632.820512,4558.461538,4074.871794,4468.205128,4205.641025,4429.743589,4218.461538,4226.666666,4453.846153,4178.461538,4638.461538,4067.692307,4061.538461
207,4381.538461,4600.000000,4553.846153,4067.179487,4462.564102,4201.538461,4434.358974,4216.410256,4219.487179,4448.717948,4169.230769,4634.358974,4069.743589,4056.923076
208,4373.846153,4588.205128,4552.820512,4064.615384,4470.769230,4204.102564,4438.974358,4212.307692,4207.179487,4442.564102,4165.128205,4623.076923,4063.076923,4052.307692
209,4371.794871,4607.692307,4550.769230,4069.230769,4478.461538,4205.128205,4435.897435,4211.794871,4208.717948,4441.025641,4169.230769,4620.512820,4055.897435,4051.794871
210,4372.820512,4613.846153,4544.615384,4068.205128,4468.205128,4204.102564,4432.307692,4214.358974,4221.025641,4446.666666,4166.666666,4626.153846,4053.333333,4052.820512
211,4382.051282,4613.333333,4550.769230,4069.743589,4460.512820,4205.641025,4433.846153,4217.435897,4227.692307,4459.487179,4174.871794,4633.333333,4066.153846,4060.000000
212,4387.179487,4616.923076,4557.435897,4076.410256,4468.205128,4203.589743,4431.282051,4216.923076,4225.128205,4463.589743,4189.230769,4637.435897,4080.000000,4065.641025
213,4380.000000,4612.307692,4552.820512,4075.897435,4469.743589,4198.461538,4426.153846,4211.282051,4221.538461,4454.358974,4184.615384,4634.358974,4076.410256,4060.512820
214,4377.435897,4610.769230,4549.230769,4070.256410,4462.564102,4196.923076,4428.205128,4210.256410,4222.051282,4453.333333,4173.333333,4631.794871,4065.128205,4056.410256
215,4377.435897,4609.230769,4546.153846,4065.128205,4464.615384,4198.461538,4431.794871,4212.307692,4223.589743,4457.435897,4172.307692,4632.307692,4066.153846,4053.846153
216,4369.230769,4596.410256,4538.461538,4063.076923,4468.205128,4202.564102,4429.743589,4208.205128,4220.512820,4455.384615,4168.717948,4624.615384,4071.794871,4049.230769
217,4367.692307,4599.487179,4537.435897,4069.743589,4462.564102,4206.153846,4430.769230,4207.692307,4219.487179,4456.410256,4172.307692,4618.974358,4063.589743,4051.794871
218,4377.948717,4621.025641,4546.153846,4076.923076,4466.153846,4206.666666,4434.358974,4213.846153,4223.589743,4463.589743,4187.692307,4625.128205,4061.025641,4057.948717
219,4384.102564,4629.743589,4551.282051,4076.923076,4476.410256,4206.153846,4431.282051,4214.358974,4227.179487,4466.666666,4189.743589,4629.230769,4082.564102,4061.538461
220,4383.589743,4617.948717,4551.794871,4078.974358,4474.871794,4206.153846,4426.666666,4212.307692,4225.641025,4468.717948,4187.179487,4630.256410,4092.820512,4062.564102
221,4381.025641,4605.641025,4553.333333,4081.538461,4466.666666,4201.538461,4426.153846,4217.948717,4224.102564,4466.153846,4191.794871,4632.820512,4073.333333,4060.512820
222,4377.435897,4607.179487,4551.794871,4078.974358,4459.487179,4195.384615,4427.692307,4221.538461,4227.179487,4465.641025,4192.307692,4630.769230,4065.641025,4056.923076
223,4373.333333,4617.948717,4547.692307,4075.897435,4459.487179,4194.358974,4428.717948,4215.384615,4227.692307,4464.615384,4186.666666,4622.564102,4072.820512,4053.846153
224,4369.230769,4612.307692,4541.538461,4074.358974,4463.076923,4197.948717,4425.641025,4207.179487,4220.512820,4452.307692,4181.025641,4619.487179,4066.153846,4047.179487
225,4369.743589,4596.410256,4540.000000,4074.871794,4467.692307,4199.487179,4427.179487,4208.717948,4221.538461,4451.794871,4185.641025,4622.564102,4063.076923,4047.179487
226,4377.435897,4611.794871,4548.717948,4082.051282,4468.717948,4198.461538,4432.307692,4214.871794,4232.307692,4468.717948,4195.897435,4630.769230,4071.282051,4059.487179
227,4377.948717,4623.589743,4550.256410,4083.589743,4462.564102,4197.948717,4428.205128,4211.794871,4225.128205,4466.153846,4196.923076,4632.820512,4069.230769,4058.974358
228,4368.717948,4602.051282,4543.076923,4075.384615,4455.384615,4194.358974,4420.512820,4205.641025,4210.256410,4452.307692,4188.717948,4624.102564,4062.051282,4045.641025
229,4370.256410,4595.384615,4545.128205,4077.948717,4462.051282,4192.820512,4422.051282,4207.179487,4215.384615,4458.461538,4192.820512,4622.564102,4065.641025,4048.717948
230,4382.051282,4611.282051,4557.948717,4086.153846,4473.333333,4196.410256,4424.615384,4213.846153,4224.615384,4463.589743,4204.102564,4631.794871,4069.743589,4061.538461
231,4382.051282,4608.205128,4554.871794,4080.512820,4469.230769,4202.564102,4427.692307,4214.358974,4230.769230,4456.410256,4200.000000,4634.358974,4068.717948,4055.897435
232,4373.846153,4588.205128,4540.512820,4072.820512,4458.974358,4201.025641,4431.794871,4211.282051,4233.333333,4455.384615,4189.230769,4626.153846,4069.743589,4044.102564
233,4375.384615,4579.487179,4541.025641,4073.333333,4458.461538,4197.948717,4429.230769,4211.282051,4229.230769,4457.948717,4192.820512,4623.589743,4064.102564,4046.666666
234,4382.051282,4583.589743,4547.179487,4073.333333,4464.615384,4200.000000,4426.666666,4214.358974,4229.230769,4459.487179,4203.076923,4628.717948,4061.538461,4052.307692
235,4386.153846,4592.307692,4548.205128,4076.923076,4465.641025,4200.512820,4428.717948,4218.974358,4238.461538,4467.692307,4201.538461,4632.820512,4080.000000,4054.358974
236,4390.769230,4592.820512,4551.282051,4085.128205,4463.589743,4195.897435,4425.128205,4223.076923,4242.564102,4471.794871,4200.000000,4633.846153,4094.871794,4058.974358
237,4393.333333,4585.128205,4553.846153,4082.051282,4463.076923,4191.794871,4418.974358,4224.102564,4238.974358,4465.641025,4205.128205,4632.307692,4081.538461,4057.435897
238,4390.769230,4581.538461,4544.615384,4074.871794,4458.461538,4194.358974,4426.153846,4222.564102,4236.923076,4462.564102,4198.974358,4630.769230,4074.871794,4053.846153
239,4388.205128,4580.512820,4538.974358,4078.461538,4459.487179,4204.102564,4440.000000,4224.102564,4235.384615,4462.564102,4196.923076,4629.230769,4091.794871,4053.846153
240,4384.102564,4573.333333,4538.974358,4076.923076,4469.230769,4207.692307,4444.102564,4220.000000,4231.794871,4457.948717,4200.512820,4624.615384,4086.666666,4048.205128
241,4375.384615,4566.153846,4530.769230,4067.179487,4470.256410,4201.538461,4438.461538,4212.820512,4229.743589,4452.820512,4189.743589,4617.435897,4060.512820,4037.948717
242,4376.410256,4571.794871,4530.769230,4068.205128,4465.128205,4198.974358,4432.820512,4215.384615,4228.205128,4452.820512,4182.051282,4615.384615,4065.641025,4039.487179
243,4386.153846,4582.051282,4537.948717,4083.076923,4467.692307,4200.512820,4431.794871,4217.435897,4228.205128,4454.358974,4188.205128,4620.000000,4089.743589,4048.717948
244,4390.256410,4583.076923,4536.923076,4084.102564,4469.230769,4201.025641,4433.333333,4212.820512,4230.256410,4456.410256,4190.256410,4625.128205,4089.230769,4051.794871
245,4388.205128,4578.974358,4537.435897,4069.743589,4464.615384,4202.051282,4433.333333,4210.769230,4229.743589,4456.410256,4193.333333,4625.641025,4073.333333,4048.717948
246,4383.589743,4564.615384,4539.487179,4068.205128,4462.564102,4196.410256,4426.666666,4211.282051,4223.589743,4449.743589,4196.923076,4622.564102,4070.256410,4041.538461
247,4384.102564,4552.307692,4535.897435,4078.974358,4462.564102,4190.256410,4425.128205,4213.846153,4227.692307,4451.282051,4189.230769,4623.589743,4079.487179,4040.512820
248,4393.333333,4573.333333,4540.512820,4083.076923,4466.153846,4199.487179,4436.923076,4223.589743,4243.589743,4466.666666,4193.846153,4632.820512,4088.205128,4051.282051
249,4401.538461,4592.307692,4551.794871,4081.025641,4474.871794,4208.717948,4441.538461,4226.153846,4245.641025,4471.794871,4206.153846,4640.512820,4086.666666,4058.974358
250,4398.974358,4577.435897,4553.846153,4086.666666,4479.487179,4205.641025,4436.410256,4222.564102,4239.487179,4463.589743,4206.666666,4639.487179,4084.102564,4057.948717
251,4396.410256,4570.769230,4554.358974,4092.307692,4472.820512,4204.102564,4437.948717,4226.153846,4244.615384,4461.025641,4204.615384,4637.435897,4093.333333,4056.410256
252,4396.410256,4584.102564,4551.794871,4086.666666,4463.589743,4204.102564,4438.461538,4227.692307,4246.153846,4467.179487,4204.615384,4635.384615,4100.000000,4056.410256
253,4392.307692,4580.512820,4543.076923,4076.410256,4465.641025,4200.512820,4435.384615,4226.153846,4236.410256,4467.692307,4204.615384,4631.282051,4087.179487,4053.333333
254,4392.307692,4566.666666,4546.153846,4075.897435,4472.820512,4199.487179,4443.076923,4231.794871,4241.025641,4463.589743,4211.794871,4634.358974,4072.820512,4051.794871
255,4395.897435,4571.282051,4554.871794,4083.076923,4467.692307,4204.615384,4450.769230,4239.487179,4254.358974,4463.076923,4211.282051,4640.000000,4083.589743,4055.897435
256,4395.384615,4578.461538,4548.205128,4078.461538,4458.461538,4207.692307,4447.179487,4235.384615,4250.256410,4468.717948,4198.974358,4636.923076,4102.051282,4055.384615
257,4389.743589,4577.435897,4538.461538,4068.717948,4458.461538,4206.666666,4441.025641,4226.666666,4239.487179,4471.282051,4199.487179,4631.794871,4095.897435,4049.743589
258,4388.205128,4567.692307,4538.974358,4073.333333,4466.153846,4202.564102,4439.487179,4221.538461,4238.974358,4463.076923,4209.743589,4632.307692,4073.333333,4048.717948
259,4392.820512,4562.564102,4544.615384,4086.153846,4470.769230,4200.000000,4437.435897,4217.948717,4242.051282,4455.897435,4207.692307,4632.820512,4069.230769,4052.307692
