,AF3,F7,F3,FC5,T7,P7,O1,O2,P8,T8,FC6,F4,F8,AF4
0,4328.205128,4394.358974,4531.794871,4236.923076,4490.769230,4168.717948,4424.615384,4195.384615,4205.641025,4481.025641,4173.846153,4637.948717,3981.025642,4022.051282
1,4327.692307,4396.923076,4528.205128,4235.384615,4488.717948,4166.666666,4422.051282,4194.871794,4210.769230,4482.051282,4180.000000,4634.871794,3987.692308,4025.128205
2,4334.871794,4409.743589,4528.717948,4234.871794,4494.358974,4170.256410,4426.666666,4199.487179,4217.948717,4492.820512,4192.307692,4637.435897,3980.512821,4037.435897
3,4340.000000,4413.333333,4535.384615,4241.025641,4502.564102,4176.923076,4431.282051,4202.051282,4222.564102,4496.410256,4205.128205,4645.641025,3974.871795,4037.435897
4,4349.743589,4418.974358,4543.589743,4250.256410,4505.641025,4178.974358,4429.230769,4201.538461,4223.589743,4493.333333,4202.564102,4651.282051,3983.589744,4041.538461
5,4353.846153,4428.205128,4548.205128,4251.794871,4501.025641,4174.871794,4428.717948,4202.051282,4218.974358,4492.820512,4193.333333,4648.717948,4001.025641,4050.769230
6,4344.102564,4425.128205,4546.153846,4240.512820,4500.512820,4177.435897,4430.256410,4200.512820,4216.410256,4492.307692,4194.871794,4646.153846,4001.538461,4044.102564
7,4339.487179,4416.923076,4537.435897,4231.282051,4507.692307,4183.076923,4429.743589,4201.538461,4218.461538,4489.743589,4191.282051,4644.102564,3985.641026,4033.333333
8,4344.615384,4420.000000,4534.871794,4229.743589,4509.230769,4181.025641,4426.666666,4202.564102,4218.974358,4488.717948,4182.051282,4640.000000,3976.410257,4033.846153
9,4350.769230,4425.128205,4542.051282,4235.384615,4507.179487,4178.974358,4427.179487,4200.000000,4218.461538,4493.846153,4192.307692,4642.564102,3983.589744,4041.025641
10,4357.435897,4433.333333,4547.179487,4248.717948,4505.641025,4178.461538,4429.230769,4200.512820,4214.358974,4497.435897,4203.076923,4650.769230,3991.794872,4047.179487
11,4355.384615,4437.948717,4544.102564,4247.692307,4502.051282,4172.820512,4426.666666,4197.435897,4204.102564,4492.820512,4198.974358,4647.179487,3990.769231,4044.615384
12,4342.051282,4429.230769,4537.948717,4233.846153,4503.076923,4169.230769,4424.102564,4186.153846,4198.461538,4485.128205,4193.333333,4635.897435,3988.717949,4034.358974
13,4339.487179,4422.564102,4535.384615,4237.948717,4505.641025,4176.923076,4425.641025,4185.128205,4206.153846,4482.051282,4193.846153,4636.410256,3989.743590,4031.282051
14,4348.205128,4428.205128,4535.384615,4248.717948,4506.153846,4180.512820,4426.666666,4196.410256,4217.435897,4483.589743,4196.923076,4643.076923,3980.512821,4038.461538
15,4351.282051,4433.333333,4534.871794,4247.179487,4506.153846,4175.384615,4425.641025,4199.487179,4214.358974,4485.128205,4194.358974,4642.051282,3975.384616,4040.512820
16,4350.769230,4432.307692,4537.948717,4252.820512,4505.641025,4175.384615,4427.692307,4197.948717,4209.230769,4490.256410,4189.743589,4638.974358,3990.769231,4040.000000
17,4350.769230,4441.538461,4543.076923,4257.435897,4505.128205,4182.564102,4431.794871,4202.051282,4211.794871,4496.410256,4194.358974,4641.538461,4000.000000,4040.512820
18,4346.666666,4447.692307,4540.512820,4254.871794,4506.666666,4187.179487,4431.794871,4202.051282,4211.794871,4483.589743,4206.153846,4644.102564,3984.615385,4037.435897
19,4344.615384,4436.923076,4533.846153,4257.948717,4507.692307,4180.512820,4427.179487,4195.384615,4209.743589,4469.230769,4207.179487,4642.051282,3972.307693,4036.923076
20,4352.307692,4436.410256,4534.871794,4260.000000,4506.666666,4176.410256,4427.179487,4197.435897,4212.820512,4486.666666,4203.076923,4643.076923,3985.641026,4041.538461
21,4353.333333,4444.102564,4534.871794,4250.769230,4505.641025,4177.948717,4430.769230,4204.102564,4206.153846,4500.000000,4198.461538,4643.076923,3990.256411,4040.512820
22,4341.025641,4442.051282,4528.205128,4244.102564,4503.076923,4173.333333,4427.692307,4195.897435,4195.384615,4484.102564,4191.282051,4634.871794,3973.333334,4032.307692
23,4338.974358,4440.512820,4530.256410,4247.179487,4503.076923,4171.794871,4424.615384,4190.769230,4206.153846,4483.589743,4190.256410,4636.923076,3973.846154,4033.333333
24,4356.923076,4447.179487,4544.615384,4253.333333,4507.179487,4182.564102,4436.410256,4205.128205,4223.076923,4503.076923,4198.974358,4651.282051,3989.743590,4044.102564
25,4366.153846,4449.743589,4549.230769,4256.410256,4508.205128,4185.128205,4442.564102,4212.820512,4219.487179,4502.564102,4213.333333,4651.282051,3992.307693,4052.307692
26,4358.461538,4447.179487,4538.974358,4249.743589,4507.692307,4176.923076,4433.333333,4203.589743,4213.333333,4492.820512,4217.435897,4645.641025,3988.205129,4047.179487
27,4353.846153,4439.487179,4534.358974,4247.179487,4504.615384,4175.897435,4431.282051,4201.025641,4212.820512,4490.256410,4204.615384,4648.717948,3986.666667,4036.923076
28,4353.333333,4430.256410,4538.461538,4255.897435,4499.487179,4175.897435,4433.846153,4203.076923,4210.256410,4486.666666,4195.384615,4647.179487,3977.948718,4035.897435
29,4352.820512,4444.102564,4541.025641,4261.538461,4499.487179,4169.743589,4429.230769,4199.487179,4208.717948,4484.615384,4196.410256,4642.051282,3970.256411,4040.000000
30,4363.076923,4460.512820,4541.025641,4261.025641,4505.128205,4170.256410,4431.794871,4200.512820,4209.230769,4489.230769,4197.435897,4646.666666,3977.948718,4044.615384
31,4369.743589,4450.769230,4544.102564,4263.589743,4506.153846,4177.435897,4440.000000,4203.589743,4209.230769,4497.435897,4204.102564,4651.794871,3989.743590,4051.282051
32,4360.512820,4438.461538,4544.615384,4265.641025,4505.128205,4180.512820,4440.512820,4203.589743,4215.897435,4503.589743,4216.410256,4649.743589,3993.846154,4047.179487
33,4354.358974,4441.538461,4540.000000,4254.871794,4505.641025,4177.948717,4435.384615,4202.564102,4219.487179,4501.025641,4208.205128,4644.615384,3984.615385,4037.948717
34,4362.564102,4453.333333,4541.538461,4247.692307,4503.076923,4173.846153,4431.282051,4202.051282,4213.333333,4491.794871,4195.384615,4645.128205,3980.512821,4045.128205
35,4369.743589,4460.512820,4549.743589,4260.000000,4504.102564,4172.307692,4428.717948,4206.666666,4216.410256,4488.205128,4203.589743,4650.769230,3986.666667,4056.410256
36,4366.153846,4452.307692,4549.743589,4270.256410,4507.692307,4173.846153,4428.717948,4208.717948,4220.000000,4494.871794,4206.666666,4647.692307,3986.153847,4048.717948
37,4357.435897,4438.461538,4541.025641,4264.615384,4502.051282,4177.435897,4430.256410,4204.615384,4213.333333,4500.000000,4196.923076,4638.461538,3982.564103,4042.051282
38,4356.923076,4443.076923,4535.384615,4253.846153,4499.487179,4177.435897,4433.333333,4204.102564,4215.384615,4496.923076,4201.538461,4640.000000,3983.589744,4045.128205
39,4360.512820,4449.743589,4533.846153,4245.641025,4504.615384,4170.769230,4431.794871,4204.615384,4221.025641,4493.333333,4208.205128,4642.564102,3976.410257,4038.974358
40,4354.358974,4443.589743,4532.820512,4248.717948,4498.461538,4168.717948,4426.153846,4194.358974,4208.717948,4488.717948,4191.282051,4636.410256,3965.641026,4029.230769
41,4353.846153,4442.051282,4534.358974,4267.692307,4492.307692,4170.769230,4426.153846,4187.692307,4196.410256,4480.512820,4180.512820,4636.410256,3971.282052,4035.897435
42,4363.589743,4446.666666,4540.000000,4283.589743,4499.487179,4171.282051,4429.743589,4196.923076,4205.641025,4484.102564,4196.410256,4644.615384,3984.102565,4049.230769
43,4360.000000,4441.538461,4537.435897,4272.820512,4496.923076,4171.282051,4427.692307,4200.000000,4211.282051,4492.820512,4200.000000,4643.076923,3984.615385,4042.564102
44,4352.307692,4437.435897,4527.692307,4258.974358,4492.307692,4170.256410,4424.615384,4193.846153,4206.153846,4491.282051,4190.256410,4633.846153,3972.820513,4033.333333
45,4358.974358,4447.179487,4528.205128,4258.461538,4498.461538,4171.794871,4428.205128,4197.948717,4211.794871,4485.128205,4198.461538,4636.410256,3966.153847,4039.487179
46,4363.076923,4449.743589,4534.358974,4255.384615,4494.871794,4173.333333,4430.256410,4203.076923,4212.820512,4482.051282,4202.564102,4641.538461,3971.282052,4042.051282
47,4353.846153,4440.512820,4529.743589,4253.333333,4491.794871,4173.333333,4428.717948,4197.948717,4198.974358,4481.025641,4180.000000,4635.897435,3976.410257,4036.410256
48,4354.871794,4440.000000,4527.179487,4258.974358,4505.128205,4179.487179,4433.846153,4199.487179,4198.461538,4488.205128,4180.000000,4631.794871,3973.846154,4040.000000
49,4365.641025,4449.743589,4533.846153,4260.512820,4510.256410,4186.666666,4438.974358,4204.615384,4209.743589,4497.435897,4208.717948,4638.974358,3971.794872,4041.025641
50,4366.666666,4452.820512,4537.435897,4254.358974,4504.615384,4182.564102,4436.923076,4201.538461,4212.820512,4498.974358,4209.743589,4643.589743,3977.435898,4034.871794
51,4366.153846,4448.717948,4535.897435,4259.487179,4507.179487,4174.358974,4435.897435,4200.512820,4217.435897,4500.000000,4197.948717,4643.076923,3986.666667,4040.000000
52,4365.641025,4440.512820,4531.794871,4264.102564,4503.589743,4171.794871,4435.384615,4202.051282,4217.948717,4493.846153,4197.435897,4639.487179,3979.487180,4044.615384
53,4358.974358,4437.948717,4526.666666,4253.846153,4491.794871,4170.256410,4428.205128,4198.974358,4205.128205,4478.461538,4188.717948,4632.307692,3961.025642,4036.923076
54,4355.384615,4441.025641,4526.666666,4252.307692,4490.769230,4169.230769,4424.102564,4198.974358,4198.974358,4482.051282,4182.051282,4629.743589,3962.564103,4031.794871
55,4361.025641,4441.025641,4529.230769,4257.435897,4492.307692,4168.205128,4432.307692,4202.564102,4207.179487,4496.410256,4194.358974,4633.846153,3978.461539,4034.871794
56,4366.153846,4442.564102,4531.794871,4261.538461,4492.820512,4171.794871,4440.512820,4204.102564,4217.948717,4500.512820,4204.102564,4636.923076,3982.051283,4037.435897
57,4363.076923,4444.102564,4533.846153,4261.538461,4499.487179,4178.461538,4443.076923,4206.666666,4221.025641,4497.435897,4198.461538,4638.461538,3969.743590,4032.307692
58,4355.384615,4435.384615,4530.769230,4256.410256,4500.000000,4174.871794,4441.025641,4204.615384,4209.230769,4489.743589,4189.743589,4636.410256,3956.923077,4027.692307
59,4348.205128,4426.153846,4523.589743,4248.205128,4493.846153,4173.333333,4438.461538,4200.000000,4197.948717,4481.025641,4178.974358,4629.230769,3956.923077,4027.692307
60,4353.846153,4433.333333,4525.128205,4247.179487,4492.820512,4176.923076,4440.000000,4207.179487,4206.666666,4483.589743,4176.410256,4630.256410,3962.051283,4029.743589
61,4365.641025,4447.692307,4533.846153,4253.846153,4495.897435,4175.897435,4443.589743,4218.461538,4223.589743,4496.923076,4186.666666,4639.487179,3961.538462,4035.897435
62,4365.641025,4447.692307,4536.923076,4249.743589,4501.538461,4176.410256,4446.666666,4220.000000,4227.692307,4503.589743,4197.948717,4642.564102,3967.692308,4044.102564
63,4361.538461,4440.000000,4534.871794,4246.153846,4501.538461,4179.487179,4447.179487,4212.820512,4220.000000,4500.000000,4201.538461,4641.538461,3977.435898,4042.564102
64,4365.128205,4438.461538,4534.871794,4252.307692,4497.435897,4177.948717,4448.205128,4210.256410,4216.410256,4493.333333,4200.512820,4643.589743,3967.692308,4036.923076
65,4370.769230,4444.102564,4536.923076,4256.923076,4497.948717,4178.461538,4445.641025,4210.769230,4216.923076,4490.769230,4194.871794,4641.538461,3962.051283,4038.974358
66,4368.717948,4449.743589,4532.820512,4253.333333,4499.487179,4183.076923,4443.076923,4205.641025,4211.794871,4494.358974,4192.307692,4634.871794,3972.820513,4040.512820
67,4359.487179,4445.641025,4527.179487,4247.692307,4501.538461,4181.538461,4443.589743,4200.000000,4207.179487,4492.307692,4190.769230,4632.307692,3973.333334,4035.897435
68,4352.820512,4430.256410,4528.205128,4242.564102,4501.538461,4177.435897,4443.589743,4198.461538,4208.205128,4484.615384,4175.384615,4630.769230,3964.615385,4032.820512
69,4357.948717,4426.153846,4531.282051,4247.179487,4495.897435,4177.435897,4443.589743,4202.564102,4208.205128,4481.538461,4173.333333,4628.717948,3966.666667,4036.923076
70,4364.615384,4434.358974,4531.794871,4263.589743,4495.384615,4180.000000,4449.743589,4207.692307,4211.282051,4487.179487,4199.487179,4632.820512,3962.051283,4040.000000
71,4360.512820,4434.358974,4532.820512,4259.487179,4502.564102,4184.615384,4450.769230,4206.666666,4218.461538,4491.282051,4202.564102,4634.358974,3953.846154,4038.974358
72,4352.820512,4426.666666,4529.230769,4237.948717,4500.000000,4183.589743,4445.128205,4204.615384,4216.410256,4484.615384,4172.820512,4629.230769,3962.564103,4038.974358
73,4352.820512,4426.153846,4525.128205,4228.717948,4499.487179,4183.589743,4450.769230,4210.769230,4211.282051,4483.076923,4166.666666,4630.256410,3978.461539,4043.076923
74,4359.487179,4433.333333,4531.794871,4231.794871,4510.769230,4187.179487,4457.435897,4212.820512,4216.923076,4494.871794,4185.641025,4636.923076,3983.076924,4045.128205
75,4355.384615,4427.692307,4532.307692,4232.307692,4504.102564,4184.102564,4447.179487,4200.512820,4217.435897,4492.307692,4184.615384,4630.769230,3971.794872,4042.051282
76,4342.564102,4410.769230,4523.589743,4223.589743,4490.769230,4180.512820,4439.487179,4194.871794,4207.179487,4473.846153,4170.256410,4617.948717,3962.564103,4039.487179
77,4347.692307,4420.512820,4526.666666,4216.410256,4497.435897,4183.589743,4447.179487,4206.153846,4206.153846,4469.230769,4173.333333,4624.615384,3976.410257,4049.743589
78,4359.487179,4440.512820,4533.333333,4220.000000,4507.692307,4186.153846,4446.666666,4208.205128,4213.333333,4486.153846,4189.743589,4636.410256,3998.974359,4056.410256
79,4354.358974,4428.205128,4529.743589,4230.769230,4506.153846,4185.128205,4440.512820,4207.179487,4216.923076,4498.974358,4193.846153,4634.358974,4001.538461,4046.153846
80,4349.743589,4421.538461,4528.717948,4232.307692,4503.589743,4183.589743,4442.564102,4213.846153,4217.948717,4494.358974,4182.564102,4631.282051,3987.692308,4043.076923
81,4356.410256,4438.974358,4532.307692,4229.230769,4501.025641,4181.538461,4446.153846,4209.743589,4217.948717,4486.153846,4183.076923,4633.846153,3984.102565,4053.846153
82,4357.948717,4439.487179,4531.794871,4234.358974,4497.435897,4184.102564,4446.666666,4205.128205,4220.000000,4484.615384,4192.307692,4633.846153,3994.871795,4057.435897
83,4349.230769,4425.641025,4530.256410,4234.358974,4500.000000,4182.051282,4444.615384,4211.794871,4218.461538,4483.076923,4186.153846,4632.820512,4002.564102,4049.743589
84,4340.000000,4420.512820,4526.153846,4229.230769,4505.128205,4171.794871,4441.538461,4208.717948,4205.641025,4477.948717,4178.974358,4630.769230,3995.384616,4045.128205
85,4341.025641,4422.051282,4528.717948,4239.487179,4504.615384,4173.846153,4442.564102,4202.564102,4202.051282,4480.512820,4190.769230,4629.230769,3986.153847,4050.256410
86,4348.717948,4429.743589,4538.461538,4256.410256,4501.025641,4182.564102,4447.692307,4213.846153,4219.487179,4492.307692,4205.641025,4639.487179,3992.820513,4060.512820
87,4347.179487,4434.871794,4537.435897,4255.897435,4496.410256,4180.000000,4447.692307,4220.000000,4232.307692,4494.871794,4194.358974,4643.589743,4004.102564,4063.076923
88,4338.974358,4429.743589,4530.256410,4243.589743,4499.487179,4177.948717,4444.102564,4210.769230,4225.128205,4488.717948,4179.487179,4634.358974,4004.102564,4054.871794
89,4335.897435,4430.256410,4531.794871,4237.948717,4507.692307,4184.615384,4444.102564,4207.692307,4217.435897,4492.307692,4194.871794,4635.384615,3994.871795,4053.333333
90,4339.487179,4431.794871,4538.461538,4237.435897,4505.128205,4186.666666,4444.615384,4211.794871,4216.410256,4496.923076,4204.615384,4643.076923,3986.153847,4052.820512
91,4340.000000,4425.641025,4541.538461,4244.102564,4501.538461,4177.948717,4443.589743,4211.794871,4213.333333,4486.666666,4188.205128,4644.615384,3990.256411,4050.256410
92,4332.820512,4422.564102,4538.461538,4253.333333,4505.641025,4175.384615,4441.538461,4206.153846,4210.256410,4477.435897,4180.512820,4642.051282,4002.051282,4056.410256
93,4325.128205,4425.128205,4532.307692,4245.128205,4506.153846,4177.435897,4438.974358,4202.051282,4213.846153,4484.102564,4185.128205,4640.512820,3999.487180,4054.871794
94,4325.128205,4429.743589,4530.769230,4227.692307,4505.128205,4175.897435,4440.512820,4205.641025,4220.512820,4497.948717,4181.025641,4642.564102,3988.205129,4049.230769
95,4330.256410,4427.179487,4531.794871,4232.820512,4506.153846,4175.384615,4443.076923,4204.615384,4216.410256,4497.435897,4186.666666,4644.615384,3984.615385,4054.358974
96,4333.333333,4423.589743,4532.307692,4256.923076,4506.666666,4178.461538,4444.102564,4201.025641,4213.333333,4487.692307,4199.487179,4644.615384,3988.717949,4060.000000
97,4330.769230,4434.871794,4533.333333,4261.025641,4506.153846,4179.487179,4443.076923,4204.102564,4215.897435,4487.692307,4195.384615,4644.615384,3998.461539,4052.820512
98,4326.666666,4446.153846,4534.358974,4250.256410,4505.128205,4177.948717,4442.051282,4203.589743,4218.461538,4493.846153,4185.641025,4643.076923,4007.179487,4046.666666
99,4328.717948,4438.461538,4533.333333,4251.794871,4506.153846,4177.435897,4439.487179,4203.076923,4217.435897,4493.846153,4178.974358,4636.410256,3995.897436,4049.230769
100,4325.128205,4422.051282,4527.179487,4251.794871,4505.641025,4171.282051,4432.307692,4201.025641,4209.230769,4486.666666,4166.153846,4628.205128,3969.743590,4045.128205
101,4320.512820,4422.051282,4524.102564,4248.717948,4504.102564,4172.307692,4432.820512,4198.461538,4204.615384,4481.025641,4163.589743,4627.179487,3969.743590,4039.487179
102,4329.743589,4442.051282,4534.358974,4257.435897,4509.743589,4186.153846,4443.076923,4207.692307,4217.948717,4487.692307,4186.666666,4637.948717,3996.923077,4046.666666
103,4340.000000,4452.820512,4545.641025,4260.512820,4519.487179,4188.717948,4448.205128,4220.512820,4231.794871,4501.538461,4201.538461,4646.666666,4010.256410,4057.435897
104,4340.512820,4444.102564,4542.564102,4250.256410,4523.589743,4185.128205,4444.615384,4218.461538,4226.153846,4505.641025,4189.743589,4646.153846,3998.974359,4061.025641
105,4342.564102,4443.589743,4537.435897,4245.641025,4522.564102,4186.666666,4445.128205,4215.384615,4221.538461,4498.974358,4187.179487,4645.128205,3989.743590,4062.564102
106,4343.589743,4452.307692,4538.461538,4248.717948,4522.051282,4186.666666,4444.615384,4217.948717,4226.153846,4491.794871,4195.897435,4644.102564,3988.205129,4062.564102
107,4332.307692,4448.205128,4532.820512,4250.256410,4523.076923,4183.589743,4439.487179,4209.743589,4219.487179,4484.615384,4190.256410,4640.512820,3988.205129,4052.307692
108,4329.230769,4437.948717,4533.333333,4254.871794,4524.615384,4184.615384,4440.000000,4206.153846,4214.871794,4488.717948,4181.538461,4643.589743,3992.820513,4047.692307
109,4343.076923,4443.076923,4545.641025,4260.512820,4522.051282,4185.641025,4446.666666,4224.102564,4227.179487,4498.974358,4191.282051,4653.846153,4001.025641,4065.641025
110,4358.461538,4457.948717,4552.820512,4266.666666,4523.589743,4188.205128,4455.384615,4237.948717,4236.923076,4506.666666,4208.205128,4663.076923,4009.230769,4083.589743
111,4359.487179,4463.076923,4551.794871,4269.743589,4528.205128,4192.307692,4458.461538,4233.333333,4237.948717,4512.307692,4216.923076,4663.076923,4010.256410,4078.974358
112,4350.256410,4459.487179,4550.256410,4267.692307,4529.743589,4193.333333,4457.435897,4228.717948,4242.564102,4514.358974,4214.358974,4659.487179,4005.128205,4068.205128
113,4348.205128,4460.000000,4552.820512,4268.717948,4535.897435,4193.846153,4460.512820,4234.358974,4238.974358,4510.769230,4203.076923,4658.461538,4009.230769,4071.794871
114,4353.333333,4460.000000,4556.923076,4270.769230,4536.923076,4191.794871,4460.000000,4229.743589,4227.692307,4503.589743,4196.410256,4658.461538,4008.205128,4075.384615
115,4346.666666,4448.717948,4545.128205,4265.641025,4523.589743,4182.564102,4448.205128,4207.692307,4216.410256,4490.256410,4190.256410,4647.179487,3981.538462,4060.000000
116,4328.205128,4436.410256,4528.205128,4262.564102,4516.410256,4177.435897,4439.487179,4198.461538,4208.205128,4478.974358,4179.487179,4634.871794,3964.615385,4046.666666
117,4329.743589,4441.025641,4531.794871,4262.051282,4523.589743,4183.076923,4443.589743,4213.333333,4219.487179,4493.333333,4183.589743,4642.564102,3989.230770,4055.897435
118,4351.282051,4460.512820,4546.153846,4254.871794,4529.743589,4188.717948,4449.230769,4222.051282,4237.948717,4514.871794,4207.179487,4657.948717,4020.512820,4074.871794
119,4356.410256,4464.615384,4547.692307,4254.871794,4522.051282,4181.025641,4442.564102,4216.410256,4229.230769,4507.179487,4215.897435,4657.948717,4022.051282,4076.410256
120,4343.076923,4447.179487,4541.025641,4260.000000,4510.256410,4170.769230,4428.205128,4213.333333,4212.820512,4489.230769,4201.538461,4646.153846,4007.179487,4066.666666
121,4344.615384,4447.179487,4540.512820,4262.051282,4513.846153,4174.358974,4430.769230,4216.410256,4221.538461,4498.461538,4203.076923,4649.230769,4005.128205,4067.692307
122,4354.871794,4461.538461,4540.000000,4265.128205,4520.512820,4181.025641,4442.051282,4220.000000,4233.846153,4512.820512,4210.769230,4660.512820,4009.230769,4073.846153
123,4347.179487,4459.487179,4531.282051,4257.435897,4512.820512,4172.307692,4432.820512,4216.410256,4226.153846,4497.948717,4194.871794,4653.846153,4005.128205,4066.666666
124,4344.102564,4457.435897,4531.794871,4251.282051,4509.743589,4166.153846,4425.128205,4210.769230,4213.846153,4482.564102,4187.692307,4645.641025,4001.025641,4058.461538
125,4347.179487,4460.512820,4543.589743,4260.512820,4514.871794,4173.846153,4441.025641,4214.358974,4213.333333,4494.358974,4206.666666,4652.820512,4003.589743,4060.000000
126,4332.307692,4449.230769,4541.538461,4266.153846,4509.230769,4175.897435,4449.230769,4217.435897,4224.615384,4507.179487,4205.641025,4654.358974,3998.974359,4057.948717
127,4320.512820,4440.000000,4531.282051,4264.615384,4503.589743,4168.205128,4443.076923,4214.358974,4226.666666,4504.615384,4182.564102,4645.641025,3991.282052,4056.923076
128,4328.205128,4450.769230,4531.794871,4270.256410,4507.692307,4170.769230,4444.615384,4214.871794,4221.025641,4499.487179,4187.179487,4643.589743,3992.820513,4063.589743
129,4328.717948,4456.923076,4534.358974,4268.717948,4509.230769,4177.435897,4449.230769,4219.487179,4224.102564,4488.205128,4200.512820,4642.564102,3993.846154,4055.897435
130,4314.871794,4452.820512,4530.769230,4252.820512,4509.230769,4174.871794,4446.153846,4219.487179,4226.153846,4481.025641,4191.282051,4635.897435,3990.256411,4038.974358
131,4314.358974,4455.897435,4528.205128,4252.307692,4509.743589,4174.358974,4444.102564,4216.923076,4216.410256,4494.871794,4180.512820,4634.358974,3990.256411,4043.589743
132,4326.153846,4454.358974,4529.230769,4262.564102,4509.743589,4178.974358,4445.641025,4215.384615,4213.846153,4505.128205,4184.615384,4639.487179,3990.256411,4056.410256
133,4328.717948,4448.205128,4530.256410,4258.974358,4507.692307,4174.358974,4445.641025,4216.410256,4220.512820,4495.384615,4188.717948,4642.051282,3981.538462,4055.897435
134,4328.205128,4460.000000,4531.794871,4247.179487,4506.666666,4168.205128,4444.102564,4216.410256,4219.487179,4489.743589,4186.666666,4641.538461,3980.512821,4051.794871
135,4322.564102,4462.564102,4528.717948,4245.128205,4506.666666,4170.256410,4440.000000,4207.692307,4215.384615,4490.769230,4183.076923,4637.435897,3991.282052,4044.102564
136,4313.846153,4447.179487,4526.153846,4249.743589,4506.153846,4170.769230,4438.974358,4203.076923,4212.820512,4485.641025,4180.512820,4633.333333,3986.666667,4038.461538
137,4317.435897,4447.179487,4530.769230,4256.410256,4507.179487,4170.256410,4443.076923,4213.333333,4216.410256,4487.179487,4189.743589,4638.974358,3973.333334,4050.256410
138,4327.692307,4455.897435,4534.871794,4264.102564,4505.641025,4171.282051,4445.128205,4218.461538,4220.512820,4497.435897,4197.948717,4642.051282,3976.923077,4060.000000
139,4325.128205,4447.692307,4529.230769,4254.871794,4503.076923,4169.743589,4442.051282,4211.282051,4215.384615,4499.487179,4186.666666,4635.897435,3987.692308,4049.230769
140,4320.512820,4442.051282,4525.128205,4242.051282,4506.666666,4172.307692,4441.025641,4209.230769,4211.794871,4494.358974,4176.410256,4635.897435,3987.179488,4044.615384
141,4324.102564,4446.153846,4534.358974,4253.333333,4509.743589,4174.871794,4445.128205,4215.384615,4220.512820,4497.435897,4188.205128,4646.153846,3988.205129,4052.307692
142,4325.641025,4447.692307,4542.564102,4272.307692,4505.128205,4169.743589,4446.666666,4216.923076,4225.641025,4500.512820,4202.564102,4650.256410,3994.358975,4055.897435
143,4326.666666,4451.282051,4542.051282,4281.538461,4503.589743,4167.692307,4442.564102,4217.948717,4225.641025,4499.487179,4203.076923,4650.769230,3993.846154,4061.538461
144,4331.794871,4456.923076,4542.051282,4286.666666,4508.205128,4176.923076,4448.205128,4223.076923,4230.769230,4507.179487,4202.564102,4654.358974,3989.230770,4066.666666
145,4332.820512,4458.461538,4540.000000,4277.435897,4509.743589,4182.564102,4455.384615,4225.128205,4234.871794,4518.974358,4205.641025,4651.794871,3995.897436,4064.615384
146,4327.692307,4457.435897,4534.871794,4255.897435,4507.692307,4176.923076,4449.743589,4218.974358,4227.179487,4510.256410,4206.666666,4646.666666,4005.128205,4060.000000
147,4321.025641,4455.897435,4530.769230,4251.794871,4506.666666,4167.692307,4442.051282,4212.307692,4215.384615,4488.717948,4200.000000,4642.564102,3993.846154,4054.358974
148,4320.512820,4457.435897,4531.794871,4264.615384,4507.179487,4169.230769,4442.564102,4212.820512,4213.333333,4485.128205,4190.769230,4640.000000,3974.871795,4049.230769
149,4325.128205,4458.974358,4535.897435,4269.230769,4507.692307,4178.974358,4446.153846,4216.923076,4220.512820,4496.923076,4191.794871,4642.564102,3975.384616,4053.333333
150,4324.102564,4456.923076,4536.923076,4257.435897,4506.666666,4175.897435,4451.794871,4216.923076,4218.461538,4497.435897,4196.923076,4643.589743,3988.717949,4057.435897
151,4316.923076,4455.897435,4533.333333,4251.282051,4506.666666,4172.307692,4454.871794,4217.435897,4215.384615,4489.743589,4196.923076,4638.461538,3993.333334,4053.333333
152,4316.923076,4455.384615,4530.256410,4257.948717,4507.692307,4178.461538,4453.846153,4221.538461,4221.538461,4492.820512,4198.461538,4639.487179,3987.692308,4050.256410
153,4321.025641,4456.410256,4531.794871,4264.615384,4507.692307,4181.025641,4452.307692,4221.538461,4223.589743,4498.974358,4204.102564,4644.102564,3980.000000,4046.666666
154,4322.564102,4464.102564,4539.487179,4272.820512,4507.692307,4172.820512,4450.769230,4218.461538,4226.153846,4501.538461,4202.564102,4642.051282,3978.461539,4046.666666
155,4324.102564,4468.717948,4541.025641,4280.512820,4505.128205,4170.256410,4453.333333,4217.435897,4228.205128,4500.512820,4197.435897,4642.564102,3981.025642,4055.384615
156,4327.179487,4463.589743,4536.923076,4276.923076,4506.666666,4176.923076,4460.000000,4217.948717,4220.512820,4495.384615,4201.538461,4645.641025,3986.666667,4063.076923
157,4330.256410,4468.205128,4540.512820,4269.230769,4515.897435,4182.564102,4461.025641,4217.435897,4218.974358,4496.410256,4204.615384,4647.692307,3994.358975,4063.589743
158,4333.846153,4477.435897,4544.102564,4275.384615,4517.948717,4185.641025,4458.974358,4220.000000,4232.307692,4507.179487,4201.025641,4650.256410,3997.435898,4058.974358
159,4337.948717,4477.435897,4542.564102,4281.538461,4517.948717,4184.615384,4462.051282,4226.153846,4239.487179,4512.820512,4209.230769,4653.846153,3993.333334,4061.025641
160,4334.871794,4476.410256,4542.051282,4275.897435,4520.000000,4185.641025,4464.615384,4224.102564,4232.307692,4512.307692,4220.512820,4654.358974,3988.717949,4067.179487
161,4326.153846,4472.307692,4536.410256,4264.615384,4513.333333,4186.153846,4461.025641,4216.410256,4224.615384,4505.128205,4209.230769,4646.153846,3989.230770,4062.564102
162,4319.487179,4463.589743,4525.641025,4254.358974,4507.179487,4181.538461,4456.410256,4211.282051,4213.846153,4493.333333,4194.871794,4638.974358,3993.333334,4052.307692
163,4326.666666,4469.230769,4533.333333,4260.000000,4515.384615,4183.589743,4458.461538,4213.846153,4212.307692,4498.461538,4201.538461,4645.128205,3996.923077,4056.923076
164,4343.076923,4485.641025,4549.743589,4278.461538,4525.128205,4187.179487,4465.128205,4225.128205,4233.333333,4512.307692,4214.871794,4655.897435,3997.435898,4070.769230
165,4339.487179,4476.410256,4545.641025,4278.461538,4517.435897,4186.153846,4463.076923,4230.256410,4244.615384,4510.256410,4213.846153,4652.307692,3989.230770,4064.102564
166,4318.974358,4456.923076,4532.307692,4260.512820,4507.692307,4182.051282,4457.948717,4220.000000,4227.692307,4506.153846,4209.743589,4640.000000,3981.538462,4047.692307
167,4323.589743,4472.307692,4535.384615,4264.102564,4511.794871,4184.102564,4461.538461,4214.358974,4215.384615,4508.717948,4208.205128,4642.564102,3988.717949,4054.871794
168,4348.205128,4494.871794,4547.692307,4291.794871,4520.512820,4187.692307,4464.102564,4217.948717,4224.102564,4503.589743,4207.692307,4652.820512,3997.948718,4073.846153
169,4347.692307,4487.179487,4542.051282,4304.615384,4519.487179,4184.615384,4458.974358,4212.820512,4222.564102,4492.820512,4200.512820,4648.717948,3984.102565,4070.256410
170,4328.205128,4476.923076,4533.846153,4303.589743,4515.384615,4179.487179,4455.384615,4206.153846,4210.769230,4486.666666,4194.871794,4642.564102,3966.666667,4053.846153
171,4327.692307,4494.871794,4542.564102,4304.615384,4520.512820,4184.615384,4461.025641,4212.820512,4213.846153,4488.205128,4204.102564,4648.717948,3971.282052,4060.000000
172,4334.358974,4501.538461,4544.615384,4290.769230,4523.589743,4192.820512,4464.102564,4217.948717,4218.974358,4491.282051,4203.589743,4650.769230,3979.487180,4071.794871
173,4330.256410,4481.025641,4532.820512,4275.384615,4521.025641,4190.769230,4461.538461,4213.333333,4214.358974,4487.179487,4186.153846,4644.615384,3971.794872,4067.179487
174,4328.205128,4471.794871,4529.743589,4275.384615,4523.589743,4187.692307,4462.051282,4210.769230,4217.948717,4487.692307,4183.589743,4643.076923,3967.692308,4065.641025
175,4327.692307,4476.923076,4534.871794,4272.820512,4522.051282,4188.205128,4462.051282,4213.846153,4227.179487,4496.410256,4194.358974,4641.538461,3980.000000,4072.307692
176,4322.051282,4480.000000,4535.384615,4265.641025,4513.846153,4187.692307,4464.615384,4214.871794,4225.641025,4494.358974,4194.358974,4640.000000,3987.692308,4069.230769
177,4315.384615,4475.897435,4529.743589,4259.487179,4507.179487,4185.128205,4459.487179,4205.128205,4210.256410,4475.897435,4180.512820,4638.974358,3978.461539,4051.794871
178,4316.410256,4472.820512,4525.128205,4253.846153,4506.666666,4178.974358,4445.128205,4193.846153,4197.948717,4465.641025,4172.307692,4630.256410,3966.153847,4044.615384
179,4321.538461,4472.820512,4525.128205,4257.948717,4507.179487,4175.897435,4444.615384,4192.307692,4204.102564,4478.974358,4182.051282,4629.743589,3971.794872,4058.974358
180,4325.128205,4475.897435,4531.794871,4272.307692,4507.692307,4183.589743,4460.000000,4202.051282,4215.897435,4491.794871,4196.410256,4641.025641,3988.205129,4076.923076
181,4327.179487,4478.974358,4536.923076,4280.000000,4510.769230,4189.743589,4464.615384,4214.871794,4222.564102,4490.769230,4190.769230,4648.717948,3986.153847,4075.897435
182,4325.128205,4474.871794,4540.000000,4281.025641,4509.230769,4185.128205,4461.025641,4218.974358,4224.102564,4486.666666,4182.051282,4647.179487,3974.871795,4058.461538
183,4324.102564,4472.820512,4541.025641,4283.076923,4505.128205,4182.051282,4463.076923,4208.717948,4217.435897,4487.692307,4193.846153,4645.128205,3983.589744,4055.897435
184,4326.666666,4476.410256,4536.923076,4283.076923,4506.666666,4185.641025,4464.102564,4203.589743,4213.333333,4493.333333,4195.384615,4642.051282,3998.461539,4070.256410
185,4322.564102,4476.923076,4530.769230,4280.000000,4507.179487,4184.102564,4460.512820,4210.769230,4216.410256,4490.256410,4185.641025,4638.461538,3991.282052,4068.717948
186,4311.794871,4472.307692,4529.230769,4269.743589,4498.974358,4175.897435,4457.948717,4208.717948,4215.384615,4476.410256,4183.589743,4633.333333,3974.871795,4052.820512
187,4309.230769,4467.179487,4529.743589,4261.025641,4496.410256,4176.410256,4456.410256,4204.102564,4213.333333,4470.769230,4186.153846,4633.333333,3972.307693,4052.307692
188,4318.461538,4471.282051,4532.307692,4264.102564,4501.025641,4179.487179,4457.435897,4206.153846,4220.000000,4484.615384,4189.743589,4642.051282,3982.564103,4055.384615
189,4324.615384,4480.000000,4533.333333,4274.358974,4503.076923,4179.487179,4455.384615,4207.179487,4222.564102,4495.384615,4196.410256,4647.692307,3992.307693,4054.871794
190,4321.025641,4475.384615,4530.769230,4281.025641,4501.025641,4178.974358,4449.230769,4205.641025,4215.384615,4489.743589,4193.846153,4644.102564,3991.794872,4067.692307
191,4313.333333,4466.666666,4529.230769,4276.923076,4496.923076,4174.358974,4451.794871,4210.256410,4213.333333,4486.153846,4183.589743,4641.538461,3983.589744,4073.846153
192,4312.307692,4474.358974,4531.794871,4269.230769,4492.307692,4172.307692,4459.487179,4216.410256,4222.051282,4491.282051,4191.794871,4643.589743,3980.000000,4062.051282
193,4313.846153,4481.025641,4531.282051,4265.641025,4490.769230,4177.435897,4458.974358,4217.948717,4229.230769,4493.846153,4201.538461,4649.743589,3986.153847,4056.410256
194,4304.102564,4465.641025,4526.666666,4265.128205,4492.307692,4174.358974,4455.897435,4215.897435,4225.128205,4490.256410,4189.230769,4644.615384,3984.615385,4054.358974
195,4295.897435,4453.333333,4523.076923,4263.076923,4495.384615,4169.230769,4457.435897,4212.307692,4224.615384,4488.205128,4178.461538,4633.333333,3977.435898,4050.256410
196,4302.564102,4468.205128,4525.641025,4263.589743,4500.512820,4181.538461,4459.487179,4214.871794,4233.333333,4493.333333,4184.102564,4640.000000,3987.179488,4056.410256
197,4311.282051,4480.512820,4532.307692,4266.153846,4506.666666,4189.230769,4462.051282,4218.461538,4235.897435,4497.435897,4193.846153,4652.820512,3993.333334,4064.102564
198,4310.769230,4474.871794,4532.307692,4266.153846,4502.564102,4181.538461,4464.102564,4214.871794,4229.230769,4490.769230,4196.923076,4653.333333,3986.153847,4064.102564
199,4310.769230,4475.384615,4529.743589,4267.692307,4493.846153,4181.538461,4461.025641,4214.358974,4229.743589,4490.256410,4202.564102,4651.282051,3994.871795,4066.666666
200,4310.256410,4481.025641,4534.358974,4275.384615,4497.948717,4186.153846,4461.538461,4220.512820,4235.384615,4506.666666,4202.564102,4656.923076,4004.102564,4068.205128
201,4302.564102,4474.871794,4536.410256,4281.025641,4505.641025,4185.128205,4464.615384,4223.589743,4240.512820,4509.230769,4200.000000,4661.025641,3994.358975,4065.128205
202,4297.435897,4470.256410,4527.692307,4276.923076,4496.410256,4178.461538,4443.076923,4215.384615,4236.923076,4493.333333,4203.076923,4656.410256,3989.743590,4062.564102
203,4297.435897,4478.974358,4520.512820,4265.641025,4486.153846,4170.769230,4401.025641,4203.076923,4221.538461,4485.641025,4200.000000,4644.102564,3990.769231,4060.000000
204,4295.384615,4476.410256,4517.435897,4261.538461,4491.282051,4167.179487,4371.794871,4196.923076,4210.769230,4484.102564,4182.051282,4636.923076,3983.589744,4058.461538
205,4291.282051,4463.589743,4518.461538,4273.333333,4492.307692,4173.333333,4361.538461,4202.564102,4215.384615,4481.538461,4169.743589,4641.538461,3983.589744,4055.897435
206,4291.794871,4466.153846,4527.179487,4281.025641,4487.692307,4178.461538,4355.384615,4213.333333,4227.692307,4489.230769,4186.153846,4649.230769,3987.692308,4053.333333
207,4296.410256,4477.435897,4531.794871,4267.692307,4492.820512,4177.948717,4349.743589,4219.487179,4239.487179,4500.000000,4212.820512,4653.846153,3983.589744,4057.435897
208,4296.410256,4477.948717,4526.153846,4255.897435,4493.846153,4176.410256,4342.564102,4214.871794,4237.948717,4499.487179,4210.256410,4651.794871,3983.589744,4060.512820
209,4293.846153,4471.794871,4523.076923,4266.666666,4488.205128,4175.897435,4336.923076,4210.256410,4221.538461,4490.256410,4188.717948,4648.205128,3991.794872,4062.564102
210,4298.461538,4476.923076,4530.769230,4285.641025,4497.948717,4184.615384,4343.076923,4215.384615,4218.974358,4493.333333,4190.769230,4656.410256,4001.025641,4072.820512
211,4301.025641,4484.615384,4535.897435,4280.512820,4508.205128,4188.717948,4345.641025,4218.461538,4230.256410,4504.615384,4203.076923,4659.487179,3992.820513,4070.256410
212,4291.282051,4478.974358,4528.205128,4257.948717,4494.358974,4177.948717,4330.256410,4212.307692,4227.179487,4497.948717,4197.948717,4649.230769,3973.333334,4053.333333
213,4290.256410,4472.307692,4524.615384,4260.000000,4482.564102,4172.820512,4322.564102,4209.743589,4224.102564,4489.743589,4192.820512,4648.717948,3980.512821,4056.923076
214,4301.538461,4477.948717,4534.358974,4284.102564,4493.333333,4184.102564,4333.333333,4215.897435,4231.282051,4498.461538,4200.000000,4662.051282,4006.153846,4079.487179
215,4302.051282,4480.000000,4538.461538,4288.717948,4500.000000,4190.769230,4336.410256,4220.512820,4229.743589,4496.923076,4202.051282,4663.589743,4002.051282,4082.051282
216,4288.717948,4470.769230,4528.205128,4274.871794,4493.333333,4180.000000,4325.641025,4213.333333,4222.564102,4485.128205,4200.512820,4652.820512,3981.538462,4064.615384
217,4286.153846,4474.358974,4524.102564,4271.282051,4490.769230,4174.871794,4321.538461,4207.179487,4222.564102,4491.282051,4196.410256,4652.307692,3987.692308,4056.923076
218,4291.282051,4481.025641,4528.717948,4278.461538,4492.307692,4179.487179,4320.512820,4207.179487,4221.025641,4496.410256,4186.153846,4655.384615,3994.358975,4057.435897
219,4286.153846,4469.230769,4524.615384,4282.051282,4490.256410,4176.410256,4310.256410,4203.076923,4214.871794,4482.564102,4182.564102,4651.282051,3980.512821,4058.974358
220,4284.615384,4464.102564,4517.948717,4282.564102,4488.717948,4173.333333,4308.717948,4202.564102,4217.435897,4479.487179,4188.717948,4648.717948,3980.000000,4061.025641
221,4289.230769,4473.846153,4525.128205,4280.000000,4490.256410,4180.000000,4316.923076,4212.307692,4227.179487,4494.358974,4195.897435,4651.794871,3984.615385,4058.974358
222,4288.717948,4478.461538,4532.820512,4270.769230,4490.256410,4178.974358,4314.871794,4217.948717,4229.230769,4501.538461,4195.897435,4653.333333,3981.025642,4058.974358
223,4287.179487,4475.897435,4528.717948,4260.000000,4488.717948,4171.282051,4308.205128,4212.820512,4217.948717,4492.307692,4187.179487,4651.282051,3982.051283,4062.564102
224,4284.102564,4467.692307,4528.205128,4258.974358,4486.153846,4173.333333,4310.769230,4212.820512,4211.794871,4480.000000,4181.025641,4649.230769,3976.410257,4054.358974
225,4282.051282,4464.615384,4531.794871,4264.615384,4481.025641,4173.846153,4310.769230,4217.948717,4221.025641,4486.666666,4182.564102,4650.769230,3972.307693,4050.256410
226,4284.615384,4470.256410,4527.179487,4263.589743,4477.948717,4166.153846,4302.564102,4213.846153,4223.589743,4501.025641,4187.179487,4657.948717,3985.641026,4062.564102
227,4285.641025,4467.692307,4524.615384,4261.025641,4475.384615,4167.179487,4303.076923,4210.256410,4213.846153,4501.538461,4197.948717,4662.051282,3995.384616,4066.666666
228,4283.589743,4456.410256,4531.794871,4261.025641,4481.025641,4172.820512,4312.820512,4216.410256,4222.051282,4500.512820,4212.820512,4663.076923,3992.820513,4063.076923
229,4286.666666,4455.897435,4532.307692,4261.025641,4486.153846,4171.794871,4312.307692,4219.487179,4233.333333,4502.564102,4211.282051,4661.025641,3992.307693,4064.102564
230,4286.666666,4465.641025,4526.153846,4270.769230,4483.076923,4171.282051,4306.666666,4212.307692,4222.051282,4497.435897,4198.974358,4655.897435,3991.794872,4056.923076
231,4286.666666,4468.205128,4530.256410,4289.230769,4482.564102,4176.410256,4312.307692,4215.384615,4221.025641,4495.384615,4200.512820,4660.000000,3992.307693,4053.846153
232,4296.410256,4465.128205,4537.948717,4300.512820,4489.230769,4182.564102,4321.025641,4224.615384,4238.461538,4506.153846,4207.179487,4667.692307,4005.128205,4068.205128
233,4296.410256,4463.589743,4535.384615,4291.282051,4493.846153,4182.051282,4316.923076,4223.076923,4238.461538,4510.769230,4205.641025,4664.102564,4011.794871,4073.333333
234,4283.589743,4456.410256,4524.615384,4266.666666,4488.205128,4173.333333,4307.692307,4213.333333,4224.615384,4502.564102,4197.435897,4653.333333,3995.384616,4062.051282
235,4278.461538,4445.128205,4516.410256,4252.820512,4478.461538,4167.692307,4303.076923,4204.615384,4218.461538,4490.769230,4187.179487,4645.641025,3973.846154,4053.846153
236,4281.538461,4446.153846,4519.487179,4260.512820,4477.435897,4168.717948,4303.589743,4203.076923,4216.923076,4489.230769,4185.641025,4645.641025,3978.461539,4052.820512
237,4286.153846,4455.384615,4528.717948,4272.307692,4487.692307,4170.769230,4310.769230,4213.333333,4222.051282,4502.564102,4198.974358,4655.384615,3994.871795,4058.974358
238,4287.179487,4454.871794,4531.282051,4276.410256,4493.846153,4175.897435,4318.461538,4220.000000,4230.769230,4511.794871,4212.307692,4661.538461,3991.794872,4062.564102
239,4292.307692,4455.897435,4528.717948,4275.897435,4490.769230,4182.051282,4320.512820,4217.948717,4226.666666,4508.717948,4209.743589,4657.948717,3988.205129,4061.538461
240,4298.974358,4459.487179,4531.282051,4277.435897,4490.256410,4184.102564,4323.076923,4218.974358,4227.692307,4500.512820,4200.000000,4657.948717,4000.000000,4064.102564
241,4291.794871,4451.282051,4532.307692,4281.538461,4490.769230,4180.512820,4325.641025,4217.948717,4230.256410,4494.358974,4201.025641,4661.538461,4003.076923,4064.615384
242,4274.358974,4445.641025,4526.666666,4282.051282,4484.615384,4175.897435,4324.615384,4214.358974,4218.461538,4500.512820,4211.794871,4660.000000,3993.333334,4057.948717
243,4268.717948,4445.128205,4526.153846,4278.461538,4480.512820,4173.333333,4322.051282,4215.897435,4219.487179,4511.794871,4212.820512,4656.410256,3984.102565,4056.410256
244,4276.923076,4441.538461,4527.692307,4276.410256,4488.717948,4177.435897,4321.538461,4214.871794,4231.794871,4511.794871,4200.512820,4658.974358,3994.358975,4063.589743
245,4280.512820,4443.076923,4524.102564,4270.256410,4495.384615,4184.102564,4322.051282,4214.871794,4228.717948,4503.589743,4195.384615,4659.487179,4009.230769,4067.179487
246,4275.384615,4451.794871,4524.102564,4264.102564,4490.256410,4185.128205,4323.589743,4220.000000,4221.025641,4501.538461,4205.641025,4654.871794,4001.025641,4060.512820
247,4270.256410,4445.641025,4525.641025,4265.128205,4489.230769,4180.000000,4320.000000,4213.333333,4222.051282,4499.487179,4201.025641,4649.743589,3983.076924,4051.794871
248,4263.589743,4429.230769,4517.435897,4263.589743,4492.820512,4176.923076,4312.820512,4203.589743,4221.538461,4496.410256,4187.179487,4645.641025,3979.487180,4047.692307
249,4260.000000,4428.717948,4515.384615,4265.641025,4489.230769,4178.461538,4314.358974,4211.794871,4226.153846,4503.589743,4197.948717,4647.692307,3986.153847,4048.205128
250,4264.615384,4436.410256,4520.512820,4273.333333,4488.205128,4178.461538,4318.461538,4217.435897,4232.820512,4509.743589,4210.769230,4652.820512,3990.769231,4050.769230
251,4270.256410,4434.358974,4521.025641,4275.384615,4491.794871,4172.820512,4315.897435,4212.307692,4225.641025,4498.461538,4203.589743,4655.384615,3987.179488,4052.307692
252,4268.717948,4425.128205,4516.923076,4276.923076,4487.179487,4170.256410,4314.871794,4208.205128,4219.487179,4485.128205,4204.615384,4654.871794,3986.153847,4049.230769
253,4263.076923,4421.538461,4517.948717,4282.564102,4480.512820,4171.282051,4318.974358,4207.179487,4217.948717,4491.794871,4205.641025,4650.256410,3990.769231,4049.230769
254,4264.615384,4428.205128,4524.615384,4281.538461,4486.666666,4175.897435,4324.615384,4211.794871,4218.461538,4504.102564,4190.256410,4647.692307,3990.769231,4054.871794
255,4273.333333,4434.358974,4523.589743,4277.948717,4494.871794,4184.102564,4326.666666,4220.000000,4231.794871,4509.230769,4189.743589,4652.307692,3988.205129,4052.820512
256,4277.948717,4427.179487,4521.025641,4277.948717,4494.871794,4185.128205,4327.179487,4220.512820,4239.487179,4508.205128,4205.641025,4656.923076,3989.230770,4047.692307
257,4279.487179,4425.128205,4526.153846,4280.512820,4494.358974,4183.076923,4330.256410,4216.923076,4234.871794,4503.589743,4212.307692,4660.512820,3990.256411,4056.410256
258,4282.051282,4440.000000,4528.717948,4282.564102,4494.358974,4186.153846,4334.358974,4220.000000,4233.333333,4507.179487,4215.897435,4662.564102,3990.769231,4064.102564
259,4281.025641,4447.179487,4524.102564,4277.948717,4490.256410,4184.615384,4335.384615,4225.128205,4233.333333,4518.974358,4218.461538,4654.871794,3995.384616,4061.025641
