,AF3,F7,F3,FC5,T7,P7,O1,O2,P8,T8,FC6,F4,F8,AF4
0,4381.025641,4432.307692,4496.410256,4253.846153,4498.461538,4194.358974,4431.282051,4216.410256,4227.179487,4501.538461,4208.205128,4614.871794,3955.897436,4085.128205
1,4382.051282,4432.307692,4494.358974,4251.282051,4493.846153,4190.256410,4430.769230,4216.923076,4224.615384,4497.435897,4197.435897,4614.358974,3951.794872,4080.512820
2,4388.717948,4432.820512,4491.794871,4248.205128,4491.282051,4187.692307,4434.358974,4208.205128,4220.512820,4492.820512,4191.794871,4617.435897,3952.307693,4074.358974
3,4387.692307,4430.256410,4492.307692,4247.692307,4490.769230,4189.230769,4432.307692,4204.615384,4220.000000,4481.538461,4196.410256,4615.384615,3957.435898,4071.794871
4,4391.794871,4433.846153,4496.923076,4252.820512,4498.974358,4193.846153,4433.333333,4214.871794,4226.666666,4481.025641,4203.589743,4617.948717,3956.923077,4083.589743
5,4404.102564,4441.025641,4502.051282,4254.871794,4509.230769,4194.871794,4439.487179,4222.564102,4232.307692,4495.384615,4208.717948,4627.692307,3959.487180,4094.871794
6,4400.512820,4438.461538,4502.564102,4251.282051,4507.692307,4194.358974,4441.025641,4221.025641,4236.410256,4502.051282,4208.717948,4632.820512,3971.794872,4090.256410
7,4387.692307,4435.384615,4500.000000,4248.717948,4500.000000,4193.333333,4435.897435,4219.487179,4235.384615,4500.000000,4207.692307,4628.717948,3972.307693,4084.102564
8,4390.769230,4442.564102,4497.948717,4249.230769,4498.461538,4191.282051,4430.769230,4217.435897,4230.769230,4501.538461,4206.666666,4627.179487,3964.615385,4089.230769
9,4406.153846,4448.717948,4503.589743,4253.846153,4504.102564,4193.846153,4433.333333,4216.923076,4229.230769,4503.076923,4211.794871,4634.358974,3965.128206,4097.435897
10,4408.717948,4446.666666,4503.076923,4256.410256,4503.589743,4195.384615,4436.410256,4218.974358,4230.256410,4503.076923,4215.384615,4637.948717,3969.743590,4096.410256
11,4397.435897,4437.435897,4488.717948,4248.205128,4499.487179,4190.256410,4428.717948,4214.871794,4226.153846,4502.564102,4208.717948,4628.205128,3963.076924,4087.179487
12,4390.769230,4438.461538,4485.641025,4243.076923,4500.512820,4189.743589,4424.102564,4212.307692,4225.128205,4500.000000,4209.230769,4625.641025,3961.538462,4085.641025
13,4393.333333,4449.230769,4496.923076,4250.256410,4502.051282,4194.871794,4432.820512,4215.384615,4229.230769,4498.461538,4216.923076,4635.897435,3974.358975,4097.435897
14,4401.538461,4446.666666,4497.948717,4252.820512,4501.025641,4192.307692,4436.923076,4214.871794,4230.256410,4500.000000,4212.820512,4635.897435,3971.794872,4099.487179
15,4405.641025,4442.051282,4492.307692,4249.230769,4502.564102,4188.717948,4432.820512,4213.333333,4230.769230,4498.974358,4210.769230,4629.743589,3963.076924,4092.820512
16,4398.461538,4451.282051,4491.282051,4248.717948,4504.615384,4192.820512,4434.871794,4213.846153,4229.230769,4493.846153,4220.512820,4632.307692,3970.769231,4097.948717
17,4395.384615,4454.871794,4491.282051,4249.743589,4501.025641,4196.410256,4439.487179,4213.333333,4225.128205,4492.307692,4220.000000,4636.410256,3980.512821,4104.615384
18,4397.435897,4447.179487,4489.230769,4248.205128,4497.948717,4194.358974,4435.384615,4212.820512,4225.641025,4496.923076,4208.717948,4631.282051,3978.461539,4101.025641
19,4392.820512,4446.666666,4485.641025,4243.589743,4496.410256,4189.743589,4433.333333,4215.384615,4227.692307,4500.000000,4206.666666,4629.230769,3974.358975,4097.435897
20,4391.282051,4450.256410,4486.153846,4243.589743,4494.358974,4187.692307,4438.974358,4219.487179,4233.333333,4501.025641,4208.205128,4633.333333,3974.358975,4103.076923
21,4399.487179,4449.230769,4495.897435,4251.282051,4496.410256,4190.769230,4438.461538,4221.025641,4234.871794,4497.948717,4207.692307,4632.307692,3978.461539,4110.769230
22,4399.487179,4448.205128,4501.025641,4252.820512,4499.487179,4194.871794,4436.410256,4216.923076,4229.743589,4491.794871,4208.205128,4629.743589,3985.641026,4115.384615
23,4393.333333,4446.666666,4491.794871,4240.512820,4497.948717,4193.846153,4444.615384,4215.384615,4230.256410,4492.820512,4209.743589,4628.205128,3985.641026,4114.871794
24,4389.743589,4440.512820,4484.615384,4234.358974,4495.897435,4191.794871,4445.128205,4219.487179,4231.794871,4496.923076,4205.128205,4622.051282,3982.564103,4106.153846
25,4385.641025,4438.461538,4489.743589,4242.564102,4501.025641,4196.923076,4440.000000,4220.512820,4230.256410,4495.897435,4202.564102,4619.487179,3984.102565,4104.102564
26,4392.307692,4443.076923,4496.923076,4250.769230,4507.179487,4197.948717,4442.564102,4224.615384,4240.512820,4501.538461,4208.717948,4629.743589,3985.128206,4112.820512
27,4408.205128,4441.025641,4499.487179,4248.205128,4504.102564,4193.846153,4443.076923,4229.743589,4249.230769,4507.692307,4215.897435,4636.923076,3989.743590,4121.538461
28,4408.205128,4433.333333,4495.384615,4242.564102,4500.000000,4196.410256,4442.051282,4229.743589,4242.051282,4502.564102,4216.923076,4632.820512,3994.871795,4124.102564
29,4398.974358,4428.205128,4492.307692,4245.128205,4502.051282,4201.025641,4445.128205,4232.820512,4238.974358,4498.974358,4218.461538,4631.794871,3993.846154,4123.589743
30,4397.948717,4422.051282,4495.384615,4248.205128,4501.025641,4195.897435,4440.512820,4231.282051,4241.025641,4503.076923,4220.512820,4634.358974,3989.743590,4118.461538
31,4394.358974,4412.820512,4493.333333,4241.025641,4495.384615,4188.717948,4434.871794,4226.153846,4234.871794,4501.538461,4211.282051,4630.256410,3987.179488,4112.820512
32,4385.641025,4408.205128,4488.205128,4234.358974,4494.871794,4188.717948,4437.435897,4225.128205,4231.794871,4493.333333,4198.461538,4624.102564,3981.538462,4112.820512
33,4389.230769,4405.641025,4491.282051,4232.820512,4494.871794,4189.743589,4435.384615,4223.076923,4235.384615,4492.307692,4199.487179,4625.128205,3981.538462,4111.282051
34,4396.410256,4401.025641,4497.948717,4232.820512,4493.333333,4190.769230,4432.820512,4221.025641,4237.948717,4497.948717,4211.794871,4631.282051,3988.205129,4108.717948
35,4396.923076,4401.025641,4500.000000,4242.051282,4496.923076,4193.333333,4440.512820,4224.615384,4238.974358,4501.538461,4217.948717,4634.871794,3986.153847,4111.282051
36,4398.974358,4404.102564,4499.487179,4251.282051,4498.461538,4195.897435,4443.589743,4230.256410,4241.538461,4503.589743,4216.923076,4632.820512,3978.974359,4114.871794
37,4393.846153,4402.051282,4496.410256,4241.538461,4497.435897,4193.846153,4436.923076,4227.179487,4236.923076,4502.051282,4211.282051,4630.256410,3980.000000,4112.820512
38,4383.589743,4389.743589,4492.820512,4226.666666,4495.897435,4190.256410,4432.307692,4218.974358,4226.153846,4498.461538,4201.025641,4628.717948,3982.564103,4104.615384
39,4390.769230,4386.153846,4498.974358,4235.384615,4494.871794,4191.794871,4437.435897,4221.025641,4228.205128,4499.487179,4203.589743,4631.282051,3979.487180,4105.641025
40,4399.487179,4391.282051,4504.102564,4247.179487,4497.435897,4196.410256,4441.538461,4227.179487,4234.358974,4497.948717,4213.333333,4634.358974,3974.871795,4113.846153
41,4392.307692,4387.692307,4500.512820,4240.000000,4498.461538,4195.384615,4438.461538,4221.538461,4228.717948,4493.846153,4207.179487,4630.769230,3973.846154,4110.769230
42,4392.820512,4386.666666,4501.538461,4237.435897,4495.897435,4193.333333,4437.948717,4216.923076,4227.692307,4495.384615,4202.051282,4629.743589,3979.487180,4101.025641
43,4401.025641,4389.743589,4504.102564,4246.666666,4504.615384,4201.538461,4445.641025,4232.820512,4241.025641,4498.461538,4210.256410,4635.897435,3983.076924,4101.025641
44,4392.820512,4384.615384,4500.000000,4246.666666,4511.282051,4205.128205,4447.692307,4238.974358,4246.153846,4500.000000,4210.769230,4634.871794,3978.461539,4106.153846
45,4392.820512,4379.487179,4500.512820,4242.564102,4499.487179,4195.897435,4442.564102,4229.230769,4241.538461,4509.230769,4208.205128,4630.256410,3979.487180,4109.743589
46,4410.256410,4386.666666,4510.256410,4246.666666,4495.897435,4197.435897,4446.666666,4235.384615,4249.743589,4522.564102,4217.948717,4641.025641,3992.820513,4116.410256
47,4416.410256,4394.358974,4516.923076,4254.871794,4503.589743,4205.128205,4453.846153,4249.230769,4261.025641,4522.564102,4226.666666,4654.358974,3996.410257,4123.076923
48,4411.282051,4393.846153,4517.948717,4260.512820,4506.153846,4206.666666,4459.487179,4249.743589,4263.589743,4517.948717,4227.692307,4653.333333,3992.307693,4123.076923
49,4410.256410,4392.307692,4514.358974,4258.461538,4507.179487,4203.076923,4462.051282,4241.538461,4261.538461,4519.487179,4230.256410,4647.179487,3995.384616,4119.487179
50,4403.076923,4386.153846,4509.230769,4248.717948,4505.641025,4200.512820,4456.923076,4235.897435,4252.307692,4520.512820,4230.256410,4643.589743,3994.871795,4113.333333
51,4396.410256,4384.102564,4510.769230,4248.205128,4500.512820,4201.025641,4449.230769,4233.846153,4243.076923,4520.512820,4224.102564,4644.615384,3988.205129,4110.769230
52,4406.666666,4388.717948,4514.871794,4252.820512,4500.000000,4200.512820,4445.641025,4232.307692,4240.512820,4519.487179,4223.589743,4645.641025,3986.153847,4112.820512
53,4409.230769,4386.666666,4514.871794,4247.692307,4498.461538,4192.307692,4441.538461,4230.769230,4238.461538,4509.230769,4228.717948,4641.538461,3986.666667,4111.794871
54,4396.923076,4379.487179,4510.769230,4243.589743,4494.871794,4189.230769,4440.000000,4231.794871,4236.923076,4502.051282,4229.230769,4637.948717,3987.179488,4109.743589
55,4396.923076,4374.358974,4509.230769,4241.538461,4495.897435,4195.897435,4444.615384,4235.897435,4242.564102,4510.256410,4224.102564,4639.487179,3987.179488,4109.230769
56,4398.974358,4372.820512,4508.205128,4234.871794,4494.358974,4192.820512,4447.179487,4236.923076,4246.666666,4512.820512,4220.000000,4638.461538,3985.641026,4102.051282
57,4387.692307,4371.794871,4505.128205,4239.487179,4494.358974,4189.230769,4448.205128,4240.000000,4247.179487,4508.205128,4216.923076,4634.358974,3982.564103,4094.871794
58,4381.538461,4368.717948,4501.538461,4246.666666,4497.435897,4195.897435,4448.205128,4241.025641,4249.743589,4514.358974,4212.820512,4633.333333,3975.384616,4097.948717
59,4389.743589,4365.128205,4499.487179,4237.948717,4497.435897,4197.948717,4447.179487,4235.384615,4250.769230,4516.410256,4209.743589,4631.282051,3976.923077,4101.538461
60,4393.846153,4363.076923,4500.512820,4231.794871,4496.923076,4195.384615,4450.769230,4232.820512,4244.615384,4503.076923,4210.256410,4630.256410,3985.641026,4096.923076
61,4390.256410,4365.641025,4502.564102,4242.564102,4496.923076,4202.564102,4458.461538,4236.923076,4239.487179,4498.974358,4215.384615,4632.307692,3982.051283,4093.846153
62,4391.794871,4364.615384,4501.025641,4249.743589,4496.923076,4206.153846,4457.435897,4239.487179,4240.512820,4504.102564,4212.307692,4630.769230,3971.794872,4098.461538
63,4392.307692,4358.461538,4499.487179,4245.641025,4499.487179,4200.512820,4455.384615,4233.846153,4241.538461,4502.564102,4199.487179,4629.230769,3970.256411,4099.487179
64,4385.128205,4356.923076,4503.076923,4247.692307,4501.025641,4201.025641,4460.512820,4234.871794,4242.564102,4503.589743,4205.128205,4632.307692,3974.358975,4098.461538
65,4391.282051,4363.076923,4511.282051,4256.923076,4500.512820,4206.153846,4463.076923,4243.076923,4247.692307,4514.358974,4226.153846,4640.000000,3983.589744,4104.102564
66,4407.692307,4366.666666,4518.461538,4263.076923,4506.666666,4206.666666,4460.000000,4244.102564,4252.820512,4515.384615,4227.179487,4646.153846,3990.769231,4109.230769
67,4405.641025,4363.589743,4516.410256,4258.461538,4511.282051,4201.538461,4458.461538,4238.974358,4250.256410,4502.051282,4211.794871,4646.153846,3983.076924,4107.179487
68,4390.769230,4356.410256,4506.666666,4249.743589,4503.589743,4197.435897,4457.435897,4237.435897,4244.615384,4496.410256,4206.153846,4638.461538,3971.794872,4101.538461
69,4382.051282,4342.564102,4496.410256,4245.641025,4498.461538,4199.487179,4455.384615,4235.384615,4242.051282,4500.000000,4203.589743,4629.743589,3968.717949,4096.410256
70,4381.538461,4336.410256,4494.358974,4246.666666,4501.025641,4203.076923,4456.410256,4230.769230,4238.974358,4500.512820,4201.538461,4627.692307,3968.717949,4093.846153
71,4389.230769,4346.666666,4502.564102,4254.358974,4507.179487,4201.538461,4453.846153,4231.794871,4236.410256,4500.000000,4213.846153,4634.358974,3972.307693,4100.000000
72,4401.025641,4353.333333,4513.846153,4266.153846,4508.205128,4202.051282,4448.717948,4233.846153,4237.948717,4503.076923,4221.538461,4641.538461,3978.974359,4106.666666
73,4403.589743,4347.179487,4516.923076,4267.179487,4506.666666,4207.692307,4452.820512,4232.820512,4240.000000,4501.538461,4215.897435,4644.615384,3982.564103,4108.205128
74,4402.051282,4342.051282,4508.717948,4257.435897,4506.666666,4207.179487,4456.410256,4234.871794,4242.564102,4499.487179,4214.358974,4642.564102,3977.435898,4105.128205
75,4396.410256,4338.461538,4503.076923,4251.794871,4503.589743,4201.025641,4452.307692,4237.948717,4248.205128,4502.051282,4213.333333,4635.897435,3967.692308,4096.923076
76,4390.256410,4331.794871,4507.692307,4252.820512,4500.512820,4198.461538,4448.717948,4236.923076,4251.282051,4503.589743,4213.333333,4634.871794,3972.820513,4096.923076
77,4401.538461,4335.897435,4514.871794,4257.948717,4505.641025,4202.051282,4452.820512,4240.000000,4253.846153,4511.282051,4223.076923,4646.666666,3995.384616,4110.769230
78,4417.948717,4343.589743,4520.000000,4268.205128,4512.820512,4207.692307,4453.846153,4248.205128,4259.487179,4525.128205,4231.794871,4659.487179,4000.000000,4123.076923
79,4413.846153,4340.000000,4519.487179,4270.769230,4512.820512,4210.256410,4449.743589,4248.205128,4260.000000,4529.230769,4231.794871,4661.025641,3986.153847,4120.512820
80,4399.487179,4326.666666,4509.230769,4256.410256,4508.717948,4205.641025,4445.641025,4239.487179,4255.897435,4518.974358,4222.051282,4649.743589,3983.589744,4110.256410
81,4393.846153,4314.358974,4497.435897,4244.102564,4501.538461,4201.025641,4443.589743,4232.820512,4249.230769,4506.153846,4205.128205,4636.410256,3984.102565,4100.512820
82,4389.230769,4312.820512,4496.410256,4245.641025,4495.897435,4202.051282,4444.102564,4228.717948,4238.974358,4494.871794,4202.051282,4632.820512,3972.307693,4096.410256
83,4385.641025,4317.948717,4504.102564,4249.743589,4500.000000,4200.512820,4442.564102,4225.128205,4235.384615,4491.282051,4210.769230,4640.512820,3963.589744,4095.384615
84,4398.461538,4322.051282,4512.820512,4255.384615,4506.666666,4199.487179,4442.051282,4230.256410,4241.025641,4504.102564,4215.384615,4649.743589,3973.333334,4102.564102
85,4414.871794,4323.589743,4517.948717,4264.102564,4511.282051,4209.743589,4448.717948,4236.410256,4243.589743,4513.333333,4223.589743,4655.897435,3987.692308,4117.435897
86,4413.333333,4320.512820,4517.948717,4265.128205,4512.820512,4214.358974,4455.897435,4234.358974,4245.128205,4508.205128,4227.179487,4655.384615,3987.692308,4122.051282
87,4402.051282,4314.358974,4513.846153,4259.487179,4513.846153,4208.717948,4455.897435,4232.307692,4247.179487,4507.692307,4217.948717,4647.179487,3978.974359,4114.358974
88,4400.000000,4318.974358,4511.794871,4259.487179,4511.794871,4207.692307,4454.358974,4236.923076,4244.615384,4514.871794,4217.948717,4646.153846,3981.025642,4109.743589
89,4405.128205,4330.769230,4514.871794,4260.512820,4511.282051,4211.282051,4459.487179,4240.000000,4247.179487,4518.974358,4230.769230,4653.846153,3989.230770,4116.923076
90,4412.307692,4330.256410,4517.948717,4256.410256,4514.358974,4211.794871,4463.589743,4243.589743,4260.000000,4521.025641,4231.794871,4657.948717,3986.153847,4124.615384
91,4411.794871,4320.512820,4515.897435,4252.820512,4516.410256,4211.794871,4458.461538,4247.692307,4265.641025,4521.025641,4224.102564,4654.358974,3983.589744,4122.564102
92,4405.128205,4318.974358,4511.282051,4252.820512,4512.307692,4207.179487,4449.743589,4240.512820,4256.410256,4515.897435,4220.000000,4647.179487,3993.333334,4118.461538
93,4400.512820,4322.051282,4508.205128,4256.410256,4505.128205,4203.589743,4449.743589,4232.820512,4250.256410,4514.871794,4215.897435,4643.076923,3992.820513,4115.897435
94,4395.384615,4316.923076,4503.589743,4258.461538,4506.153846,4204.102564,4451.794871,4238.461538,4254.871794,4511.794871,4210.769230,4641.025641,3973.333334,4111.794871
95,4389.743589,4307.179487,4498.974358,4252.307692,4508.717948,4204.102564,4452.307692,4238.461538,4250.769230,4500.000000,4207.179487,4634.358974,3957.948718,4106.153846
96,4391.794871,4304.615384,4498.461538,4244.102564,4505.641025,4204.102564,4450.769230,4227.179487,4234.871794,4495.897435,4208.205128,4629.230769,3965.641026,4102.051282
97,4397.435897,4311.282051,4501.025641,4253.333333,4506.153846,4204.615384,4449.743589,4227.692307,4235.897435,4506.153846,4214.871794,4634.871794,3982.051283,4107.179487
98,4402.564102,4320.512820,4505.641025,4268.205128,4512.307692,4205.641025,4451.282051,4236.923076,4251.282051,4516.410256,4223.589743,4643.076923,3987.692308,4115.897435
99,4409.743589,4331.282051,4514.871794,4266.666666,4516.923076,4208.717948,4453.846153,4237.435897,4252.307692,4521.025641,4226.153846,4646.153846,3990.256411,4123.589743
100,4407.179487,4329.230769,4513.333333,4262.564102,4515.384615,4209.230769,4453.333333,4234.358974,4240.512820,4515.897435,4225.128205,4646.153846,3995.384616,4127.692307
101,4395.897435,4310.769230,4503.589743,4265.128205,4511.794871,4204.102564,4450.256410,4226.153846,4234.358974,4504.102564,4218.974358,4642.051282,3990.256411,4117.948717
102,4393.846153,4298.974358,4500.000000,4258.461538,4509.230769,4200.000000,4446.153846,4216.923076,4231.282051,4500.512820,4206.153846,4635.897435,3974.871795,4103.076923
103,4396.923076,4304.102564,4500.512820,4249.743589,4505.641025,4195.897435,4440.512820,4217.948717,4229.743589,4501.025641,4204.615384,4634.358974,3969.230770,4105.641025
104,4397.948717,4314.358974,4504.102564,4258.461538,4505.641025,4195.384615,4442.051282,4224.102564,4238.974358,4502.564102,4216.410256,4641.538461,3980.000000,4121.025641
105,4406.666666,4322.051282,4508.717948,4267.692307,4511.282051,4202.051282,4444.615384,4225.641025,4248.205128,4511.794871,4227.692307,4650.256410,3993.846154,4129.743589
106,4410.256410,4324.615384,4504.102564,4263.589743,4513.333333,4201.538461,4439.487179,4227.692307,4251.282051,4518.974358,4229.743589,4646.666666,3996.923077,4126.666666
107,4401.538461,4317.435897,4501.538461,4261.538461,4508.717948,4194.358974,4440.000000,4232.820512,4255.897435,4514.358974,4225.128205,4641.538461,3996.410257,4123.076923
108,4403.589743,4312.820512,4511.794871,4266.666666,4511.282051,4194.871794,4449.230769,4233.846153,4254.358974,4516.923076,4223.589743,4649.230769,3998.974359,4129.743589
109,4414.871794,4320.000000,4520.000000,4270.256410,4517.948717,4199.487179,4451.794871,4233.333333,4241.538461,4517.435897,4228.205128,4657.435897,3994.871795,4138.461538
110,4411.282051,4323.589743,4515.897435,4268.205128,4513.333333,4203.589743,4446.666666,4226.153846,4235.384615,4503.589743,4230.256410,4651.282051,3985.641026,4132.307692
111,4396.923076,4312.820512,4507.179487,4261.538461,4502.051282,4198.974358,4443.589743,4215.384615,4232.307692,4494.358974,4219.487179,4639.487179,3981.538462,4120.512820
112,4390.769230,4302.564102,4497.948717,4258.461538,4501.025641,4190.256410,4438.461538,4213.846153,4223.589743,4495.384615,4204.615384,4632.307692,3978.974359,4118.974358
113,4399.487179,4311.794871,4501.025641,4263.076923,4508.717948,4192.307692,4435.897435,4220.512820,4229.230769,4499.487179,4211.794871,4634.871794,3980.000000,4127.692307
114,4408.717948,4325.128205,4513.333333,4265.641025,4512.820512,4198.974358,4437.948717,4227.692307,4244.102564,4508.205128,4231.282051,4643.589743,3982.564103,4133.333333
115,4408.717948,4321.025641,4514.871794,4264.615384,4509.743589,4194.358974,4438.461538,4230.769230,4241.538461,4514.358974,4228.717948,4644.615384,3983.589744,4129.743589
116,4406.153846,4315.384615,4509.230769,4265.128205,4504.615384,4191.282051,4444.102564,4231.282051,4234.358974,4508.205128,4216.410256,4640.000000,3988.205129,4130.256410
117,4402.564102,4318.461538,4513.333333,4265.128205,4506.666666,4200.512820,4453.333333,4230.256410,4242.564102,4502.564102,4222.564102,4642.051282,3990.769231,4133.846153
118,4396.410256,4317.948717,4515.384615,4264.615384,4510.769230,4204.102564,4454.358974,4226.153846,4250.256410,4503.076923,4226.153846,4644.102564,3980.000000,4131.282051
119,4394.358974,4314.871794,4505.128205,4265.128205,4507.692307,4198.974358,4449.230769,4216.923076,4237.948717,4496.923076,4213.846153,4634.358974,3969.230770,4127.692307
120,4400.512820,4318.974358,4500.000000,4264.102564,4504.615384,4199.487179,4448.205128,4216.410256,4226.666666,4498.974358,4212.820512,4631.794871,3977.948718,4127.692307
121,4410.256410,4325.128205,4507.692307,4262.564102,4506.153846,4201.538461,4445.641025,4225.128205,4233.846153,4504.615384,4222.564102,4645.641025,3991.794872,4131.282051
122,4408.205128,4327.692307,4513.333333,4262.564102,4503.076923,4197.435897,4442.564102,4229.230769,4241.025641,4503.589743,4225.128205,4651.794871,4000.000000,4136.410256
123,4404.102564,4336.410256,4513.333333,4264.102564,4505.128205,4195.897435,4444.615384,4237.435897,4247.692307,4511.794871,4232.307692,4651.282051,4005.128205,4142.564102
124,4413.333333,4348.717948,4514.871794,4265.641025,4513.333333,4200.512820,4443.589743,4246.153846,4255.384615,4522.564102,4245.128205,4658.461538,4007.179487,4147.692307
125,4420.512820,4349.230769,4515.384615,4263.076923,4510.769230,4200.512820,4441.025641,4239.487179,4254.358974,4516.923076,4236.923076,4658.974358,4008.717948,4151.794871
126,4417.948717,4342.564102,4514.358974,4258.461538,4509.743589,4203.589743,4447.179487,4235.384615,4249.743589,4509.743589,4217.435897,4654.871794,4013.846153,4157.948717
127,4420.000000,4343.076923,4517.435897,4262.051282,4514.358974,4210.769230,4456.923076,4242.051282,4254.871794,4514.871794,4224.102564,4658.461538,4014.871794,4164.102564
128,4414.358974,4347.179487,4514.871794,4265.128205,4511.794871,4211.794871,4460.000000,4243.076923,4264.102564,4512.820512,4241.025641,4658.461538,4009.743589,4162.051282
129,4408.717948,4343.076923,4511.794871,4260.512820,4510.769230,4212.307692,4459.487179,4243.076923,4263.589743,4509.743589,4236.923076,4653.846153,4013.333333,4154.358974
130,4421.538461,4345.128205,4518.974358,4261.025641,4514.871794,4214.358974,4457.435897,4247.179487,4259.487179,4524.102564,4231.282051,4657.948717,4024.102564,4158.974358
131,4425.128205,4351.794871,4524.102564,4266.666666,4515.384615,4213.846153,4453.846153,4244.615384,4255.897435,4529.230769,4236.410256,4658.461538,4025.641025,4170.256410
132,4412.820512,4342.051282,4516.410256,4259.487179,4511.794871,4209.230769,4448.717948,4237.435897,4252.307692,4516.410256,4231.794871,4649.230769,4013.333333,4168.717948
133,4409.230769,4327.179487,4508.205128,4246.666666,4510.769230,4204.615384,4447.179487,4234.871794,4249.743589,4511.282051,4225.128205,4644.102564,4008.205128,4152.820512
134,4407.179487,4324.615384,4510.769230,4249.743589,4512.307692,4206.153846,4453.846153,4232.820512,4250.256410,4516.410256,4229.230769,4647.179487,4016.410256,4146.666666
135,4398.974358,4326.153846,4512.820512,4255.897435,4514.871794,4207.692307,4453.846153,4228.205128,4245.641025,4511.794871,4225.641025,4648.205128,4012.307692,4156.410256
136,4403.076923,4325.128205,4511.282051,4255.384615,4510.769230,4205.128205,4447.179487,4224.102564,4240.512820,4507.179487,4221.025641,4646.153846,4001.025641,4157.435897
137,4411.794871,4326.666666,4511.794871,4256.923076,4506.153846,4203.076923,4445.128205,4227.692307,4246.153846,4513.846153,4230.256410,4647.179487,4008.205128,4149.743589
138,4411.282051,4323.589743,4512.307692,4255.897435,4508.717948,4203.589743,4443.589743,4233.846153,4248.205128,4516.410256,4236.923076,4651.794871,4015.897435,4152.820512
139,4410.256410,4322.564102,4514.358974,4257.948717,4506.666666,4201.538461,4442.051282,4235.384615,4247.692307,4514.358974,4234.871794,4654.871794,4010.769230,4155.897435
140,4410.256410,4331.794871,4517.435897,4262.051282,4505.641025,4198.461538,4438.461538,4238.461538,4253.333333,4515.384615,4236.923076,4651.282051,4012.820512,4151.794871
141,4407.179487,4333.846153,4515.897435,4257.435897,4507.179487,4196.923076,4431.282051,4238.461538,4251.282051,4514.358974,4234.871794,4646.666666,4015.897435,4150.256410
142,4409.743589,4325.128205,4516.923076,4253.333333,4504.615384,4194.358974,4427.179487,4232.820512,4250.769230,4515.384615,4231.794871,4648.205128,4006.666666,4150.256410
143,4412.820512,4320.000000,4516.923076,4253.333333,4503.589743,4192.820512,4434.358974,4231.794871,4255.897435,4518.461538,4237.435897,4651.794871,4000.512820,4144.615384
144,4406.666666,4317.435897,4509.743589,4249.230769,4505.128205,4193.333333,4440.512820,4231.282051,4248.205128,4515.384615,4232.307692,4646.666666,4001.538461,4136.410256
145,4402.051282,4314.358974,4508.205128,4249.230769,4503.589743,4197.948717,4441.538461,4225.128205,4240.000000,4511.282051,4223.589743,4643.589743,4002.564102,4136.410256
146,4404.102564,4325.641025,4516.923076,4260.000000,4509.743589,4206.666666,4447.692307,4225.128205,4246.666666,4514.871794,4229.230769,4649.230769,4010.256410,4143.076923
147,4402.564102,4336.410256,4515.897435,4263.076923,4517.435897,4208.205128,4451.282051,4228.205128,4245.641025,4512.307692,4232.307692,4650.256410,4013.846153,4140.000000
148,4403.076923,4331.282051,4511.282051,4258.461538,4511.282051,4203.076923,4447.179487,4229.230769,4238.461538,4509.743589,4231.282051,4648.205128,4007.179487,4127.179487
149,4409.230769,4329.230769,4517.435897,4260.512820,4511.282051,4204.615384,4446.666666,4231.282051,4245.128205,4517.948717,4241.025641,4651.282051,4007.692307,4131.794871
150,4410.769230,4335.384615,4520.000000,4260.000000,4517.435897,4209.230769,4451.794871,4235.384615,4252.307692,4521.538461,4242.564102,4655.897435,4014.358974,4140.512820
151,4405.641025,4333.846153,4511.794871,4252.307692,4514.871794,4205.128205,4450.769230,4233.846153,4249.230769,4512.820512,4221.538461,4652.307692,4010.256410,4128.205128
152,4398.461538,4327.179487,4510.256410,4251.794871,4510.256410,4198.461538,4442.051282,4229.743589,4246.666666,4509.743589,4213.846153,4647.692307,4001.538461,4113.846153
153,4398.974358,4329.743589,4518.461538,4264.615384,4512.307692,4202.051282,4443.076923,4233.333333,4255.384615,4525.128205,4238.461538,4654.358974,4002.051282,4120.000000
154,4412.820512,4338.461538,4524.615384,4269.230769,4515.897435,4205.641025,4447.179487,4244.102564,4268.205128,4531.282051,4255.384615,4665.641025,4014.358974,4134.358974
155,4422.051282,4344.102564,4528.717948,4265.128205,4515.384615,4197.435897,4440.000000,4246.666666,4266.153846,4524.615384,4245.641025,4666.153846,4021.025641,4134.871794
156,4416.923076,4341.538461,4527.692307,4264.615384,4510.769230,4190.769230,4434.871794,4241.025641,4253.846153,4526.153846,4236.410256,4659.487179,4008.717948,4123.589743
157,4404.102564,4329.743589,4517.948717,4256.410256,4504.615384,4193.846153,4439.487179,4236.923076,4245.128205,4522.051282,4229.743589,4654.871794,3992.307693,4113.333333
158,4394.358974,4323.589743,4510.256410,4243.076923,4504.615384,4195.897435,4444.102564,4236.410256,4239.487179,4502.564102,4215.897435,4648.717948,3988.717949,4106.153846
159,4393.846153,4326.153846,4512.820512,4246.153846,4506.666666,4193.333333,4448.717948,4231.794871,4237.435897,4492.820512,4218.461538,4644.615384,3991.794872,4103.076923
160,4397.948717,4330.769230,4516.923076,4257.948717,4505.641025,4194.871794,4451.282051,4230.256410,4242.051282,4505.128205,4230.769230,4647.692307,3993.846154,4098.974358
161,4401.025641,4332.820512,4513.846153,4260.000000,4506.666666,4199.487179,4448.717948,4232.307692,4247.179487,4512.307692,4225.128205,4647.179487,3995.897436,4096.923076
162,4406.153846,4335.897435,4511.794871,4258.974358,4511.794871,4205.641025,4451.794871,4233.333333,4247.179487,4507.692307,4220.000000,4645.641025,3997.435898,4098.974358
163,4409.743589,4334.358974,4513.333333,4260.512820,4514.871794,4204.615384,4456.923076,4227.692307,4245.128205,4506.153846,4229.743589,4648.717948,3996.410257,4097.948717
164,4402.564102,4332.820512,4510.256410,4261.538461,4510.256410,4198.461538,4448.717948,4224.615384,4245.128205,4513.333333,4233.333333,4649.743589,4002.051282,4091.282051
165,4394.358974,4337.948717,4507.692307,4262.051282,4506.666666,4195.897435,4440.512820,4225.641025,4244.102564,4516.923076,4227.692307,4648.717948,4007.179487,4084.615384
166,4398.461538,4340.000000,4510.769230,4260.512820,4508.717948,4195.384615,4444.615384,4223.589743,4240.512820,4511.794871,4224.102564,4649.230769,4004.615384,4077.435897
167,4405.128205,4337.948717,4511.794871,4261.538461,4507.179487,4193.846153,4445.641025,4222.564102,4246.666666,4514.358974,4226.666666,4650.256410,3999.487180,4070.769230
168,4401.538461,4342.051282,4512.307692,4261.025641,4500.512820,4193.333333,4442.564102,4224.102564,4252.820512,4514.358974,4229.743589,4649.743589,3995.384616,4073.846153
169,4399.487179,4346.153846,4514.358974,4254.871794,4501.025641,4194.358974,4444.615384,4226.153846,4244.615384,4507.179487,4229.743589,4649.230769,4001.538461,4074.871794
170,4400.000000,4338.461538,4507.179487,4249.230769,4502.051282,4194.358974,4444.102564,4228.205128,4238.974358,4512.307692,4228.717948,4648.205128,4011.282051,4063.076923
171,4394.358974,4333.333333,4500.000000,4249.230769,4497.948717,4193.333333,4441.025641,4225.641025,4243.076923,4517.435897,4227.179487,4647.179487,4006.153846,4056.923076
172,4395.384615,4336.923076,4507.179487,4251.282051,4499.487179,4187.692307,4438.974358,4224.102564,4243.589743,4507.692307,4226.153846,4647.179487,3992.820513,4057.435897
173,4407.179487,4338.974358,4517.435897,4252.820512,4500.512820,4182.051282,4440.512820,4223.589743,4240.512820,4502.564102,4230.769230,4648.205128,3994.871795,4054.358974
174,4407.692307,4342.564102,4519.487179,4255.897435,4499.487179,4187.179487,4444.615384,4226.666666,4244.615384,4511.282051,4236.923076,4651.282051,4008.717948,4049.230769
175,4399.487179,4341.025641,4513.846153,4253.846153,4501.538461,4191.794871,4445.128205,4226.666666,4244.102564,4512.820512,4232.820512,4650.769230,4004.615384,4044.102564
176,4396.923076,4331.794871,4506.666666,4249.230769,4500.000000,4189.230769,4438.974358,4221.538461,4237.948717,4507.692307,4223.076923,4644.615384,3989.743590,4038.461538
177,4396.410256,4334.358974,4509.230769,4252.820512,4497.948717,4193.333333,4440.512820,4221.538461,4242.564102,4509.230769,4223.076923,4642.564102,3989.743590,4040.512820
178,4395.384615,4347.692307,4514.871794,4260.512820,4502.564102,4197.948717,4447.692307,4226.153846,4249.230769,4514.358974,4226.666666,4646.153846,4000.512820,4041.538461
179,4397.435897,4346.666666,4510.256410,4263.076923,4503.589743,4192.820512,4444.102564,4222.051282,4240.512820,4510.769230,4223.589743,4646.153846,3997.948718,4028.205128
180,4401.538461,4337.435897,4508.717948,4261.538461,4500.512820,4191.282051,4438.461538,4215.897435,4234.871794,4502.564102,4221.538461,4643.589743,3986.153847,4023.076923
181,4406.666666,4343.589743,4517.948717,4264.102564,4506.666666,4197.435897,4445.641025,4227.692307,4246.666666,4504.615384,4224.102564,4649.230769,3988.205129,4037.948717
182,4403.589743,4357.948717,4516.410256,4266.666666,4510.769230,4198.974358,4450.769230,4236.410256,4248.205128,4515.897435,4227.179487,4653.333333,3997.948718,4041.538461
183,4391.794871,4355.384615,4505.128205,4262.564102,4505.128205,4193.846153,4444.102564,4226.666666,4235.897435,4515.897435,4226.153846,4646.153846,3996.923077,4022.051282
184,4388.717948,4339.487179,4503.589743,4260.512820,4502.051282,4189.743589,4440.000000,4220.512820,4232.820512,4502.051282,4222.564102,4638.974358,3986.153847,4009.743589
185,4393.333333,4338.974358,4511.794871,4266.666666,4505.641025,4195.384615,4446.666666,4226.153846,4236.923076,4495.897435,4224.615384,4641.025641,3982.564103,4017.435897
186,4394.871794,4349.230769,4512.307692,4267.179487,4507.179487,4200.000000,4452.307692,4231.794871,4235.897435,4501.025641,4227.179487,4646.153846,3987.179488,4022.564102
187,4388.205128,4345.128205,4502.564102,4255.897435,4505.128205,4196.410256,4447.179487,4228.205128,4235.384615,4506.666666,4215.384615,4643.076923,3990.769231,4008.205128
188,4378.461538,4333.333333,4497.948717,4252.307692,4497.948717,4190.256410,4440.000000,4224.102564,4238.461538,4511.282051,4207.179487,4636.410256,3986.153847,3993.846154
189,4378.974358,4335.897435,4502.051282,4258.461538,4494.358974,4190.256410,4443.076923,4230.256410,4241.025641,4512.820512,4221.538461,4639.487179,3983.589744,4002.564102
190,4391.282051,4341.025641,4504.615384,4255.384615,4500.512820,4190.769230,4446.153846,4232.820512,4239.487179,4506.666666,4233.333333,4643.076923,3988.205129,4013.846153
191,4394.358974,4337.948717,4501.025641,4245.641025,4501.538461,4187.692307,4440.512820,4229.743589,4238.461538,4499.487179,4221.025641,4638.461538,3984.615385,4002.051282
192,4391.794871,4336.923076,4497.948717,4248.717948,4496.923076,4188.205128,4438.974358,4229.743589,4244.615384,4500.512820,4210.256410,4638.974358,3981.538462,3994.358975
193,4395.384615,4340.512820,4501.538461,4256.410256,4497.435897,4189.743589,4443.589743,4229.743589,4243.076923,4502.564102,4218.974358,4648.205128,3990.256411,4005.641025
194,4392.820512,4346.666666,4503.076923,4252.820512,4498.461538,4189.743589,4444.615384,4231.282051,4236.410256,4502.564102,4233.846153,4648.205128,3990.256411,4006.666666
195,4386.153846,4348.717948,4502.051282,4251.794871,4498.461538,4190.256410,4443.589743,4231.794871,4236.923076,4502.051282,4234.358974,4641.538461,3975.384616,3995.384616
196,4389.743589,4336.923076,4502.564102,4256.410256,4500.512820,4194.871794,4451.282051,4231.282051,4240.512820,4497.435897,4226.153846,4642.564102,3972.820513,3992.307693
197,4393.846153,4327.179487,4505.641025,4258.461538,4498.974358,4200.000000,4460.000000,4237.948717,4243.076923,4498.974358,4225.128205,4651.282051,3989.743590,3996.410257
198,4398.461538,4344.102564,4511.282051,4260.512820,4501.538461,4202.564102,4460.512820,4245.641025,4246.153846,4509.230769,4226.153846,4654.871794,3996.923077,4004.102564
199,4403.589743,4362.051282,4515.897435,4268.205128,4507.179487,4207.179487,4456.923076,4240.000000,4245.128205,4515.384615,4232.307692,4653.846153,3990.256411,4008.717948
200,4395.897435,4354.358974,4510.769230,4263.589743,4502.564102,4204.615384,4450.769230,4232.820512,4240.512820,4510.769230,4232.307692,4650.769230,3983.076924,3998.974359
201,4385.641025,4343.076923,4503.589743,4253.333333,4495.384615,4192.820512,4442.051282,4230.256410,4239.487179,4504.102564,4227.179487,4644.615384,3980.512821,3988.205129
202,4390.256410,4349.230769,4506.666666,4257.948717,4498.974358,4189.230769,4438.974358,4224.615384,4237.435897,4502.051282,4223.076923,4641.538461,3981.025642,3995.384616
203,4397.948717,4356.923076,4513.333333,4264.615384,4503.076923,4197.435897,4443.076923,4224.102564,4237.948717,4498.974358,4215.897435,4642.564102,3978.974359,4002.564102
204,4390.256410,4355.897435,4508.717948,4262.564102,4505.128205,4202.051282,4444.615384,4222.564102,4237.948717,4489.743589,4211.282051,4638.461538,3971.794872,3995.384616
205,4378.461538,4351.794871,4497.948717,4260.000000,4506.666666,4198.461538,4449.743589,4217.435897,4225.641025,4485.128205,4217.948717,4631.282051,3965.641026,3988.717949
206,4381.538461,4348.717948,4502.051282,4263.589743,4504.102564,4195.897435,4453.333333,4222.564102,4223.076923,4497.948717,4224.615384,4631.282051,3969.230770,3991.794872
207,4390.769230,4355.384615,4508.205128,4263.589743,4501.025641,4194.871794,4444.102564,4228.205128,4236.410256,4509.230769,4221.538461,4634.358974,3979.487180,3997.435898
208,4393.846153,4363.589743,4504.102564,4254.871794,4502.564102,4188.205128,4433.846153,4220.512820,4236.923076,4505.128205,4218.461538,4632.820512,3985.641026,3995.384616
209,4393.333333,4361.025641,4498.461538,4248.205128,4500.512820,4183.076923,4429.230769,4216.410256,4225.641025,4500.000000,4217.948717,4631.794871,3982.051283,3991.794872
210,4389.230769,4357.435897,4500.000000,4250.256410,4497.435897,4185.128205,4430.769230,4219.487179,4232.307692,4505.128205,4224.615384,4633.846153,3973.846154,3995.384616
211,4381.538461,4358.461538,4501.538461,4251.794871,4495.897435,4187.692307,4434.871794,4215.384615,4241.538461,4511.282051,4229.743589,4635.897435,3977.435898,3997.948718
212,4385.641025,4357.435897,4499.487179,4246.666666,4495.384615,4187.179487,4435.384615,4215.384615,4235.384615,4512.307692,4218.974358,4635.897435,3987.692308,3997.435898
213,4395.897435,4357.948717,4503.076923,4249.743589,4497.435897,4190.769230,4435.384615,4218.461538,4236.923076,4507.179487,4210.769230,4636.923076,3984.102565,3994.871795
214,4394.358974,4363.076923,4506.666666,4258.974358,4501.025641,4195.897435,4442.564102,4216.923076,4240.000000,4504.102564,4213.333333,4638.461538,3970.769231,3992.307693
215,4390.769230,4359.487179,4503.076923,4254.871794,4500.000000,4197.435897,4449.230769,4221.538461,4232.307692,4503.076923,4222.051282,4637.948717,3964.615385,3993.333334
216,4390.769230,4353.846153,4501.025641,4246.666666,4500.512820,4199.487179,4446.666666,4228.205128,4232.307692,4501.538461,4226.666666,4639.487179,3974.358975,4000.512820
217,4391.794871,4362.051282,4506.666666,4255.384615,4508.205128,4201.538461,4442.051282,4224.615384,4241.025641,4506.666666,4224.102564,4644.615384,3992.307693,4007.179487
218,4396.410256,4370.256410,4508.205128,4266.153846,4509.743589,4197.948717,4439.487179,4217.435897,4237.435897,4509.230769,4226.153846,4643.076923,3995.384616,4004.102564
219,4396.410256,4367.179487,4503.076923,4260.512820,4502.051282,4192.307692,4434.871794,4211.282051,4226.666666,4503.076923,4230.769230,4634.358974,3982.051283,3996.923077
220,4391.794871,4363.076923,4501.025641,4252.307692,4497.948717,4192.307692,4431.794871,4207.179487,4227.692307,4500.000000,4223.076923,4634.358974,3973.846154,3997.948718
221,4393.846153,4361.025641,4503.076923,4251.794871,4501.025641,4191.282051,4434.871794,4209.743589,4228.205128,4500.512820,4217.948717,4642.051282,3980.000000,4004.615384
222,4395.384615,4363.589743,4501.538461,4249.743589,4503.076923,4187.692307,4435.384615,4214.358974,4229.230769,4507.179487,4225.128205,4638.974358,3986.153847,4004.102564
223,4390.769230,4371.282051,4497.435897,4247.179487,4493.846153,4189.743589,4429.230769,4217.435897,4238.974358,4510.256410,4222.564102,4631.794871,3984.102565,3999.487180
224,4392.307692,4371.282051,4496.410256,4247.179487,4487.692307,4192.820512,4434.358974,4223.076923,4245.641025,4503.589743,4212.820512,4633.333333,3983.589744,4005.128205
225,4395.384615,4368.205128,4494.871794,4246.666666,4493.333333,4192.307692,4447.179487,4229.743589,4250.769230,4508.205128,4218.461538,4635.897435,3987.179488,4014.871794
226,4390.256410,4373.333333,4493.333333,4245.641025,4494.871794,4195.384615,4447.692307,4229.230769,4255.384615,4523.076923,4227.692307,4633.846153,3986.153847,4013.333333
227,4388.717948,4380.000000,4492.820512,4245.128205,4489.743589,4197.435897,4443.076923,4224.102564,4249.230769,4515.384615,4220.512820,4632.820512,3984.615385,4008.205128
228,4392.307692,4386.666666,4494.871794,4247.179487,4494.358974,4195.897435,4446.666666,4222.564102,4244.102564,4508.205128,4210.256410,4631.794871,3995.384616,4017.435897
229,4388.205128,4393.846153,4497.435897,4248.717948,4499.487179,4193.846153,4446.153846,4221.538461,4244.102564,4514.358974,4211.282051,4627.179487,4004.102564,4027.179487
230,4383.076923,4392.307692,4494.358974,4246.153846,4496.410256,4190.769230,4436.923076,4215.897435,4237.435897,4504.615384,4210.256410,4622.051282,4000.512820,4031.794871
231,4388.717948,4388.205128,4491.794871,4245.641025,4497.435897,4186.153846,4433.333333,4211.794871,4230.769230,4496.923076,4208.205128,4620.512820,3992.307693,4044.615384
232,4392.307692,4396.923076,4495.897435,4250.256410,4504.102564,4187.179487,4433.846153,4212.307692,4236.923076,4506.153846,4214.871794,4623.589743,3985.641026,4053.333333
233,4384.102564,4404.615384,4500.000000,4247.179487,4502.564102,4190.256410,4432.307692,4209.230769,4236.923076,4504.615384,4207.692307,4622.051282,3988.205129,4051.794871
234,4379.487179,4401.025641,4497.435897,4243.076923,4501.025641,4192.820512,4435.897435,4209.743589,4227.692307,4494.358974,4188.717948,4618.974358,3995.384616,4058.974358
235,4393.846153,4398.974358,4498.974358,4249.743589,4507.692307,4202.051282,4446.153846,4217.435897,4230.769230,4499.487179,4197.435897,4626.666666,3999.487180,4075.384615
236,4401.025641,4396.923076,4502.051282,4245.128205,4509.230769,4205.128205,4447.179487,4217.948717,4237.948717,4503.589743,4212.820512,4632.307692,3991.794872,4074.358974
237,4381.538461,4388.205128,4494.358974,4229.230769,4502.051282,4196.923076,4440.000000,4216.410256,4233.846153,4492.307692,4203.589743,4620.000000,3976.923077,4060.000000
238,4375.897435,4387.692307,4489.743589,4236.410256,4498.461538,4195.897435,4443.589743,4217.948717,4233.846153,4492.820512,4203.076923,4615.384615,3984.615385,4063.589743
239,4396.923076,4396.410256,4502.051282,4256.923076,4502.051282,4200.000000,4451.794871,4217.435897,4239.487179,4508.205128,4215.897435,4630.256410,4010.256410,4084.615384
240,4405.128205,4400.512820,4515.384615,4259.487179,4505.641025,4202.051282,4452.307692,4217.435897,4237.435897,4513.846153,4216.923076,4636.923076,4015.384615,4100.512820
241,4401.538461,4404.102564,4517.435897,4258.974358,4509.230769,4205.128205,4452.820512,4228.205128,4241.538461,4509.743589,4225.641025,4639.487179,4010.769230,4107.692307
242,4410.256410,4410.769230,4519.487179,4266.153846,4515.897435,4212.820512,4460.000000,4237.948717,4257.435897,4519.487179,4246.153846,4652.307692,4025.641025,4119.487179
243,4412.820512,4409.743589,4518.461538,4260.512820,4515.384615,4209.230769,4460.512820,4236.923076,4260.000000,4530.769230,4246.153846,4655.384615,4034.871794,4130.769230
244,4401.025641,4394.358974,4508.717948,4248.717948,4506.666666,4196.410256,4447.692307,4227.692307,4244.615384,4521.538461,4226.153846,4640.512820,4016.923076,4121.538461
245,4395.897435,4390.769230,4507.179487,4247.692307,4506.666666,4196.923076,4440.000000,4217.948717,4236.923076,4511.282051,4214.871794,4636.923076,4003.589743,4113.846153
246,4402.564102,4405.128205,4516.410256,4253.333333,4510.769230,4204.615384,4447.179487,4223.076923,4246.153846,4515.384615,4224.102564,4646.666666,4015.384615,4129.230769
247,4405.641025,4407.692307,4518.461538,4251.282051,4506.666666,4201.025641,4450.769230,4230.256410,4248.205128,4518.974358,4240.512820,4647.179487,4020.000000,4137.948717
248,4400.512820,4397.948717,4508.205128,4246.153846,4504.102564,4198.461538,4444.102564,4224.102564,4240.512820,4515.384615,4234.358974,4637.948717,4011.282051,4123.076923
249,4397.435897,4393.846153,4505.128205,4247.692307,4503.589743,4202.051282,4441.025641,4221.025641,4244.615384,4515.897435,4218.461538,4637.948717,4010.769230,4113.333333
250,4398.974358,4392.820512,4509.230769,4248.717948,4504.615384,4199.487179,4443.076923,4227.179487,4252.820512,4518.461538,4227.179487,4644.615384,4012.820512,4121.025641
251,4394.358974,4393.846153,4509.743589,4247.692307,4507.692307,4195.384615,4446.666666,4227.692307,4247.179487,4516.923076,4238.461538,4645.128205,4005.128205,4127.692307
252,4392.820512,4403.589743,4509.743589,4250.769230,4506.153846,4197.435897,4452.820512,4226.153846,4242.564102,4512.307692,4229.230769,4645.128205,4005.128205,4130.769230
253,4407.692307,4410.256410,4520.000000,4259.487179,4506.153846,4203.589743,4459.487179,4237.435897,4258.974358,4520.512820,4229.743589,4654.358974,4022.564102,4134.358974
254,4423.589743,4411.282051,4532.307692,4265.128205,4514.871794,4209.743589,4460.512820,4252.307692,4273.333333,4535.384615,4246.153846,4665.641025,4034.358974,4143.589743
255,4420.000000,4408.205128,4528.717948,4264.102564,4512.307692,4207.179487,4456.923076,4250.256410,4262.051282,4532.820512,4245.128205,4662.564102,4026.153846,4149.743589
256,4402.564102,4400.512820,4515.384615,4261.025641,4500.000000,4201.025641,4449.743589,4235.384615,4244.615384,4517.435897,4234.871794,4647.692307,4012.307692,4137.435897
257,4394.358974,4395.897435,4512.307692,4263.076923,4497.435897,4197.435897,4441.538461,4225.641025,4237.948717,4509.743589,4228.717948,4644.102564,4005.641025,4120.512820
258,4402.051282,4398.461538,4517.948717,4265.128205,4501.025641,4193.846153,4440.000000,4223.076923,4234.358974,4512.820512,4217.435897,4648.717948,4001.538461,4116.410256
259,4400.512820,4393.846153,4509.743589,4254.871794,4501.538461,4192.307692,4440.512820,4216.410256,4227.692307,4507.692307,4206.153846,4640.000000,3992.307693,4112.307692
