,AF3,F7,F3,FC5,T7,P7,O1,O2,P8,T8,FC6,F4,F8,AF4
0,4379.487179,4512.820512,4522.051282,4267.179487,4436.410256,4190.769230,4421.538461,4223.076923,4217.435897,4472.820512,4200.512820,4619.487179,3961.025642,4034.871794
1,4377.948717,4513.333333,4524.615384,4260.512820,4441.025641,4194.871794,4424.615384,4223.589743,4214.358974,4467.179487,4202.564102,4622.051282,3955.897436,4037.435897
2,4378.461538,4515.897435,4528.205128,4255.897435,4456.410256,4203.589743,4428.205128,4223.589743,4214.871794,4460.000000,4201.538461,4619.487179,3960.512821,4037.948717
3,4372.820512,4506.153846,4521.538461,4249.230769,4455.897435,4201.538461,4421.538461,4214.358974,4209.743589,4458.461538,4191.794871,4610.769230,3957.435898,4029.743589
4,4372.820512,4504.102564,4518.461538,4244.102564,4455.384615,4196.923076,4420.000000,4214.871794,4208.717948,4462.564102,4191.282051,4611.794871,3952.307693,4027.692307
5,4378.461538,4511.282051,4520.512820,4244.102564,4455.384615,4197.948717,4428.205128,4223.589743,4217.435897,4472.307692,4203.076923,4619.487179,3959.487180,4033.846153
6,4378.974358,4509.230769,4518.974358,4244.615384,4440.000000,4196.410256,4427.692307,4224.102564,4220.000000,4473.846153,4202.051282,4621.025641,3962.051283,4037.435897
7,4378.461538,4507.179487,4522.051282,4246.153846,4438.461538,4193.333333,4422.051282,4221.025641,4216.923076,4466.666666,4194.358974,4619.487179,3956.410257,4036.923076
8,4380.512820,4513.846153,4524.102564,4247.179487,4457.435897,4197.435897,4422.564102,4217.435897,4213.846153,4466.666666,4193.333333,4617.948717,3955.897436,4035.897435
9,4378.461538,4513.846153,4521.538461,4245.128205,4460.000000,4199.487179,4425.641025,4212.307692,4208.717948,4467.692307,4193.333333,4615.897435,3954.871795,4030.769230
10,4373.846153,4508.717948,4523.076923,4246.153846,4448.205128,4194.871794,4425.641025,4216.410256,4209.743589,4457.948717,4194.871794,4619.487179,3952.820513,4030.256410
11,4374.871794,4511.282051,4526.666666,4250.256410,4449.743589,4192.307692,4426.153846,4225.641025,4215.384615,4451.282051,4199.487179,4626.153846,3953.846154,4039.487179
12,4378.974358,4514.871794,4525.641025,4250.256410,4458.461538,4192.820512,4430.256410,4227.692307,4217.948717,4464.102564,4200.000000,4627.179487,3958.461539,4045.128205
13,4383.589743,4511.794871,4527.179487,4248.205128,4453.846153,4192.820512,4432.820512,4228.717948,4222.051282,4479.487179,4198.974358,4629.230769,3961.538462,4044.615384
14,4386.666666,4509.230769,4531.794871,4250.256410,4447.692307,4195.384615,4434.358974,4235.384615,4230.256410,4482.051282,4206.153846,4633.333333,3963.076924,4045.128205
15,4380.000000,4508.205128,4527.179487,4242.051282,4447.179487,4194.358974,4432.820512,4235.897435,4227.179487,4473.846153,4204.615384,4628.717948,3959.487180,4041.538461
16,4371.282051,4502.051282,4520.000000,4227.179487,4442.051282,4190.769230,4427.179487,4228.205128,4215.897435,4462.051282,4191.282051,4620.000000,3954.358975,4032.820512
17,4372.307692,4503.076923,4517.948717,4230.769230,4445.128205,4193.846153,4426.666666,4226.666666,4216.410256,4461.538461,4190.256410,4616.923076,3960.000000,4030.256410
18,4373.333333,4509.230769,4516.410256,4242.051282,4461.025641,4199.487179,4431.794871,4230.769230,4221.538461,4471.282051,4197.435897,4615.384615,3969.230770,4030.769230
19,4368.717948,4506.666666,4512.307692,4240.000000,4459.487179,4197.948717,4431.282051,4226.153846,4216.923076,4476.923076,4193.846153,4611.794871,3970.769231,4025.128205
20,4366.666666,4502.564102,4510.256410,4234.358974,4440.512820,4192.307692,4423.589743,4209.230769,4202.051282,4465.641025,4181.025641,4610.769230,3967.692308,4021.025641
21,4373.846153,4506.153846,4515.384615,4238.974358,4440.000000,4190.769230,4422.564102,4198.974358,4193.333333,4451.794871,4175.384615,4611.794871,3967.179488,4027.179487
22,4378.461538,4510.256410,4517.948717,4242.051282,4455.384615,4193.333333,4426.666666,4208.717948,4201.025641,4451.794871,4184.615384,4614.871794,3974.358975,4032.820512
23,4374.871794,4507.179487,4514.871794,4240.000000,4454.358974,4192.307692,4428.717948,4222.051282,4212.307692,4456.923076,4191.282051,4618.974358,3980.512821,4031.282051
24,4374.358974,4506.666666,4515.897435,4242.564102,4445.128205,4189.743589,4428.205128,4224.102564,4216.410256,4463.589743,4187.692307,4620.512820,3978.974359,4030.769230
25,4383.589743,4511.794871,4519.487179,4247.179487,4446.666666,4190.256410,4428.205128,4225.128205,4219.487179,4469.743589,4188.205128,4624.615384,3976.923077,4035.897435
26,4383.589743,4509.230769,4517.435897,4241.025641,4441.538461,4188.205128,4426.666666,4225.128205,4217.948717,4464.615384,4193.333333,4624.102564,3976.923077,4033.846153
27,4371.794871,4500.000000,4511.282051,4229.230769,4424.615384,4180.512820,4421.025641,4220.512820,4211.282051,4458.461538,4188.205128,4615.384615,3972.307693,4023.076923
28,4375.384615,4503.589743,4513.333333,4235.384615,4430.769230,4182.051282,4421.538461,4220.512820,4213.846153,4467.692307,4187.692307,4619.487179,3974.871795,4023.589743
29,4383.076923,4514.871794,4517.435897,4249.230769,4453.333333,4188.717948,4425.641025,4224.615384,4219.487179,4473.846153,4197.435897,4628.717948,3982.564103,4031.794871
30,4374.358974,4512.820512,4514.358974,4246.153846,4456.410256,4189.230769,4425.128205,4223.076923,4217.435897,4467.179487,4195.384615,4622.564102,3980.512821,4027.692307
31,4369.230769,4510.769230,4512.307692,4243.076923,4450.256410,4187.692307,4426.666666,4218.974358,4214.871794,4468.717948,4190.769230,4615.897435,3981.025642,4022.564102
32,4374.358974,4515.384615,4513.333333,4246.153846,4443.076923,4183.589743,4424.102564,4210.769230,4205.641025,4463.076923,4191.794871,4619.487179,3983.076924,4027.692307
33,4374.871794,4510.769230,4514.871794,4243.076923,4430.256410,4181.025641,4417.435897,4206.153846,4197.948717,4451.794871,4187.692307,4622.051282,3979.487180,4031.794871
34,4378.974358,4509.230769,4517.435897,4241.025641,4436.410256,4187.179487,4422.564102,4218.461538,4214.358974,4467.692307,4191.794871,4627.692307,3986.666667,4031.794871
35,4387.179487,4515.384615,4522.051282,4245.128205,4454.871794,4195.384615,4436.923076,4237.948717,4236.410256,4494.871794,4211.794871,4637.948717,4003.076923,4041.025641
36,4385.641025,4517.435897,4520.512820,4245.641025,4454.871794,4194.871794,4435.897435,4241.538461,4234.358974,4491.794871,4215.384615,4636.923076,4001.025641,4047.692307
37,4378.974358,4513.846153,4513.333333,4242.051282,4446.666666,4191.794871,4425.641025,4231.794871,4226.153846,4474.358974,4202.051282,4629.230769,3989.230770,4038.461538
38,4378.461538,4512.820512,4510.769230,4240.512820,4448.717948,4190.769230,4429.230769,4231.282051,4231.282051,4481.025641,4206.153846,4631.794871,3993.333334,4030.256410
39,4381.025641,4513.846153,4512.307692,4241.538461,4450.256410,4191.794871,4435.897435,4240.000000,4237.435897,4500.000000,4217.435897,4633.333333,3999.487180,4034.871794
40,4378.461538,4514.358974,4511.794871,4244.102564,4450.256410,4194.358974,4432.820512,4243.076923,4232.820512,4496.410256,4210.256410,4627.179487,3995.897436,4037.435897
41,4372.307692,4508.717948,4509.743589,4240.512820,4446.666666,4190.256410,4428.205128,4234.871794,4222.564102,4475.897435,4193.846153,4626.153846,3985.641026,4029.230769
42,4370.256410,4503.076923,4509.230769,4234.871794,4439.487179,4182.564102,4427.179487,4227.179487,4215.897435,4465.128205,4187.179487,4626.153846,3975.897436,4024.102564
43,4373.846153,4505.641025,4509.230769,4234.871794,4442.564102,4183.076923,4428.205128,4225.641025,4216.410256,4467.179487,4192.307692,4622.051282,3975.384616,4025.641025
44,4382.051282,4510.256410,4513.333333,4240.512820,4451.282051,4189.230769,4430.769230,4227.179487,4219.487179,4470.256410,4203.589743,4626.666666,3989.230770,4033.846153
45,4391.794871,4510.256410,4521.025641,4244.102564,4451.794871,4193.846153,4430.769230,4225.641025,4216.923076,4474.358974,4211.282051,4638.974358,3998.974359,4046.666666
46,4389.230769,4503.076923,4522.051282,4238.974358,4444.102564,4190.256410,4424.102564,4221.025641,4211.282051,4472.307692,4203.589743,4639.487179,3987.692308,4047.692307
47,4381.538461,4499.487179,4519.487179,4236.923076,4441.538461,4183.076923,4424.102564,4226.153846,4217.435897,4468.717948,4198.974358,4635.384615,3980.512821,4041.538461
48,4384.615384,4507.692307,4520.512820,4242.564102,4443.076923,4182.564102,4432.307692,4236.410256,4225.128205,4474.358974,4206.666666,4634.871794,3989.230770,4040.512820
49,4386.153846,4509.743589,4518.974358,4242.564102,4441.538461,4184.615384,4432.307692,4234.871794,4221.538461,4479.487179,4205.128205,4634.358974,3988.717949,4037.435897
50,4378.974358,4505.128205,4513.846153,4242.051282,4438.461538,4181.538461,4425.128205,4225.128205,4214.871794,4474.358974,4196.410256,4630.769230,3974.871795,4033.333333
51,4376.923076,4507.692307,4512.820512,4248.717948,4440.512820,4181.538461,4425.128205,4226.153846,4216.923076,4470.256410,4200.512820,4627.179487,3972.307693,4036.410256
52,4383.076923,4517.435897,4515.384615,4254.871794,4451.794871,4192.820512,4434.871794,4238.974358,4226.666666,4481.025641,4212.307692,4629.230769,3984.615385,4039.487179
53,4385.128205,4518.974358,4516.923076,4253.846153,4465.128205,4198.461538,4442.564102,4242.051282,4230.256410,4486.153846,4210.256410,4632.307692,3987.692308,4036.923076
54,4383.589743,4516.410256,4516.923076,4252.307692,4463.589743,4195.384615,4446.666666,4237.948717,4226.153846,4473.846153,4198.974358,4631.794871,3981.025642,4035.384615
55,4384.102564,4515.384615,4515.897435,4249.230769,4450.769230,4195.897435,4451.282051,4242.564102,4227.179487,4473.333333,4198.974358,4630.769230,3977.948718,4035.897435
56,4383.076923,4512.307692,4511.794871,4240.512820,4445.128205,4195.897435,4451.282051,4243.589743,4225.641025,4480.000000,4206.666666,4630.256410,3977.948718,4032.820512
57,4381.025641,4506.153846,4511.794871,4237.948717,4444.102564,4193.846153,4448.205128,4233.333333,4216.410256,4472.307692,4205.128205,4629.230769,3981.538462,4033.333333
58,4381.538461,4503.589743,4515.384615,4244.615384,4435.897435,4191.794871,4449.743589,4232.307692,4219.487179,4464.615384,4196.923076,4631.282051,3985.641026,4038.461538
59,4382.564102,4506.666666,4514.871794,4246.153846,4438.461538,4192.307692,4452.820512,4242.051282,4230.256410,4469.743589,4198.461538,4634.358974,3980.000000,4037.948717
60,4383.589743,4508.205128,4513.333333,4246.153846,4453.846153,4199.487179,4454.871794,4250.256410,4232.820512,4477.948717,4209.743589,4636.410256,3975.384616,4035.897435
61,4380.512820,4506.666666,4512.820512,4248.205128,4454.358974,4205.641025,4453.333333,4251.282051,4232.820512,4482.051282,4206.153846,4632.820512,3981.538462,4038.461538
62,4376.410256,4505.641025,4511.794871,4245.641025,4450.256410,4202.051282,4450.769230,4248.205128,4233.846153,4483.076923,4194.871794,4624.102564,3983.076924,4040.000000
63,4382.051282,4508.205128,4511.794871,4245.128205,4453.333333,4196.923076,4448.717948,4247.692307,4233.846153,4482.564102,4201.025641,4626.153846,3975.897436,4038.461538
64,4386.153846,4511.794871,4513.333333,4249.743589,4447.692307,4193.846153,4448.717948,4253.333333,4237.435897,4484.102564,4214.358974,4633.333333,3975.897436,4038.461538
65,4383.589743,4512.307692,4515.384615,4249.230769,4445.128205,4196.410256,4451.282051,4258.974358,4245.641025,4491.794871,4217.435897,4636.410256,3987.692308,4044.102564
66,4386.153846,4511.282051,4519.487179,4249.230769,4457.948717,4202.051282,4454.871794,4256.923076,4249.230769,4496.410256,4217.948717,4640.512820,3996.923077,4050.256410
67,4388.205128,4506.666666,4517.948717,4248.205128,4459.487179,4198.974358,4453.333333,4249.230769,4244.615384,4491.794871,4220.000000,4644.102564,3995.384616,4049.230769
68,4377.948717,4493.846153,4511.794871,4238.974358,4445.641025,4192.307692,4445.128205,4243.589743,4234.358974,4491.282051,4215.897435,4638.461538,3988.205129,4044.102564
69,4375.897435,4493.846153,4513.333333,4236.410256,4446.153846,4191.794871,4436.410256,4235.384615,4224.615384,4488.717948,4208.205128,4632.307692,3980.512821,4042.051282
70,4383.589743,4512.820512,4515.897435,4246.666666,4458.461538,4190.769230,4433.846153,4226.153846,4218.974358,4475.897435,4204.615384,4633.846153,3972.820513,4041.025641
71,4382.564102,4521.025641,4510.256410,4252.820512,4456.410256,4185.641025,4434.358974,4226.153846,4217.948717,4469.230769,4203.076923,4634.358974,3968.205129,4037.435897
72,4383.589743,4519.487179,4511.282051,4254.871794,4446.666666,4183.589743,4435.897435,4236.410256,4226.153846,4481.538461,4206.153846,4633.846153,3976.410257,4039.487179
73,4392.820512,4528.205128,4516.923076,4258.461538,4451.794871,4185.641025,4437.435897,4243.589743,4238.461538,4492.307692,4215.897435,4634.871794,3987.692308,4045.128205
74,4393.333333,4530.769230,4516.923076,4259.487179,4462.051282,4189.230769,4438.461538,4242.051282,4238.974358,4488.717948,4215.384615,4632.307692,3982.564103,4042.564102
75,4385.128205,4518.461538,4512.820512,4253.333333,4460.512820,4193.333333,4438.974358,4238.974358,4232.307692,4486.666666,4203.076923,4628.717948,3973.333334,4037.948717
76,4384.102564,4512.307692,4512.307692,4247.692307,4459.487179,4195.897435,4437.948717,4242.564102,4231.282051,4488.205128,4201.025641,4629.230769,3975.897436,4038.461538
77,4387.179487,4514.358974,4515.897435,4247.692307,4466.153846,4197.948717,4441.025641,4247.692307,4234.871794,4489.230769,4208.205128,4630.256410,3977.435898,4044.102564
78,4386.153846,4514.871794,4518.461538,4252.307692,4460.512820,4199.487179,4447.692307,4244.615384,4240.000000,4492.820512,4206.666666,4626.153846,3972.307693,4045.128205
79,4383.589743,4516.923076,4514.358974,4254.358974,4448.205128,4198.461538,4447.692307,4237.948717,4241.538461,4494.358974,4204.615384,4622.051282,3971.282052,4040.000000
80,4388.205128,4526.153846,4512.820512,4258.461538,4455.384615,4200.000000,4444.615384,4238.461538,4236.923076,4489.743589,4210.256410,4620.000000,3976.923077,4040.512820
81,4394.871794,4535.384615,4520.000000,4262.051282,4470.769230,4205.641025,4449.230769,4242.051282,4235.384615,4490.256410,4215.897435,4624.615384,3983.076924,4047.179487
82,4391.794871,4528.205128,4517.948717,4254.871794,4470.769230,4202.564102,4450.769230,4244.102564,4241.538461,4496.410256,4213.333333,4627.692307,3980.512821,4045.128205
83,4382.564102,4516.410256,4506.153846,4247.692307,4464.615384,4195.384615,4445.128205,4245.128205,4245.641025,4495.897435,4208.205128,4620.512820,3975.897436,4035.897435
84,4382.051282,4520.512820,4507.179487,4250.769230,4467.179487,4198.461538,4446.666666,4250.256410,4248.205128,4497.948717,4212.307692,4616.923076,3975.384616,4035.897435
85,4386.666666,4525.128205,4512.307692,4251.794871,4460.000000,4199.487179,4446.153846,4251.282051,4246.666666,4496.410256,4218.461538,4619.487179,3973.333334,4036.923076
86,4385.641025,4520.512820,4511.794871,4250.256410,4448.717948,4194.871794,4441.538461,4244.102564,4237.948717,4484.102564,4212.820512,4616.923076,3971.794872,4036.410256
87,4386.153846,4523.076923,4510.256410,4252.820512,4458.974358,4200.512820,4444.615384,4242.564102,4237.948717,4483.076923,4205.128205,4616.923076,3976.410257,4041.025641
88,4388.205128,4531.794871,4510.256410,4253.846153,4474.358974,4207.179487,4448.717948,4246.153846,4245.128205,4494.358974,4204.615384,4622.051282,3980.000000,4042.051282
89,4387.692307,4530.769230,4509.230769,4248.717948,4474.358974,4202.564102,4442.564102,4241.538461,4241.025641,4494.871794,4203.589743,4617.948717,3974.871795,4037.435897
90,4386.153846,4527.692307,4507.179487,4244.615384,4469.230769,4197.948717,4438.974358,4236.410256,4233.846153,4482.564102,4199.487179,4613.846153,3972.820513,4037.435897
91,4385.128205,4529.230769,4503.589743,4245.128205,4471.794871,4200.512820,4442.051282,4233.846153,4232.307692,4472.307692,4202.051282,4618.974358,3972.307693,4042.051282
92,4378.461538,4523.076923,4500.000000,4241.538461,4462.051282,4192.820512,4435.897435,4222.564102,4221.025641,4467.179487,4201.538461,4617.435897,3961.538462,4038.461538
93,4370.256410,4512.820512,4501.025641,4231.794871,4443.076923,4183.589743,4426.666666,4214.871794,4210.256410,4466.666666,4191.282051,4607.179487,3950.256411,4028.717948
94,4371.282051,4512.820512,4503.076923,4227.692307,4445.128205,4186.153846,4428.205128,4225.128205,4218.974358,4471.794871,4191.282051,4607.179487,3951.282052,4026.666666
95,4378.461538,4518.461538,4503.076923,4230.769230,4462.051282,4191.794871,4435.897435,4234.358974,4230.256410,4481.025641,4204.102564,4614.358974,3963.589744,4033.846153
96,4384.102564,4521.538461,4507.179487,4236.410256,4467.179487,4191.282051,4436.923076,4231.794871,4232.820512,4489.230769,4208.717948,4615.897435,3972.307693,4040.512820
97,4384.102564,4521.538461,4510.769230,4238.974358,4452.820512,4185.641025,4432.307692,4229.230769,4232.307692,4481.025641,4202.051282,4613.846153,3971.282052,4040.000000
98,4385.641025,4521.025641,4511.282051,4238.974358,4447.179487,4182.564102,4434.358974,4231.282051,4231.282051,4471.282051,4204.615384,4617.435897,3970.256411,4042.051282
99,4388.205128,4521.025641,4511.282051,4236.410256,4460.000000,4184.615384,4438.974358,4234.871794,4232.820512,4481.025641,4212.307692,4622.564102,3976.410257,4047.179487
100,4386.153846,4521.538461,4511.282051,4233.333333,4463.076923,4184.615384,4437.435897,4234.358974,4232.820512,4491.282051,4211.282051,4621.538461,3974.358975,4047.692307
101,4383.076923,4520.000000,4509.230769,4234.358974,4453.846153,4184.102564,4433.333333,4231.794871,4229.743589,4483.589743,4204.615384,4616.410256,3963.589744,4042.051282
102,4383.589743,4518.974358,4508.717948,4236.923076,4455.384615,4187.179487,4433.846153,4230.256410,4228.205128,4473.846153,4200.000000,4615.384615,3960.000000,4035.897435
103,4386.153846,4523.076923,4512.307692,4240.512820,4459.487179,4186.153846,4437.948717,4227.179487,4226.153846,4475.384615,4201.025641,4617.948717,3965.128206,4037.948717
104,4394.358974,4526.666666,4515.897435,4246.666666,4455.897435,4182.564102,4435.384615,4226.153846,4228.205128,4483.589743,4206.666666,4622.051282,3974.871795,4049.230769
105,4403.076923,4531.282051,4520.512820,4252.820512,4468.205128,4191.282051,4438.461538,4237.435897,4239.487179,4496.923076,4222.051282,4627.692307,3984.102565,4060.000000
106,4404.102564,4535.384615,4521.538461,4253.333333,4480.512820,4202.051282,4450.256410,4247.179487,4249.230769,4505.128205,4231.282051,4630.769230,3985.128206,4058.461538
107,4399.487179,4531.282051,4517.435897,4251.282051,4461.538461,4196.923076,4451.794871,4240.512820,4245.641025,4498.461538,4222.051282,4628.205128,3986.153847,4051.282051
108,4396.410256,4528.717948,4515.897435,4252.820512,4450.256410,4192.307692,4444.102564,4237.948717,4245.128205,4491.282051,4217.948717,4624.102564,3989.230770,4051.282051
109,4394.358974,4532.307692,4516.923076,4253.846153,4466.153846,4195.897435,4443.076923,4244.102564,4245.641025,4491.794871,4227.692307,4622.564102,3981.025642,4051.282051
110,4389.743589,4530.769230,4511.794871,4249.230769,4472.307692,4192.307692,4438.461538,4235.897435,4235.897435,4486.666666,4224.102564,4619.487179,3970.256411,4045.128205
111,4385.128205,4527.692307,4504.615384,4244.615384,4467.179487,4185.128205,4429.230769,4224.102564,4228.717948,4477.435897,4211.282051,4617.948717,3972.307693,4041.538461
112,4384.615384,4528.205128,4506.666666,4244.102564,4460.512820,4180.000000,4426.666666,4221.025641,4227.692307,4478.974358,4212.307692,4618.974358,3973.333334,4041.538461
113,4382.564102,4522.564102,4508.205128,4243.589743,4441.538461,4175.384615,4423.076923,4217.948717,4222.564102,4481.025641,4213.333333,4616.923076,3963.076924,4035.897435
114,4380.512820,4520.512820,4501.538461,4244.615384,4435.384615,4174.358974,4419.487179,4215.384615,4219.487179,4474.358974,4206.153846,4610.769230,3960.512821,4032.307692
115,4382.051282,4524.615384,4503.589743,4248.205128,4457.948717,4183.076923,4427.692307,4218.974358,4223.589743,4475.384615,4204.102564,4609.743589,3967.179488,4038.974358
116,4384.102564,4521.538461,4510.769230,4247.179487,4467.179487,4188.717948,4433.846153,4221.538461,4222.051282,4475.384615,4203.076923,4615.897435,3962.564103,4043.076923
117,4390.256410,4524.102564,4512.820512,4248.717948,4457.435897,4185.128205,4429.230769,4219.487179,4215.384615,4466.666666,4201.538461,4619.487179,3956.410257,4043.589743
118,4397.435897,4536.410256,4517.948717,4257.435897,4463.076923,4188.205128,4431.794871,4218.461538,4221.538461,4468.717948,4203.589743,4618.461538,3963.076924,4046.153846
119,4391.794871,4536.923076,4518.974358,4255.384615,4469.743589,4191.282051,4436.410256,4220.000000,4229.743589,4478.974358,4202.051282,4614.358974,3965.641026,4046.666666
120,4376.410256,4522.564102,4505.641025,4239.487179,4448.205128,4181.025641,4427.692307,4217.435897,4224.102564,4470.256410,4191.282051,4607.692307,3949.230770,4036.410256
121,4374.871794,4517.435897,4498.461538,4238.461538,4436.410256,4173.846153,4422.051282,4216.410256,4222.051282,4462.051282,4191.794871,4605.128205,3944.615385,4030.256410
122,4384.615384,4522.051282,4507.692307,4248.205128,4453.846153,4183.076923,4430.256410,4220.512820,4229.230769,4473.846153,4204.102564,4609.743589,3959.487180,4036.410256
123,4383.076923,4521.538461,4510.769230,4245.641025,4462.564102,4188.717948,4433.333333,4223.076923,4230.256410,4480.512820,4202.051282,4610.769230,3964.102565,4037.435897
124,4376.923076,4520.512820,4504.615384,4243.589743,4463.076923,4189.743589,4432.307692,4225.128205,4227.692307,4477.435897,4196.923076,4610.256410,3958.461539,4034.871794
125,4375.897435,4522.564102,4503.076923,4245.641025,4465.128205,4192.307692,4435.897435,4226.153846,4228.205128,4474.871794,4201.025641,4611.282051,3958.461539,4035.384615
126,4371.282051,4515.897435,4502.564102,4240.000000,4448.717948,4185.641025,4430.769230,4216.923076,4220.512820,4466.666666,4195.897435,4607.692307,3957.435898,4028.717948
127,4366.153846,4503.076923,4498.461538,4233.846153,4430.769230,4174.871794,4420.512820,4205.641025,4209.743589,4459.487179,4180.512820,4600.512820,3954.358975,4017.435897
128,4368.717948,4502.564102,4498.461538,4234.358974,4445.128205,4174.871794,4420.000000,4201.025641,4204.615384,4460.000000,4176.923076,4600.512820,3957.435898,4018.974358
129,4372.307692,4511.282051,4502.051282,4236.923076,4460.512820,4178.461538,4420.000000,4195.384615,4200.512820,4459.487179,4184.102564,4605.128205,3961.025642,4026.153846
130,4371.794871,4512.820512,4504.102564,4238.461538,4451.282051,4176.923076,4415.897435,4190.769230,4196.410256,4455.897435,4185.641025,4603.589743,3960.512821,4026.666666
131,4369.743589,4510.256410,4501.538461,4238.461538,4443.076923,4173.846153,4415.897435,4195.897435,4201.025641,4456.410256,4178.461538,4600.512820,3961.538462,4022.051282
132,4362.564102,4510.256410,4492.307692,4236.410256,4440.512820,4171.794871,4419.487179,4204.102564,4213.846153,4461.538461,4175.897435,4597.948717,3963.589744,4015.897435
133,4357.948717,4509.743589,4486.153846,4235.384615,4438.974358,4173.333333,4421.025641,4208.205128,4221.538461,4470.256410,4182.564102,4596.410256,3965.641026,4013.333333
134,4360.512820,4507.179487,4490.256410,4232.820512,4445.641025,4175.384615,4422.564102,4206.666666,4217.435897,4474.871794,4184.102564,4598.974358,3970.256411,4015.897435
135,4360.512820,4506.666666,4493.846153,4229.743589,4450.769230,4175.897435,4421.538461,4203.076923,4215.384615,4465.128205,4181.025641,4603.589743,3973.846154,4016.923076
136,4358.461538,4510.256410,4493.333333,4232.820512,4450.769230,4177.948717,4420.000000,4204.102564,4218.461538,4460.000000,4184.615384,4606.153846,3974.358975,4015.897435
137,4362.051282,4513.846153,4494.871794,4241.538461,4455.897435,4182.564102,4422.051282,4209.230769,4222.564102,4475.897435,4193.333333,4609.743589,3977.948718,4019.487179
138,4372.307692,4520.512820,4503.076923,4248.205128,4468.205128,4188.717948,4431.794871,4218.974358,4232.307692,4491.794871,4202.564102,4618.461538,3991.282052,4027.692307
139,4381.538461,4528.717948,4510.769230,4250.769230,4468.205128,4192.820512,4438.461538,4224.615384,4238.461538,4487.692307,4205.641025,4623.589743,3997.435898,4034.358974
140,4381.025641,4526.666666,4512.820512,4250.256410,4453.333333,4187.692307,4428.717948,4213.333333,4225.641025,4476.410256,4195.384615,4622.564102,3983.076924,4033.846153
141,4377.948717,4518.974358,4509.743589,4248.717948,4447.692307,4180.000000,4419.487179,4198.974358,4211.794871,4474.358974,4190.256410,4624.615384,3974.358975,4033.846153
142,4377.948717,4519.487179,4503.589743,4248.205128,4455.897435,4177.948717,4422.564102,4201.025641,4215.897435,4475.897435,4197.435897,4623.589743,3981.538462,4033.333333
143,4374.358974,4521.025641,4497.948717,4248.205128,4458.461538,4176.410256,4422.564102,4206.666666,4220.512820,4474.871794,4195.897435,4616.923076,3984.102565,4026.666666
144,4368.717948,4516.410256,4495.384615,4246.153846,4453.846153,4173.846153,4417.948717,4208.205128,4222.051282,4476.410256,4192.820512,4614.358974,3981.025642,4025.641025
145,4368.717948,4516.410256,4494.358974,4244.102564,4450.769230,4173.333333,4419.487179,4210.769230,4228.717948,4482.051282,4203.076923,4617.948717,3983.076924,4031.794871
146,4373.333333,4517.948717,4496.410256,4244.102564,4448.205128,4174.871794,4422.564102,4214.871794,4230.769230,4489.230769,4210.256410,4621.538461,3987.179488,4032.307692
147,4382.051282,4521.538461,4503.589743,4246.666666,4453.846153,4176.923076,4425.641025,4222.564102,4235.384615,4501.538461,4213.333333,4632.307692,3997.948718,4038.461538
148,4386.666666,4524.615384,4506.153846,4248.717948,4464.102564,4175.897435,4426.666666,4227.692307,4245.641025,4509.230769,4216.923076,4636.923076,4005.641025,4048.717948
149,4378.461538,4522.051282,4500.512820,4246.153846,4455.384615,4171.794871,4425.641025,4224.615384,4242.051282,4496.410256,4207.692307,4624.102564,3991.794872,4041.025641
150,4371.282051,4515.384615,4499.487179,4242.564102,4446.153846,4172.820512,4426.153846,4222.051282,4231.282051,4478.974358,4200.000000,4621.025641,3976.410257,4028.205128
151,4372.307692,4512.820512,4501.538461,4241.538461,4453.846153,4175.384615,4427.692307,4220.512820,4227.179487,4473.333333,4199.487179,4628.205128,3975.897436,4026.153846
152,4374.358974,4515.384615,4497.948717,4243.589743,4455.897435,4172.820512,4424.102564,4213.846153,4221.538461,4472.307692,4191.282051,4624.615384,3976.923077,4027.179487
153,4375.384615,4515.384615,4497.435897,4245.128205,4449.230769,4169.230769,4421.538461,4206.666666,4214.358974,4471.282051,4186.666666,4620.000000,3974.358975,4025.128205
154,4373.846153,4513.846153,4500.000000,4244.102564,4449.743589,4166.666666,4422.564102,4205.641025,4212.307692,4475.897435,4191.794871,4621.025641,3971.282052,4024.615384
155,4369.743589,4516.410256,4499.487179,4245.641025,4454.358974,4168.205128,4424.615384,4209.743589,4215.897435,4477.435897,4190.769230,4622.051282,3970.256411,4024.102564
156,4374.871794,4520.512820,4497.948717,4249.230769,4461.538461,4174.871794,4430.769230,4221.025641,4226.153846,4475.384615,4195.897435,4624.615384,3972.307693,4027.179487
157,4383.589743,4520.512820,4502.051282,4249.230769,4467.179487,4181.025641,4435.897435,4230.769230,4235.384615,4483.589743,4205.128205,4624.615384,3979.487180,4032.820512
158,4381.025641,4520.000000,4508.717948,4247.692307,4463.589743,4178.974358,4433.846153,4228.717948,4232.820512,4490.769230,4196.923076,4621.025641,3979.487180,4032.307692
159,4378.461538,4523.076923,4509.230769,4252.820512,4461.538461,4179.487179,4432.307692,4224.102564,4230.256410,4486.153846,4190.769230,4623.589743,3971.282052,4032.307692
160,4381.025641,4525.641025,4505.641025,4253.333333,4457.948717,4178.974358,4430.769230,4225.641025,4228.717948,4480.512820,4199.487179,4626.666666,3968.717949,4034.871794
161,4375.384615,4520.512820,4503.076923,4245.128205,4446.153846,4170.256410,4424.102564,4222.564102,4223.076923,4476.923076,4198.461538,4621.025641,3967.692308,4030.256410
162,4371.794871,4514.871794,4503.076923,4244.615384,4448.717948,4170.769230,4424.102564,4221.538461,4225.641025,4478.461538,4194.871794,4619.487179,3968.205129,4028.205128
163,4376.923076,4515.897435,4502.051282,4251.794871,4462.051282,4179.487179,4432.820512,4230.256410,4234.358974,4485.128205,4197.948717,4621.538461,3972.307693,4032.307692
164,4374.358974,4515.897435,4498.974358,4248.205128,4451.794871,4174.871794,4431.794871,4228.205128,4232.307692,4484.615384,4195.897435,4615.897435,3971.794872,4031.282051
165,4372.307692,4513.333333,4496.410256,4241.025641,4436.410256,4165.641025,4422.564102,4213.846153,4222.564102,4476.410256,4195.384615,4614.358974,3970.769231,4030.769230
166,4380.512820,4514.871794,4498.974358,4241.538461,4444.102564,4170.769230,4422.564102,4211.794871,4217.435897,4474.358974,4203.589743,4624.615384,3978.461539,4040.000000
167,4386.153846,4521.538461,4507.692307,4245.128205,4453.846153,4178.974358,4427.692307,4223.589743,4225.128205,4482.051282,4206.666666,4634.358974,3984.615385,4047.692307
168,4389.230769,4526.153846,4513.846153,4251.794871,4456.410256,4178.461538,4431.282051,4232.307692,4238.461538,4493.846153,4205.641025,4634.871794,3984.102565,4046.666666
169,4392.820512,4530.256410,4515.384615,4260.512820,4463.589743,4180.000000,4434.871794,4236.923076,4244.615384,4500.000000,4211.282051,4635.897435,3986.666667,4047.179487
170,4388.205128,4531.794871,4512.820512,4261.025641,4461.025641,4183.076923,4436.923076,4241.538461,4242.564102,4496.923076,4220.512820,4637.948717,3991.282052,4051.282051
171,4381.025641,4527.179487,4509.230769,4252.820512,4449.230769,4179.487179,4434.358974,4239.487179,4238.974358,4491.282051,4217.948717,4634.358974,3990.256411,4050.256410
172,4387.692307,4528.205128,4509.743589,4257.948717,4457.948717,4178.461538,4430.256410,4232.307692,4238.461538,4492.820512,4210.769230,4631.794871,3989.743590,4049.743589
173,4391.282051,4534.358974,4507.179487,4265.641025,4465.128205,4181.025641,4425.128205,4226.666666,4233.333333,4493.333333,4209.743589,4631.794871,3987.179488,4047.692307
174,4382.051282,4532.820512,4500.512820,4258.461538,4450.769230,4174.871794,4417.948717,4221.538461,4224.615384,4484.102564,4204.102564,4628.205128,3974.871795,4036.923076
175,4378.974358,4528.717948,4496.923076,4254.358974,4452.820512,4173.846153,4418.974358,4216.410256,4223.076923,4479.487179,4195.897435,4622.051282,3971.794872,4032.307692
176,4384.102564,4529.743589,4497.435897,4257.435897,4461.538461,4181.025641,4423.076923,4216.410256,4222.564102,4481.025641,4195.897435,4619.487179,3977.948718,4037.435897
177,4383.589743,4532.307692,4497.948717,4257.435897,4446.666666,4177.948717,4420.000000,4214.871794,4214.358974,4475.384615,4200.512820,4618.974358,3973.846154,4040.512820
178,4384.102564,4531.794871,4501.025641,4257.948717,4445.128205,4173.333333,4418.974358,4207.179487,4212.307692,4472.307692,4202.564102,4623.076923,3973.333334,4041.025641
179,4388.717948,4529.230769,4504.102564,4261.025641,4458.974358,4176.410256,4421.025641,4205.641025,4217.948717,4473.846153,4203.076923,4627.692307,3983.076924,4043.076923
180,4389.743589,4528.717948,4504.615384,4261.025641,4460.000000,4176.923076,4420.512820,4210.769230,4218.974358,4472.307692,4208.717948,4629.743589,3985.128206,4044.615384
181,4389.230769,4532.820512,4509.743589,4261.538461,4463.076923,4177.948717,4421.025641,4210.769230,4219.487179,4473.846153,4209.743589,4631.282051,3976.923077,4047.692307
182,4384.615384,4528.717948,4510.256410,4258.974358,4460.512820,4178.461538,4424.102564,4205.641025,4217.948717,4476.410256,4194.871794,4625.641025,3969.743590,4042.051282
183,4378.461538,4515.897435,4498.461538,4251.794871,4440.000000,4171.794871,4422.051282,4205.641025,4210.769230,4470.769230,4180.512820,4615.897435,3960.000000,4028.717948
184,4376.923076,4512.820512,4493.333333,4249.230769,4442.051282,4172.307692,4421.025641,4211.794871,4211.282051,4466.666666,4180.000000,4611.282051,3948.717949,4025.128205
185,4380.512820,4518.974358,4500.000000,4254.358974,4466.666666,4183.076923,4428.205128,4223.076923,4224.615384,4473.333333,4188.205128,4614.358974,3955.384616,4033.333333
186,4385.641025,4523.589743,4506.153846,4258.461538,4462.564102,4184.102564,4428.205128,4225.128205,4228.717948,4476.410256,4196.923076,4621.025641,3970.769231,4044.615384
187,4387.692307,4522.051282,4504.615384,4256.410256,4445.641025,4178.974358,4424.102564,4217.435897,4224.615384,4478.461538,4202.564102,4625.128205,3975.384616,4046.153846
188,4384.615384,4522.051282,4504.102564,4257.435897,4454.358974,4181.025641,4427.692307,4215.384615,4227.179487,4483.589743,4200.000000,4623.076923,3973.846154,4038.974358
189,4383.589743,4526.666666,4509.743589,4260.000000,4461.025641,4180.512820,4427.692307,4216.410256,4224.102564,4482.564102,4196.923076,4624.102564,3973.333334,4040.000000
190,4391.794871,4530.769230,4512.820512,4261.538461,4454.871794,4176.410256,4421.538461,4212.307692,4214.871794,4477.948717,4199.487179,4631.282051,3973.846154,4051.282051
191,4395.897435,4531.794871,4512.820512,4263.076923,4456.410256,4179.487179,4423.076923,4211.794871,4215.897435,4469.743589,4203.076923,4633.846153,3976.923077,4056.410256
192,4391.282051,4525.128205,4511.794871,4262.051282,4456.410256,4180.000000,4423.076923,4210.256410,4218.974358,4464.102564,4200.512820,4628.205128,3974.358975,4049.743589
193,4383.076923,4516.410256,4503.076923,4255.897435,4451.282051,4172.307692,4412.820512,4200.000000,4210.769230,4465.128205,4196.410256,4620.000000,3963.076924,4040.000000
194,4378.974358,4516.410256,4497.435897,4251.282051,4455.384615,4171.794871,4413.846153,4198.974358,4209.230769,4471.794871,4202.051282,4615.897435,3962.564103,4038.461538
195,4384.615384,4521.538461,4506.153846,4253.333333,4453.333333,4176.923076,4422.564102,4209.743589,4218.974358,4481.025641,4208.717948,4620.000000,3974.358975,4044.615384
196,4393.333333,4525.128205,4514.871794,4260.000000,4448.205128,4176.923076,4424.102564,4216.410256,4225.128205,4487.692307,4214.358974,4630.256410,3977.435898,4051.794871
197,4394.358974,4527.692307,4514.358974,4265.128205,4459.487179,4178.461538,4428.717948,4218.974358,4226.666666,4487.179487,4217.948717,4634.871794,3977.435898,4054.358974
198,4386.666666,4524.615384,4506.153846,4263.076923,4464.102564,4179.487179,4431.794871,4220.512820,4224.102564,4477.435897,4209.230769,4625.641025,3976.410257,4046.666666
199,4384.102564,4516.923076,4498.461538,4258.461538,4452.307692,4176.410256,4426.153846,4217.948717,4217.435897,4470.769230,4198.461538,4614.358974,3968.717949,4037.948717
200,4383.076923,4514.871794,4499.487179,4254.358974,4449.230769,4171.794871,4418.461538,4210.769230,4210.769230,4465.128205,4194.871794,4611.282051,3958.461539,4037.435897
201,4378.974358,4513.333333,4502.564102,4250.256410,4448.205128,4168.717948,4415.897435,4198.974358,4202.564102,4456.410256,4187.692307,4612.307692,3953.333334,4036.410256
202,4378.974358,4512.307692,4501.025641,4254.358974,4442.564102,4171.282051,4414.358974,4189.230769,4193.333333,4450.769230,4181.025641,4611.794871,3952.307693,4033.333333
203,4383.076923,4517.435897,4502.051282,4260.512820,4451.282051,4176.923076,4415.384615,4195.897435,4196.923076,4455.897435,4191.794871,4613.333333,3956.410257,4037.948717
204,4383.589743,4517.435897,4506.666666,4260.512820,4458.974358,4176.410256,4416.410256,4206.666666,4210.256410,4467.179487,4194.871794,4616.410256,3958.974359,4040.512820
205,4382.051282,4512.307692,4506.153846,4255.897435,4454.871794,4175.897435,4417.435897,4211.282051,4215.897435,4471.282051,4183.589743,4615.384615,3954.871795,4037.435897
206,4380.512820,4513.333333,4501.538461,4251.794871,4458.974358,4180.512820,4421.538461,4212.307692,4212.307692,4471.282051,4185.641025,4611.282051,3950.769231,4034.358974
207,4373.846153,4511.794871,4496.923076,4249.230769,4456.410256,4178.461538,4421.538461,4207.692307,4207.179487,4464.615384,4188.717948,4605.641025,3947.692308,4027.692307
208,4368.717948,4503.076923,4493.846153,4248.205128,4435.897435,4170.256410,4416.410256,4202.564102,4207.179487,4452.820512,4182.051282,4601.025641,3946.153847,4024.102564
209,4372.820512,4504.615384,4496.923076,4249.743589,4438.461538,4172.307692,4417.435897,4205.128205,4213.333333,4462.564102,4187.692307,4605.641025,3951.282052,4028.717948
210,4378.974358,4510.769230,4502.051282,4253.846153,4460.000000,4177.435897,4425.641025,4212.820512,4216.923076,4480.000000,4200.512820,4613.333333,3956.923077,4035.897435
211,4383.076923,4509.230769,4509.230769,4255.897435,4458.974358,4175.384615,4430.256410,4215.384615,4214.358974,4473.846153,4197.435897,4616.410256,3954.871795,4038.974358
212,4382.564102,4508.717948,4512.307692,4253.846153,4446.666666,4171.794871,4426.666666,4214.871794,4211.282051,4456.410256,4189.230769,4615.384615,3949.743590,4033.846153
213,4378.974358,4509.743589,4505.641025,4255.897435,4444.102564,4173.333333,4423.076923,4214.871794,4211.282051,4459.487179,4187.179487,4611.794871,3947.692308,4028.205128
214,4379.487179,4510.256410,4503.076923,4260.512820,4446.666666,4176.410256,4422.564102,4210.256410,4209.230769,4464.615384,4185.641025,4609.230769,3946.666667,4032.307692
215,4381.538461,4512.820512,4508.717948,4257.948717,4456.923076,4178.974358,4423.589743,4202.051282,4204.102564,4458.974358,4187.692307,4610.256410,3948.205129,4035.897435
216,4379.487179,4511.282051,4505.641025,4256.410256,4463.076923,4178.974358,4422.564102,4200.512820,4203.589743,4464.102564,4194.358974,4609.230769,3952.820513,4033.846153
217,4371.282051,4500.000000,4495.384615,4249.743589,4447.692307,4173.333333,4418.974358,4205.128205,4206.153846,4471.794871,4192.820512,4603.589743,3949.230770,4027.179487
218,4369.230769,4496.410256,4496.410256,4243.076923,4438.974358,4172.820512,4422.051282,4211.282051,4209.230769,4470.769230,4189.743589,4601.538461,3948.717949,4023.589743
219,4375.897435,4503.589743,4501.538461,4247.692307,4454.871794,4181.025641,4433.846153,4223.589743,4218.461538,4474.358974,4194.358974,4608.717948,3956.923077,4029.743589
220,4375.897435,4502.051282,4498.461538,4250.256410,4458.974358,4181.025641,4435.897435,4230.769230,4225.128205,4478.461538,4196.923076,4612.307692,3952.820513,4033.333333
221,4370.769230,4497.435897,4496.923076,4244.615384,4446.666666,4177.435897,4431.282051,4228.717948,4223.589743,4473.846153,4196.923076,4607.692307,3945.641026,4028.205128
222,4373.846153,4503.076923,4499.487179,4245.641025,4444.102564,4180.000000,4433.846153,4227.692307,4222.051282,4475.384615,4202.564102,4609.743589,3956.410257,4027.179487
223,4375.384615,4505.128205,4499.487179,4248.717948,4447.179487,4178.461538,4432.307692,4222.051282,4219.487179,4480.000000,4198.974358,4612.820512,3961.025642,4032.307692
224,4371.794871,4498.974358,4500.000000,4245.641025,4451.282051,4176.410256,4424.102564,4210.769230,4214.358974,4471.794871,4190.769230,4609.230769,3951.282052,4034.871794
225,4376.410256,4501.538461,4504.102564,4249.743589,4458.461538,4179.487179,4425.128205,4210.256410,4215.897435,4470.256410,4196.923076,4611.282051,3953.846154,4036.410256
226,4385.641025,4513.333333,4504.102564,4259.487179,4460.000000,4183.076923,4431.794871,4218.974358,4221.538461,4488.717948,4204.615384,4621.538461,3968.205129,4040.000000
227,4387.692307,4516.923076,4506.153846,4261.025641,4457.948717,4185.641025,4432.307692,4219.487179,4219.487179,4503.076923,4204.102564,4620.000000,3975.384616,4044.615384
228,4390.256410,4516.923076,4517.435897,4263.076923,4467.692307,4187.179487,4428.717948,4214.871794,4214.871794,4497.948717,4204.615384,4617.948717,3976.923077,4050.256410
229,4395.384615,4521.025641,4523.076923,4268.717948,4471.282051,4183.589743,4425.641025,4213.846153,4213.846153,4490.769230,4208.205128,4625.128205,3978.461539,4050.769230
230,4389.230769,4516.410256,4514.358974,4260.512820,4456.410256,4177.435897,4419.487179,4210.256410,4206.666666,4489.743589,4204.102564,4620.000000,3973.333334,4041.538461
231,4373.333333,4501.538461,4503.076923,4245.128205,4447.179487,4169.230769,4410.769230,4206.666666,4196.923076,4483.589743,4191.794871,4604.615384,3965.641026,4029.743589
232,4363.589743,4494.871794,4498.974358,4244.102564,4448.717948,4166.153846,4409.743589,4205.641025,4198.461538,4476.923076,4181.538461,4600.512820,3968.205129,4025.641025
233,4369.230769,4500.512820,4502.051282,4250.256410,4445.641025,4172.307692,4417.435897,4208.205128,4208.717948,4480.512820,4183.076923,4602.564102,3976.410257,4026.666666
234,4374.358974,4504.615384,4505.128205,4251.794871,4447.179487,4177.948717,4422.564102,4211.794871,4214.358974,4491.794871,4193.846153,4604.102564,3979.487180,4026.666666
235,4369.743589,4502.564102,4501.025641,4249.743589,4453.846153,4176.410256,4420.000000,4210.256410,4214.358974,4491.282051,4198.461538,4605.641025,3980.512821,4025.641025
236,4369.743589,4503.076923,4498.974358,4247.692307,4459.487179,4177.435897,4424.615384,4210.256410,4217.435897,4485.128205,4192.307692,4606.153846,3985.641026,4020.512820
237,4373.333333,4504.102564,4502.051282,4247.692307,4459.487179,4180.512820,4428.717948,4214.871794,4222.564102,4489.743589,4185.641025,4606.153846,3983.589744,4017.948717
238,4369.230769,4497.948717,4499.487179,4250.769230,4444.615384,4175.384615,4423.076923,4214.871794,4217.948717,4487.179487,4185.641025,4605.641025,3975.897436,4018.461538
239,4367.692307,4494.358974,4498.461538,4250.769230,4433.333333,4171.794871,4421.025641,4205.641025,4205.128205,4475.897435,4185.641025,4605.128205,3976.923077,4017.435897
240,4373.333333,4501.025641,4507.179487,4248.717948,4448.205128,4176.923076,4425.128205,4200.512820,4203.076923,4473.846153,4184.615384,4609.230769,3984.102565,4021.538461
241,4374.358974,4506.153846,4509.743589,4250.769230,4464.615384,4180.000000,4426.666666,4206.666666,4213.333333,4481.025641,4192.307692,4615.897435,3988.717949,4026.666666
242,4369.230769,4502.051282,4498.974358,4250.256410,4458.974358,4177.948717,4425.128205,4213.846153,4218.461538,4487.692307,4197.435897,4616.923076,3987.179488,4025.128205
243,4363.076923,4493.846153,4494.358974,4244.102564,4443.589743,4173.333333,4421.538461,4209.230769,4212.820512,4488.205128,4190.769230,4611.282051,3982.051283,4018.461538
244,4356.923076,4487.179487,4493.846153,4241.538461,4433.333333,4167.179487,4416.923076,4196.410256,4206.666666,4477.435897,4180.512820,4605.641025,3972.820513,4012.820512
245,4358.974358,4488.717948,4494.358974,4243.589743,4442.051282,4167.692307,4417.435897,4197.435897,4209.230769,4468.205128,4176.923076,4606.153846,3970.256411,4012.820512
246,4374.358974,4503.589743,4505.128205,4251.794871,4463.076923,4175.384615,4424.102564,4212.820512,4218.461538,4482.564102,4186.666666,4620.000000,3983.589744,4025.128205
247,4387.692307,4517.948717,4518.461538,4259.487179,4464.102564,4179.487179,4426.666666,4220.512820,4227.692307,4497.948717,4203.076923,4633.846153,3996.410257,4040.000000
248,4381.025641,4513.333333,4515.897435,4253.333333,4449.230769,4176.410256,4422.564102,4213.846153,4220.000000,4484.102564,4196.923076,4629.230769,3986.153847,4035.384615
249,4368.205128,4502.051282,4503.076923,4246.666666,4446.666666,4173.333333,4418.461538,4206.666666,4204.615384,4467.179487,4178.974358,4617.435897,3970.769231,4021.025641
250,4371.794871,4507.179487,4504.102564,4255.897435,4450.256410,4173.333333,4418.974358,4208.717948,4203.589743,4475.384615,4182.564102,4620.000000,3977.435898,4022.564102
251,4383.076923,4518.461538,4513.846153,4265.128205,4454.358974,4180.512820,4425.128205,4212.307692,4208.717948,4483.589743,4191.282051,4625.641025,3984.615385,4031.794871
252,4383.076923,4521.025641,4515.384615,4262.051282,4457.435897,4187.179487,4431.282051,4211.282051,4209.743589,4476.410256,4187.179487,4625.128205,3980.512821,4034.871794
253,4375.897435,4510.256410,4510.769230,4253.846153,4450.256410,4182.051282,4429.230769,4211.282051,4211.794871,4476.410256,4187.692307,4626.153846,3978.461539,4033.333333
254,4372.820512,4496.410256,4505.641025,4246.666666,4442.564102,4174.358974,4424.102564,4218.974358,4218.461538,4484.615384,4193.333333,4626.666666,3979.487180,4031.794871
255,4372.307692,4494.871794,4501.538461,4245.641025,4445.128205,4178.461538,4427.692307,4224.615384,4222.564102,4483.076923,4191.794871,4625.641025,3978.974359,4030.256410
256,4372.820512,4501.538461,4501.538461,4250.256410,4450.769230,4185.128205,4433.846153,4223.076923,4225.128205,4487.179487,4190.256410,4626.666666,3981.538462,4026.153846
257,4372.820512,4507.692307,4501.538461,4252.307692,4450.256410,4184.615384,4433.333333,4226.153846,4230.769230,4507.692307,4194.871794,4622.564102,3986.153847,4021.025641
258,4371.282051,4509.230769,4496.410256,4252.820512,4449.230769,4185.128205,4430.256410,4229.230769,4232.307692,4505.641025,4197.948717,4614.871794,3987.179488,4022.051282
259,4371.794871,4510.256410,4496.410256,4253.333333,4453.333333,4184.615384,4426.666666,4220.512820,4223.076923,4475.897435,4186.153846,4612.820512,3984.615385,4023.589743
