,AF3,F7,F3,FC5,T7,P7,O1,O2,P8,T8,FC6,F4,F8,AF4
0,4392.307692,4534.358974,4544.615384,4268.717948,4507.692307,4217.948717,4469.743589,4224.102564,4247.692307,4518.461538,4221.025641,4650.769230,4003.589743,4070.769230
1,4393.333333,4532.820512,4549.743589,4275.384615,4508.205128,4217.948717,4471.794871,4222.564102,4255.384615,4515.384615,4220.000000,4647.692307,4005.641025,4070.256410
2,4390.769230,4531.282051,4545.128205,4273.333333,4507.692307,4216.923076,4464.615384,4221.538461,4248.717948,4510.769230,4219.487179,4644.102564,4003.076923,4067.692307
3,4391.794871,4534.358974,4542.051282,4265.641025,4506.666666,4215.897435,4467.179487,4226.153846,4242.564102,4517.435897,4222.051282,4647.179487,4006.666666,4070.769230
4,4395.897435,4533.333333,4551.282051,4265.128205,4507.692307,4215.897435,4472.820512,4228.205128,4247.692307,4523.589743,4225.128205,4651.282051,4013.333333,4078.461538
5,4395.384615,4528.205128,4555.384615,4273.333333,4508.205128,4221.025641,4469.743589,4223.589743,4252.820512,4519.487179,4219.487179,4651.282051,4014.871794,4078.461538
6,4393.846153,4532.307692,4553.846153,4277.435897,4507.692307,4224.102564,4467.179487,4223.589743,4247.179487,4517.435897,4216.923076,4649.743589,4016.410256,4073.846153
7,4394.358974,4533.846153,4555.384615,4270.769230,4508.205128,4221.025641,4465.641025,4221.538461,4238.974358,4512.307692,4213.333333,4648.717948,4021.025641,4074.871794
8,4392.820512,4518.974358,4554.358974,4263.076923,4505.641025,4215.897435,4456.923076,4213.333333,4236.410256,4502.564102,4197.435897,4645.641025,4016.923076,4074.358974
9,4391.282051,4513.333333,4552.820512,4265.641025,4498.461538,4207.179487,4453.846153,4216.410256,4240.000000,4504.615384,4197.948717,4645.641025,4009.230769,4068.717948
10,4390.769230,4521.538461,4556.410256,4267.179487,4497.948717,4206.153846,4455.384615,4219.487179,4237.948717,4508.717948,4214.358974,4648.717948,4005.128205,4066.666666
11,4391.282051,4516.923076,4556.923076,4261.538461,4501.538461,4213.333333,4456.923076,4214.871794,4233.333333,4504.102564,4214.358974,4648.717948,4010.769230,4070.256410
12,4392.307692,4512.820512,4556.923076,4263.589743,4497.435897,4211.794871,4460.512820,4212.307692,4235.897435,4496.923076,4205.128205,4645.641025,4010.769230,4068.717948
13,4384.615384,4515.897435,4554.871794,4261.538461,4491.794871,4204.102564,4457.435897,4206.153846,4226.666666,4490.256410,4195.897435,4638.974358,4000.000000,4058.974358
14,4380.512820,4511.282051,4554.358974,4254.358974,4493.333333,4204.615384,4455.897435,4200.000000,4212.307692,4482.564102,4187.179487,4638.461538,3999.487180,4056.923076
15,4389.743589,4509.230769,4555.897435,4257.435897,4494.358974,4206.153846,4460.000000,4203.076923,4217.435897,4487.692307,4190.769230,4645.128205,4005.641025,4065.641025
16,4391.794871,4515.897435,4555.384615,4262.051282,4488.205128,4201.538461,4457.435897,4210.256410,4229.743589,4497.435897,4189.230769,4645.128205,4003.589743,4067.692307
17,4388.717948,4520.512820,4553.846153,4262.564102,4489.743589,4205.128205,4455.384615,4214.871794,4233.333333,4496.410256,4186.666666,4642.564102,4007.179487,4065.641025
18,4394.358974,4518.974358,4555.897435,4265.641025,4500.000000,4212.820512,4460.512820,4217.435897,4231.282051,4495.384615,4196.923076,4647.692307,4015.897435,4069.743589
19,4394.871794,4518.461538,4555.384615,4258.974358,4499.487179,4208.717948,4456.410256,4213.333333,4231.282051,4497.435897,4191.794871,4646.666666,4010.256410,4069.743589
20,4388.717948,4514.871794,4549.743589,4249.230769,4491.794871,4200.512820,4447.692307,4208.717948,4233.846153,4497.948717,4178.974358,4641.025641,4002.564102,4063.076923
21,4394.358974,4516.923076,4555.384615,4257.435897,4492.820512,4204.615384,4460.000000,4218.461538,4238.974358,4503.076923,4198.974358,4648.205128,4016.410256,4067.179487
22,4403.076923,4525.128205,4567.692307,4270.256410,4498.461538,4214.871794,4474.358974,4233.333333,4246.666666,4515.384615,4218.974358,4658.461538,4029.743589,4078.974358
23,4402.564102,4524.615384,4565.128205,4268.205128,4503.589743,4216.923076,4470.769230,4232.820512,4250.769230,4517.435897,4212.307692,4658.974358,4021.025641,4078.461538
24,4399.487179,4520.512820,4558.461538,4258.461538,4501.025641,4210.769230,4460.512820,4221.025641,4243.589743,4509.230769,4204.615384,4652.820512,4012.307692,4069.743589
25,4396.923076,4516.923076,4564.102564,4254.871794,4495.384615,4210.256410,4461.025641,4219.487179,4235.897435,4511.282051,4206.666666,4653.333333,4020.000000,4073.333333
26,4401.538461,4517.435897,4571.794871,4263.076923,4501.025641,4215.897435,4469.743589,4230.256410,4245.128205,4516.923076,4208.717948,4663.589743,4025.128205,4084.102564
27,4408.717948,4523.589743,4570.769230,4270.256410,4505.641025,4215.384615,4471.794871,4234.871794,4252.307692,4512.307692,4212.307692,4666.666666,4024.615384,4084.615384
28,4406.153846,4525.128205,4568.717948,4266.153846,4499.487179,4210.256410,4468.205128,4233.333333,4251.282051,4510.769230,4214.358974,4660.512820,4026.153846,4080.512820
29,4400.512820,4516.923076,4568.205128,4264.102564,4498.974358,4211.282051,4466.153846,4232.307692,4253.333333,4517.435897,4213.333333,4659.487179,4022.564102,4080.512820
30,4400.000000,4512.307692,4566.666666,4265.641025,4498.974358,4210.769230,4464.102564,4223.589743,4247.692307,4512.307692,4204.615384,4657.435897,4010.769230,4078.461538
31,4401.025641,4519.487179,4567.179487,4261.025641,4491.282051,4203.589743,4457.948717,4214.358974,4235.384615,4502.564102,4196.410256,4649.230769,4005.128205,4073.333333
32,4397.435897,4523.589743,4563.589743,4260.512820,4492.307692,4203.076923,4456.410256,4213.846153,4232.820512,4503.076923,4200.000000,4649.230769,4005.641025,4071.794871
33,4391.794871,4517.948717,4557.435897,4265.128205,4493.846153,4204.102564,4457.948717,4211.794871,4234.871794,4500.000000,4197.435897,4649.230769,4005.641025,4071.282051
34,4391.794871,4514.358974,4559.487179,4261.538461,4486.153846,4199.487179,4455.384615,4208.717948,4232.307692,4497.435897,4190.256410,4644.102564,4004.615384,4070.769230
35,4397.435897,4523.589743,4568.717948,4259.487179,4491.794871,4203.589743,4458.461538,4214.358974,4233.333333,4505.128205,4199.487179,4650.256410,4006.666666,4074.358974
36,4399.487179,4531.794871,4570.256410,4267.692307,4502.564102,4211.794871,4462.564102,4219.487179,4241.538461,4509.743589,4207.692307,4658.461538,4009.230769,4075.384615
37,4398.461538,4528.205128,4565.128205,4273.333333,4494.871794,4209.743589,4462.564102,4210.256410,4239.487179,4501.538461,4195.384615,4654.871794,4008.205128,4073.846153
38,4398.461538,4523.589743,4561.538461,4265.641025,4485.641025,4203.076923,4459.487179,4206.153846,4230.769230,4490.769230,4186.666666,4648.205128,4004.615384,4073.846153
39,4394.871794,4519.487179,4558.461538,4260.512820,4483.589743,4199.487179,4458.974358,4211.282051,4230.769230,4496.410256,4195.384615,4646.153846,4000.000000,4070.256410
40,4387.179487,4512.820512,4555.384615,4264.615384,4480.000000,4201.025641,4460.512820,4211.282051,4232.820512,4510.256410,4198.974358,4644.102564,3996.410257,4064.615384
41,4385.128205,4513.333333,4553.333333,4263.076923,4479.487179,4202.564102,4458.974358,4207.179487,4226.666666,4508.205128,4189.743589,4640.512820,3994.871795,4065.641025
42,4392.307692,4521.538461,4554.358974,4259.487179,4485.128205,4203.589743,4458.974358,4209.230769,4225.128205,4497.948717,4190.769230,4645.128205,4000.512820,4070.256410
43,4396.923076,4525.128205,4557.435897,4265.641025,4487.179487,4204.102564,4459.487179,4214.871794,4236.923076,4504.102564,4207.179487,4652.820512,4009.743589,4073.846153
44,4393.333333,4527.179487,4555.384615,4268.205128,4482.051282,4202.564102,4458.974358,4213.846153,4242.564102,4510.769230,4212.820512,4649.230769,4007.692307,4070.256410
45,4390.256410,4528.205128,4550.769230,4265.641025,4477.948717,4201.025641,4460.000000,4213.846153,4238.974358,4509.743589,4205.128205,4639.487179,3997.435898,4066.153846
46,4394.358974,4522.564102,4552.820512,4270.769230,4482.051282,4206.666666,4461.538461,4220.000000,4240.000000,4514.358974,4198.974358,4641.025641,4001.538461,4069.743589
47,4396.923076,4522.051282,4553.846153,4274.871794,4485.128205,4210.769230,4461.538461,4224.102564,4249.230769,4520.000000,4200.512820,4648.717948,4011.282051,4071.282051
48,4393.333333,4525.128205,4550.769230,4268.205128,4480.512820,4207.179487,4461.538461,4222.051282,4254.871794,4512.820512,4205.641025,4648.717948,4010.769230,4068.205128
49,4388.205128,4522.564102,4549.743589,4260.512820,4476.923076,4203.589743,4462.051282,4218.461538,4248.205128,4504.615384,4201.025641,4642.564102,4000.512820,4064.102564
50,4385.641025,4521.025641,4551.282051,4262.564102,4478.974358,4204.102564,4460.000000,4212.307692,4237.948717,4506.666666,4188.205128,4637.435897,3995.897436,4062.564102
51,4387.179487,4522.051282,4551.794871,4264.615384,4476.923076,4202.051282,4458.461538,4206.666666,4230.769230,4508.717948,4184.615384,4640.512820,4000.512820,4065.128205
52,4392.307692,4521.025641,4551.794871,4263.076923,4471.282051,4200.000000,4458.461538,4209.743589,4228.717948,4505.128205,4196.923076,4645.641025,4001.025641,4068.717948
53,4393.333333,4522.051282,4553.846153,4265.128205,4470.256410,4198.461538,4460.000000,4213.333333,4233.333333,4509.230769,4204.615384,4643.589743,3995.384616,4069.743589
54,4390.769230,4525.641025,4555.897435,4270.769230,4471.282051,4196.923076,4458.974358,4211.282051,4233.846153,4515.384615,4200.512820,4643.589743,3995.897436,4072.307692
55,4391.282051,4525.641025,4554.358974,4270.769230,4475.384615,4198.974358,4456.923076,4213.846153,4231.282051,4506.666666,4200.512820,4647.692307,3997.435898,4073.846153
56,4396.410256,4523.076923,4553.333333,4266.666666,4476.410256,4200.000000,4458.461538,4217.948717,4238.461538,4501.025641,4202.564102,4648.717948,3996.923077,4070.769230
57,4394.358974,4522.051282,4555.384615,4263.589743,4474.358974,4197.948717,4459.487179,4214.871794,4241.538461,4507.692307,4199.487179,4645.641025,3998.461539,4068.717948
58,4384.615384,4521.538461,4551.282051,4264.102564,4471.794871,4196.923076,4457.435897,4213.333333,4233.846153,4503.076923,4194.358974,4640.512820,3996.410257,4066.666666
59,4381.025641,4520.000000,4545.641025,4272.307692,4470.256410,4197.948717,4458.974358,4219.487179,4232.820512,4494.871794,4183.076923,4637.435897,3995.384616,4063.589743
60,4385.641025,4515.897435,4548.717948,4273.846153,4473.333333,4199.487179,4461.025641,4220.000000,4235.897435,4499.487179,4176.410256,4641.025641,4001.538461,4065.128205
61,4394.358974,4524.615384,4554.871794,4270.256410,4481.025641,4207.692307,4465.128205,4225.128205,4241.538461,4513.846153,4198.461538,4651.282051,4010.256410,4072.820512
62,4402.564102,4537.948717,4557.948717,4277.435897,4484.102564,4214.871794,4475.384615,4240.512820,4253.846153,4526.666666,4225.128205,4659.487179,4015.897435,4083.076923
63,4402.564102,4532.820512,4557.948717,4280.512820,4482.051282,4209.743589,4479.487179,4245.128205,4259.487179,4531.794871,4214.871794,4657.435897,4013.333333,4083.076923
64,4397.435897,4528.205128,4555.384615,4268.205128,4482.564102,4207.179487,4476.410256,4239.487179,4255.897435,4523.076923,4198.974358,4654.871794,4008.205128,4076.410256
65,4394.871794,4534.871794,4552.820512,4260.512820,4480.512820,4210.256410,4474.358974,4237.948717,4251.282051,4511.794871,4203.076923,4653.846153,4006.666666,4074.871794
66,4390.769230,4528.205128,4552.307692,4267.179487,4477.948717,4211.282051,4476.410256,4238.461538,4246.666666,4510.256410,4208.717948,4648.717948,4001.025641,4071.282051
67,4387.692307,4515.384615,4552.820512,4272.307692,4482.051282,4212.820512,4485.128205,4237.948717,4245.641025,4516.410256,4211.282051,4646.666666,3997.435898,4069.230769
68,4392.307692,4524.615384,4554.358974,4270.769230,4483.076923,4211.794871,4488.717948,4241.025641,4252.307692,4525.128205,4214.358974,4652.307692,4006.153846,4074.871794
69,4395.384615,4532.307692,4554.871794,4267.179487,4478.974358,4209.230769,4483.076923,4241.025641,4254.871794,4525.641025,4213.333333,4651.794871,4009.230769,4076.410256
70,4391.794871,4522.564102,4552.307692,4265.641025,4477.435897,4211.282051,4478.974358,4238.461538,4252.820512,4512.820512,4209.743589,4647.692307,4001.538461,4071.282051
71,4389.230769,4523.076923,4551.794871,4267.692307,4482.051282,4214.871794,4477.948717,4236.410256,4251.794871,4506.153846,4208.717948,4648.717948,4000.512820,4073.333333
72,4389.743589,4529.230769,4551.282051,4268.205128,4484.615384,4212.820512,4475.897435,4231.282051,4248.205128,4514.358974,4209.230769,4646.666666,4002.051282,4074.358974
73,4390.256410,4526.153846,4551.282051,4266.666666,4480.512820,4210.256410,4472.307692,4230.256410,4242.051282,4516.923076,4205.641025,4641.025641,3991.282052,4067.179487
74,4390.256410,4526.666666,4552.307692,4269.230769,4478.974358,4211.282051,4474.358974,4231.282051,4236.923076,4509.230769,4202.051282,4642.564102,3986.666667,4064.102564
75,4394.871794,4539.487179,4554.358974,4274.871794,4482.051282,4214.871794,4480.000000,4233.333333,4241.025641,4510.256410,4210.769230,4651.794871,4000.000000,4071.794871
76,4404.615384,4546.153846,4558.461538,4281.538461,4486.666666,4218.974358,4482.051282,4243.076923,4254.871794,4520.000000,4223.076923,4660.000000,4016.410256,4083.076923
77,4406.153846,4539.487179,4561.025641,4283.589743,4488.205128,4220.512820,4477.435897,4248.205128,4261.538461,4521.538461,4219.487179,4658.461538,4016.923076,4085.128205
78,4398.974358,4533.333333,4555.897435,4279.487179,4484.615384,4220.000000,4475.897435,4243.076923,4256.923076,4522.051282,4212.820512,4654.358974,4006.666666,4078.461538
79,4399.487179,4530.256410,4553.846153,4275.897435,4482.051282,4216.923076,4477.948717,4238.974358,4253.846153,4529.230769,4222.564102,4654.358974,4002.564102,4078.974358
80,4406.666666,4534.871794,4560.512820,4276.923076,4486.153846,4216.923076,4477.948717,4244.102564,4257.435897,4521.025641,4230.256410,4656.923076,4005.641025,4083.076923
81,4409.743589,4542.051282,4563.076923,4276.923076,4488.205128,4218.461538,4477.948717,4250.256410,4264.615384,4513.333333,4225.128205,4658.461538,4011.794871,4082.564102
82,4406.666666,4537.948717,4557.948717,4277.435897,4484.615384,4215.384615,4477.435897,4246.666666,4264.102564,4526.666666,4218.974358,4656.410256,4013.846153,4079.487179
83,4403.589743,4532.820512,4555.384615,4282.051282,4482.564102,4215.897435,4476.410256,4235.897435,4257.948717,4529.743589,4217.948717,4654.358974,4011.282051,4077.948717
84,4407.692307,4537.435897,4558.461538,4284.615384,4483.076923,4217.948717,4478.974358,4238.974358,4260.000000,4518.461538,4224.615384,4657.948717,4010.769230,4080.512820
85,4412.820512,4542.564102,4558.974358,4277.948717,4483.076923,4215.897435,4478.974358,4248.205128,4264.102564,4517.948717,4230.256410,4658.974358,4008.717948,4082.051282
86,4404.615384,4540.512820,4555.384615,4271.794871,4483.076923,4216.410256,4477.948717,4242.564102,4257.435897,4516.410256,4223.076923,4651.794871,4003.589743,4075.897435
87,4397.948717,4536.410256,4555.384615,4276.923076,4485.128205,4217.435897,4475.897435,4235.384615,4249.230769,4510.769230,4220.000000,4648.205128,4003.076923,4069.743589
88,4406.153846,4536.923076,4557.435897,4280.512820,4486.666666,4216.923076,4475.897435,4238.461538,4250.769230,4515.897435,4226.666666,4650.769230,4003.076923,4073.846153
89,4412.307692,4542.564102,4557.435897,4280.512820,4486.666666,4218.461538,4477.948717,4236.410256,4251.282051,4521.538461,4217.948717,4651.794871,4000.512820,4079.487179
90,4401.538461,4540.000000,4554.358974,4282.564102,4483.076923,4215.897435,4475.384615,4226.666666,4245.128205,4513.333333,4205.641025,4648.205128,4000.000000,4073.333333
91,4389.743589,4525.641025,4550.769230,4275.384615,4481.538461,4206.666666,4467.692307,4220.512820,4238.461538,4498.974358,4211.794871,4640.000000,3995.897436,4063.589743
92,4395.384615,4526.153846,4550.256410,4267.692307,4484.102564,4209.230769,4466.666666,4221.025641,4238.974358,4494.358974,4219.487179,4637.948717,3990.256411,4066.153846
93,4409.230769,4535.897435,4553.333333,4275.897435,4486.153846,4213.846153,4472.307692,4225.128205,4244.102564,4507.179487,4223.076923,4650.769230,3996.923077,4077.435897
94,4412.820512,4533.846153,4556.923076,4286.666666,4486.153846,4210.769230,4475.384615,4229.743589,4245.641025,4518.974358,4227.692307,4660.512820,4006.153846,4080.512820
95,4409.230769,4532.820512,4556.410256,4286.666666,4485.641025,4211.282051,4473.846153,4230.256410,4241.538461,4508.717948,4223.589743,4656.923076,4003.589743,4078.461538
96,4405.128205,4535.384615,4553.846153,4278.974358,4484.102564,4208.717948,4469.230769,4221.538461,4233.846153,4491.794871,4217.435897,4649.743589,3994.871795,4077.435897
97,4404.615384,4533.333333,4554.358974,4271.794871,4483.076923,4206.666666,4470.256410,4218.461538,4232.820512,4492.820512,4225.128205,4650.769230,3992.820513,4080.512820
98,4409.743589,4533.846153,4556.410256,4272.820512,4485.128205,4210.769230,4471.282051,4225.128205,4240.000000,4508.205128,4229.230769,4656.923076,4000.512820,4084.102564
99,4409.743589,4536.923076,4554.358974,4280.000000,4487.692307,4212.820512,4464.615384,4222.564102,4238.461538,4513.333333,4218.461538,4655.384615,4001.025641,4079.487179
100,4403.589743,4535.384615,4553.846153,4282.051282,4486.153846,4212.307692,4464.615384,4218.461538,4235.384615,4504.615384,4218.974358,4650.256410,3992.820513,4077.948717
101,4406.666666,4538.974358,4557.435897,4282.564102,4490.256410,4214.871794,4474.871794,4225.128205,4239.487179,4501.025641,4227.179487,4654.871794,3993.333334,4084.615384
102,4411.794871,4540.512820,4557.948717,4283.076923,4493.846153,4215.384615,4476.923076,4228.205128,4238.461538,4498.461538,4222.051282,4658.974358,3998.461539,4083.076923
103,4410.256410,4537.435897,4557.435897,4280.512820,4487.692307,4212.307692,4472.820512,4226.666666,4237.435897,4498.974358,4215.897435,4660.000000,4001.538461,4082.051282
104,4407.692307,4541.025641,4557.435897,4274.871794,4483.076923,4211.282051,4473.333333,4229.230769,4246.666666,4509.230769,4219.487179,4659.487179,4000.000000,4084.102564
105,4401.538461,4538.974358,4552.307692,4267.692307,4485.641025,4210.256410,4471.794871,4227.179487,4246.666666,4513.333333,4220.512820,4650.769230,3987.179488,4074.358974
106,4397.948717,4531.282051,4550.256410,4272.820512,4486.153846,4208.717948,4471.282051,4229.230769,4245.128205,4511.282051,4216.410256,4644.615384,3985.641026,4070.769230
107,4402.051282,4534.358974,4551.282051,4282.564102,4485.641025,4209.743589,4476.410256,4236.923076,4255.384615,4513.333333,4219.487179,4650.256410,4002.564102,4078.974358
108,4400.000000,4535.384615,4543.589743,4271.794871,4484.615384,4210.256410,4471.282051,4230.769230,4249.743589,4504.102564,4222.564102,4648.205128,4001.538461,4074.871794
109,4397.948717,4530.769230,4535.897435,4257.948717,4483.589743,4206.153846,4461.025641,4220.000000,4233.846153,4495.384615,4229.743589,4643.076923,3989.743590,4070.769230
110,4406.153846,4535.384615,4543.076923,4268.205128,4485.641025,4206.153846,4466.153846,4223.589743,4239.487179,4507.692307,4235.384615,4649.743589,3997.435898,4080.000000
111,4410.769230,4535.897435,4554.358974,4275.384615,4490.256410,4213.333333,4474.358974,4232.307692,4251.282051,4516.923076,4230.769230,4655.897435,4010.769230,4083.076923
112,4410.256410,4529.743589,4555.384615,4270.256410,4495.384615,4215.897435,4474.358974,4235.384615,4251.794871,4511.794871,4228.717948,4657.435897,4018.974358,4081.538461
113,4413.333333,4532.307692,4553.846153,4272.307692,4498.461538,4213.333333,4472.820512,4236.923076,4254.358974,4509.743589,4229.230769,4658.974358,4022.564102,4083.589743
114,4412.307692,4531.794871,4554.871794,4271.282051,4498.974358,4217.948717,4470.769230,4237.948717,4255.897435,4505.128205,4227.179487,4654.358974,4014.358974,4081.025641
115,4405.128205,4522.564102,4556.410256,4262.051282,4494.871794,4218.974358,4472.307692,4235.384615,4251.282051,4498.461538,4224.615384,4651.282051,4009.743589,4077.435897
116,4400.512820,4520.000000,4555.897435,4263.076923,4495.384615,4212.307692,4471.794871,4231.794871,4252.307692,4502.564102,4218.974358,4654.871794,4018.974358,4077.435897
117,4394.358974,4517.948717,4553.846153,4261.538461,4494.358974,4212.307692,4464.102564,4230.769230,4253.846153,4507.692307,4211.282051,4651.794871,4015.897435,4072.820512
118,4390.769230,4510.769230,4553.846153,4255.384615,4488.205128,4212.820512,4465.641025,4229.743589,4248.205128,4501.025641,4211.282051,4644.102564,4001.538461,4068.205128
119,4396.923076,4510.769230,4555.897435,4260.000000,4488.717948,4207.692307,4471.282051,4225.128205,4242.564102,4496.410256,4210.256410,4646.666666,4000.000000,4070.256410
120,4398.461538,4516.923076,4555.384615,4264.615384,4491.282051,4208.717948,4467.179487,4222.564102,4240.512820,4500.000000,4201.025641,4650.256410,4006.153846,4072.307692
121,4393.846153,4516.410256,4553.846153,4257.948717,4490.256410,4214.358974,4465.128205,4223.589743,4237.948717,4498.974358,4203.076923,4646.153846,4007.692307,4069.743589
122,4396.923076,4515.384615,4555.897435,4254.871794,4490.256410,4210.769230,4466.666666,4229.743589,4242.051282,4497.435897,4217.948717,4646.666666,4008.205128,4069.230769
123,4399.487179,4515.384615,4556.923076,4257.435897,4491.282051,4207.179487,4461.538461,4232.820512,4249.230769,4504.615384,4221.538461,4651.794871,4009.743589,4072.307692
124,4394.358974,4508.717948,4553.333333,4254.871794,4485.641025,4204.615384,4457.435897,4225.641025,4245.128205,4501.025641,4205.128205,4647.692307,4007.179487,4069.230769
125,4391.794871,4507.179487,4551.794871,4252.307692,4481.538461,4202.564102,4460.512820,4222.051282,4240.000000,4489.230769,4192.307692,4641.538461,4004.102564,4065.128205
126,4397.435897,4515.897435,4556.410256,4254.871794,4487.692307,4206.666666,4464.615384,4230.256410,4245.128205,4495.384615,4207.179487,4648.205128,4005.128205,4071.282051
127,4399.487179,4517.435897,4556.410256,4255.897435,4492.820512,4209.743589,4465.641025,4229.230769,4243.589743,4507.179487,4217.435897,4654.358974,4006.153846,4075.897435
128,4392.820512,4506.153846,4552.820512,4251.282051,4491.282051,4207.179487,4461.538461,4215.897435,4234.871794,4502.051282,4200.512820,4648.205128,4004.615384,4069.743589
129,4391.282051,4501.538461,4552.307692,4247.179487,4484.102564,4205.641025,4458.974358,4213.846153,4233.846153,4493.846153,4194.358974,4644.615384,4003.589743,4064.615384
130,4395.384615,4508.205128,4552.307692,4254.358974,4480.000000,4203.076923,4461.025641,4218.461538,4234.871794,4496.410256,4209.230769,4647.179487,4002.051282,4067.179487
131,4395.384615,4513.333333,4551.794871,4259.487179,4482.051282,4196.923076,4460.000000,4220.000000,4234.871794,4498.974358,4211.794871,4646.666666,3998.974359,4068.205128
132,4394.871794,4514.871794,4552.820512,4256.923076,4484.102564,4199.487179,4460.512820,4222.051282,4240.512820,4500.000000,4207.179487,4648.717948,4002.051282,4067.692307
133,4396.410256,4518.461538,4553.846153,4251.282051,4484.615384,4205.641025,4460.512820,4223.589743,4244.615384,4505.128205,4212.307692,4650.769230,4011.282051,4068.717948
134,4396.923076,4518.461538,4553.333333,4248.205128,4488.205128,4206.153846,4456.923076,4224.102564,4237.948717,4505.128205,4217.435897,4647.179487,4014.871794,4069.743589
135,4398.974358,4514.358974,4555.384615,4255.384615,4492.820512,4210.769230,4464.102564,4229.230769,4238.461538,4503.076923,4221.538461,4650.769230,4014.358974,4075.897435
136,4400.000000,4516.410256,4557.948717,4264.615384,4491.282051,4213.846153,4474.358974,4238.974358,4253.333333,4509.743589,4224.615384,4660.000000,4015.384615,4081.025641
137,4396.923076,4518.974358,4555.897435,4260.000000,4486.666666,4207.692307,4471.282051,4240.512820,4262.564102,4518.974358,4224.615384,4659.487179,4017.948717,4075.897435
138,4402.051282,4517.948717,4555.384615,4250.256410,4488.205128,4207.692307,4467.179487,4234.871794,4254.358974,4515.384615,4224.615384,4657.948717,4020.512820,4075.384615
139,4409.743589,4517.948717,4557.948717,4256.923076,4488.717948,4214.358974,4469.743589,4228.717948,4246.666666,4505.641025,4226.666666,4662.051282,4020.000000,4081.538461
140,4404.102564,4520.512820,4557.435897,4266.666666,4486.153846,4211.282051,4469.743589,4228.205128,4251.282051,4506.153846,4223.589743,4660.512820,4014.358974,4078.461538
141,4397.435897,4519.487179,4554.871794,4265.641025,4485.128205,4205.128205,4467.692307,4229.743589,4253.846153,4501.538461,4216.923076,4656.923076,4006.666666,4071.282051
142,4402.051282,4521.538461,4556.923076,4267.179487,4485.128205,4206.666666,4466.153846,4225.641025,4245.641025,4493.846153,4215.384615,4655.384615,4005.641025,4073.333333
143,4400.512820,4524.102564,4556.410256,4266.666666,4484.615384,4204.102564,4460.512820,4216.410256,4237.435897,4497.948717,4214.871794,4651.282051,4006.153846,4071.282051
144,4393.333333,4516.923076,4553.333333,4262.051282,4480.512820,4196.410256,4457.948717,4213.333333,4236.410256,4503.076923,4213.846153,4650.256410,4004.615384,4066.153846
145,4396.923076,4512.820512,4555.384615,4264.615384,4478.974358,4201.025641,4461.538461,4219.487179,4240.000000,4498.974358,4216.410256,4655.897435,4007.179487,4071.282051
146,4401.538461,4521.025641,4557.435897,4269.230769,4484.102564,4207.692307,4463.076923,4225.641025,4241.538461,4493.846153,4218.461538,4658.461538,4011.282051,4075.384615
147,4399.487179,4528.717948,4555.384615,4266.153846,4485.128205,4205.641025,4461.025641,4223.589743,4238.461538,4493.333333,4214.358974,4655.897435,4009.743589,4072.307692
148,4398.974358,4524.615384,4554.358974,4263.589743,4480.000000,4203.076923,4459.487179,4222.051282,4242.564102,4496.410256,4217.435897,4655.384615,4005.128205,4070.256410
149,4402.051282,4524.615384,4555.384615,4267.179487,4479.487179,4206.153846,4463.076923,4228.205128,4254.358974,4504.102564,4228.717948,4655.897435,4007.692307,4071.794871
150,4402.564102,4529.743589,4555.384615,4268.717948,4482.564102,4208.205128,4466.153846,4230.256410,4252.820512,4502.051282,4218.461538,4653.846153,4012.307692,4072.820512
151,4396.410256,4523.076923,4554.871794,4263.076923,4476.410256,4201.538461,4460.000000,4222.051282,4237.948717,4492.307692,4200.512820,4647.179487,4007.692307,4067.179487
152,4392.820512,4516.410256,4553.846153,4260.512820,4472.307692,4195.897435,4454.871794,4220.000000,4232.307692,4495.897435,4207.179487,4646.666666,4000.512820,4064.102564
153,4401.025641,4526.666666,4554.358974,4270.769230,4481.538461,4203.589743,4462.051282,4226.153846,4242.564102,4504.102564,4225.128205,4655.897435,4007.692307,4071.794871
154,4411.794871,4538.974358,4565.128205,4282.564102,4489.743589,4212.820512,4470.256410,4229.743589,4252.307692,4505.641025,4229.743589,4663.076923,4020.000000,4083.076923
155,4407.179487,4534.358974,4568.205128,4280.000000,4489.230769,4209.230769,4466.153846,4232.820512,4253.846153,4507.692307,4225.128205,4660.000000,4017.435897,4081.538461
156,4401.025641,4530.256410,4558.461538,4272.307692,4487.179487,4207.692307,4466.666666,4232.820512,4252.820512,4506.666666,4225.641025,4657.435897,4011.282051,4078.461538
157,4406.666666,4533.333333,4558.974358,4273.846153,4493.846153,4212.820512,4471.282051,4231.794871,4255.384615,4507.692307,4227.692307,4661.538461,4013.846153,4082.564102
158,4410.256410,4532.307692,4567.692307,4280.000000,4495.384615,4214.358974,4469.743589,4233.846153,4257.948717,4510.769230,4227.692307,4664.102564,4019.487179,4082.051282
159,4409.743589,4535.897435,4569.743589,4282.564102,4489.230769,4211.794871,4471.794871,4233.846153,4257.948717,4506.153846,4230.256410,4666.666666,4026.666666,4081.538461
160,4410.769230,4542.051282,4565.128205,4278.461538,4490.769230,4207.692307,4472.307692,4228.717948,4252.820512,4505.128205,4226.666666,4667.179487,4026.153846,4085.128205
161,4403.076923,4533.333333,4555.897435,4273.333333,4492.307692,4205.641025,4460.512820,4223.076923,4241.538461,4508.205128,4213.846153,4658.461538,4012.307692,4078.974358
162,4396.410256,4527.179487,4553.333333,4270.769230,4487.692307,4208.717948,4460.512820,4224.102564,4240.000000,4504.102564,4214.358974,4652.307692,4002.564102,4068.717948
163,4406.666666,4542.051282,4567.179487,4276.410256,4492.307692,4215.384615,4476.923076,4234.358974,4254.871794,4505.641025,4234.358974,4662.051282,4013.333333,4077.948717
164,4414.871794,4547.692307,4574.871794,4285.128205,4503.076923,4218.974358,4478.461538,4241.538461,4263.589743,4515.897435,4240.000000,4670.769230,4024.615384,4089.230769
165,4412.820512,4537.435897,4568.205128,4283.589743,4497.948717,4218.461538,4472.307692,4237.435897,4256.410256,4511.794871,4237.435897,4668.205128,4025.128205,4088.717948
166,4414.358974,4539.487179,4568.205128,4280.512820,4494.871794,4220.000000,4476.923076,4238.461538,4255.384615,4509.743589,4241.025641,4670.769230,4028.205128,4088.717948
167,4412.307692,4544.615384,4570.769230,4283.589743,4501.025641,4222.564102,4481.025641,4243.076923,4261.025641,4518.461538,4237.948717,4671.282051,4024.615384,4085.641025
168,4407.179487,4542.564102,4568.717948,4284.615384,4500.512820,4222.564102,4479.487179,4237.948717,4255.897435,4514.871794,4234.358974,4664.102564,4013.846153,4078.974358
169,4410.769230,4540.000000,4570.769230,4284.615384,4501.025641,4221.538461,4479.487179,4235.384615,4249.743589,4504.102564,4231.282051,4663.589743,4014.358974,4080.000000
170,4411.794871,4534.871794,4570.256410,4283.589743,4505.128205,4221.538461,4476.410256,4239.487179,4253.333333,4501.538461,4221.025641,4664.615384,4017.948717,4080.000000
171,4406.666666,4531.282051,4561.025641,4279.487179,4504.102564,4219.487179,4474.358974,4239.487179,4257.435897,4503.589743,4220.512820,4657.948717,4013.333333,4075.384615
172,4406.153846,4531.794871,4555.384615,4275.897435,4500.512820,4215.897435,4477.435897,4232.307692,4253.846153,4505.128205,4230.769230,4655.897435,4008.205128,4072.820512
173,4403.076923,4531.282051,4554.358974,4270.769230,4497.948717,4211.794871,4471.794871,4226.153846,4245.128205,4499.487179,4228.717948,4654.871794,4009.230769,4067.692307
174,4396.923076,4531.282051,4551.794871,4267.179487,4495.384615,4208.717948,4463.589743,4222.051282,4240.000000,4495.384615,4215.384615,4648.205128,4008.205128,4063.589743
175,4395.384615,4532.820512,4551.794871,4274.358974,4495.897435,4210.769230,4464.102564,4227.179487,4247.692307,4497.948717,4212.307692,4645.128205,4001.025641,4067.179487
176,4400.000000,4533.846153,4555.897435,4278.461538,4501.025641,4215.897435,4470.256410,4233.846153,4252.307692,4497.435897,4217.948717,4650.769230,3998.461539,4069.743589
177,4406.666666,4538.461538,4558.461538,4277.435897,4505.128205,4218.461538,4475.384615,4233.333333,4246.153846,4500.512820,4231.282051,4660.000000,4007.179487,4071.282051
178,4405.641025,4536.923076,4557.435897,4281.025641,4506.153846,4218.461538,4475.897435,4231.282051,4243.589743,4503.076923,4228.205128,4658.974358,4013.846153,4073.333333
179,4400.000000,4527.179487,4554.358974,4279.487179,4502.564102,4214.871794,4471.794871,4228.205128,4244.615384,4497.435897,4204.615384,4651.794871,4004.615384,4069.230769
180,4404.102564,4528.717948,4554.871794,4272.820512,4500.000000,4211.794871,4467.692307,4225.128205,4240.000000,4493.846153,4207.692307,4654.358974,3998.461539,4069.743589
181,4408.717948,4537.435897,4557.948717,4272.820512,4500.000000,4209.743589,4463.076923,4226.153846,4237.948717,4497.435897,4233.846153,4661.025641,4006.666666,4076.410256
182,4402.051282,4535.897435,4555.897435,4273.846153,4496.410256,4208.205128,4457.948717,4228.205128,4242.564102,4500.000000,4234.871794,4658.461538,4012.307692,4074.871794
183,4396.410256,4529.743589,4551.282051,4261.025641,4492.307692,4207.179487,4460.000000,4224.615384,4243.076923,4498.974358,4218.974358,4652.820512,4009.743589,4072.307692
184,4394.358974,4523.589743,4550.769230,4252.820512,4493.333333,4202.564102,4462.051282,4220.000000,4235.384615,4493.333333,4219.487179,4650.769230,4002.051282,4069.743589
185,4392.820512,4518.461538,4552.820512,4266.666666,4494.871794,4199.487179,4458.974358,4224.615384,4236.923076,4492.307692,4226.666666,4650.256410,4000.000000,4065.641025
186,4395.897435,4524.615384,4554.358974,4274.871794,4496.410256,4207.692307,4464.615384,4234.871794,4250.769230,4501.025641,4231.794871,4655.897435,4006.153846,4069.230769
187,4402.564102,4535.897435,4556.923076,4266.666666,4503.589743,4217.435897,4475.384615,4234.871794,4250.769230,4501.538461,4234.358974,4660.000000,4014.358974,4076.923076
188,4402.564102,4532.820512,4558.461538,4263.589743,4505.641025,4213.846153,4473.333333,4225.128205,4238.461538,4497.435897,4225.128205,4658.461538,4014.871794,4075.897435
189,4392.307692,4523.589743,4551.794871,4265.128205,4496.923076,4206.666666,4464.102564,4221.538461,4235.897435,4501.538461,4221.025641,4653.333333,4002.051282,4067.692307
190,4387.179487,4526.153846,4544.615384,4262.051282,4493.333333,4206.666666,4462.051282,4224.102564,4240.512820,4496.410256,4225.641025,4645.641025,3989.230770,4062.564102
191,4396.410256,4529.230769,4549.230769,4272.820512,4498.461538,4209.743589,4465.128205,4227.179487,4246.153846,4492.307692,4222.564102,4647.692307,3995.897436,4064.615384
192,4403.589743,4524.615384,4556.923076,4283.589743,4501.025641,4212.820512,4469.230769,4232.307692,4250.256410,4500.000000,4222.051282,4657.435897,4013.846153,4071.282051
193,4399.487179,4525.128205,4555.384615,4272.307692,4501.538461,4212.307692,4470.769230,4232.820512,4245.128205,4496.923076,4229.743589,4657.948717,4015.384615,4074.358974
194,4396.410256,4532.820512,4551.794871,4262.051282,4502.051282,4210.769230,4472.307692,4229.230769,4241.538461,4490.769230,4224.615384,4650.769230,4001.538461,4072.307692
195,4394.358974,4533.333333,4552.820512,4264.102564,4499.487179,4210.769230,4472.307692,4226.153846,4244.102564,4493.846153,4211.282051,4647.179487,3995.897436,4067.179487
196,4389.230769,4527.692307,4551.794871,4266.153846,4495.384615,4208.717948,4469.230769,4223.589743,4235.384615,4489.743589,4209.230769,4647.692307,3996.923077,4060.512820
197,4391.282051,4529.743589,4550.256410,4266.666666,4493.846153,4205.641025,4469.230769,4220.000000,4223.076923,4482.051282,4213.846153,4648.205128,3995.897436,4058.974358
198,4393.846153,4530.769230,4551.282051,4264.102564,4491.282051,4204.615384,4468.717948,4220.000000,4228.717948,4483.589743,4213.846153,4646.153846,3993.846154,4061.025641
199,4391.282051,4526.666666,4552.307692,4266.666666,4492.820512,4206.666666,4468.205128,4225.128205,4242.051282,4489.743589,4218.974358,4646.666666,4000.512820,4066.153846
200,4398.974358,4530.769230,4553.846153,4274.871794,4498.461538,4210.256410,4470.769230,4229.230769,4246.666666,4496.923076,4230.256410,4653.846153,4011.282051,4073.333333
201,4409.743589,4542.051282,4554.358974,4274.358974,4498.974358,4216.410256,4473.333333,4233.846153,4251.282051,4507.692307,4229.230769,4660.000000,4015.897435,4077.948717
202,4405.128205,4542.051282,4555.384615,4273.333333,4496.410256,4217.435897,4472.307692,4235.897435,4256.410256,4510.256410,4220.000000,4661.025641,4017.948717,4081.025641
203,4395.897435,4531.282051,4555.384615,4280.000000,4497.948717,4211.282051,4470.256410,4232.307692,4252.307692,4504.102564,4222.051282,4658.461538,4015.897435,4078.461538
204,4393.333333,4525.128205,4547.179487,4274.871794,4495.897435,4208.205128,4465.128205,4228.205128,4247.179487,4495.897435,4230.769230,4651.794871,4007.179487,4071.282051
205,4391.794871,4525.128205,4543.589743,4260.000000,4489.743589,4211.794871,4461.025641,4228.717948,4249.743589,4495.384615,4228.717948,4649.230769,4002.564102,4068.717948
206,4392.307692,4528.205128,4548.205128,4259.487179,4491.794871,4211.282051,4463.589743,4232.307692,4254.871794,4502.051282,4219.487179,4651.282051,4006.153846,4071.794871
207,4396.410256,4530.769230,4549.230769,4268.717948,4493.333333,4206.666666,4462.564102,4230.769230,4255.897435,4503.076923,4220.512820,4651.794871,4010.769230,4071.282051
208,4397.435897,4532.820512,4550.256410,4269.230769,4490.769230,4207.692307,4458.974358,4229.743589,4253.846153,4502.051282,4232.307692,4653.846153,4012.820512,4073.333333
209,4398.974358,4535.384615,4552.820512,4266.666666,4491.282051,4209.230769,4462.051282,4231.794871,4251.794871,4508.205128,4240.000000,4657.435897,4013.333333,4077.948717
210,4402.051282,4537.435897,4552.820512,4270.769230,4489.230769,4207.179487,4464.615384,4233.333333,4253.846153,4511.794871,4234.358974,4657.948717,4016.410256,4076.923076
211,4398.974358,4535.384615,4550.256410,4273.846153,4487.692307,4206.666666,4465.128205,4229.743589,4258.461538,4507.179487,4226.666666,4658.974358,4018.974358,4075.897435
212,4395.897435,4529.230769,4546.153846,4267.692307,4490.769230,4211.794871,4463.076923,4225.641025,4251.282051,4503.076923,4229.230769,4658.461538,4010.256410,4077.948717
213,4393.333333,4528.205128,4540.512820,4261.025641,4491.282051,4210.769230,4458.461538,4227.179487,4243.589743,4497.435897,4235.384615,4652.307692,4001.538461,4072.307692
214,4389.743589,4527.692307,4537.948717,4257.948717,4488.205128,4205.128205,4457.948717,4225.128205,4249.743589,4493.846153,4230.769230,4648.717948,4005.641025,4064.615384
215,4390.256410,4520.000000,4542.564102,4259.487179,4488.205128,4204.615384,4459.487179,4220.512820,4251.794871,4498.461538,4218.974358,4651.282051,4013.333333,4067.179487
216,4394.871794,4521.538461,4549.230769,4267.692307,4491.794871,4205.641025,4459.487179,4217.435897,4245.128205,4500.512820,4223.589743,4654.358974,4014.358974,4072.820512
217,4395.897435,4528.717948,4553.846153,4268.205128,4494.358974,4206.153846,4460.000000,4218.974358,4245.128205,4500.000000,4235.384615,4653.846153,4012.307692,4072.307692
218,4393.333333,4523.589743,4551.794871,4258.974358,4492.307692,4206.666666,4458.461538,4221.538461,4250.256410,4503.589743,4229.743589,4651.282051,4014.871794,4072.307692
219,4397.435897,4522.051282,4551.282051,4261.538461,4489.743589,4207.179487,4459.487179,4224.615384,4252.820512,4508.205128,4222.051282,4653.333333,4024.615384,4077.948717
220,4403.076923,4529.230769,4558.461538,4268.205128,4492.307692,4207.179487,4461.025641,4231.282051,4254.871794,4511.794871,4226.153846,4660.000000,4031.282051,4081.538461
221,4394.871794,4520.000000,4555.384615,4258.461538,4489.230769,4208.717948,4460.000000,4231.282051,4255.384615,4510.256410,4226.153846,4654.358974,4020.000000,4071.282051
222,4382.564102,4506.153846,4542.051282,4247.179487,4484.615384,4205.641025,4458.461538,4226.666666,4249.230769,4496.923076,4217.948717,4642.564102,4005.641025,4058.974358
223,4383.076923,4511.282051,4543.076923,4251.794871,4488.717948,4202.564102,4460.512820,4227.179487,4245.641025,4489.743589,4213.333333,4642.564102,4015.897435,4061.025641
224,4383.589743,4516.410256,4549.743589,4257.435897,4489.230769,4207.692307,4458.974358,4226.153846,4245.641025,4496.923076,4207.692307,4644.615384,4029.230769,4065.128205
225,4374.871794,4505.641025,4540.512820,4248.717948,4485.128205,4204.615384,4453.846153,4215.384615,4238.974358,4495.897435,4203.076923,4635.897435,4013.846153,4055.897435
226,4371.794871,4501.538461,4533.846153,4241.538461,4481.538461,4197.435897,4450.256410,4208.717948,4227.692307,4485.641025,4205.641025,4632.307692,3996.410257,4051.282051
227,4379.487179,4508.717948,4543.076923,4248.717948,4482.051282,4200.512820,4451.282051,4215.897435,4234.358974,4487.692307,4209.230769,4642.564102,4010.769230,4059.487179
228,4381.538461,4510.256410,4546.153846,4250.769230,4483.076923,4203.076923,4456.410256,4224.102564,4249.230769,4495.384615,4210.256410,4646.666666,4021.025641,4062.051282
229,4375.897435,4503.589743,4538.461538,4240.000000,4478.974358,4194.871794,4451.794871,4224.102564,4246.153846,4491.794871,4208.717948,4638.974358,4008.717948,4053.846153
230,4372.307692,4498.461538,4541.025641,4238.461538,4476.410256,4190.769230,4444.102564,4218.461538,4238.461538,4490.256410,4207.692307,4636.410256,4008.717948,4054.871794
231,4378.461538,4502.051282,4550.256410,4247.692307,4478.461538,4194.871794,4448.717948,4217.435897,4241.538461,4496.410256,4214.358974,4644.102564,4016.410256,4064.102564
232,4386.153846,4510.256410,4554.358974,4251.282051,4482.564102,4198.461538,4453.333333,4222.051282,4246.666666,4505.641025,4224.615384,4651.794871,4013.846153,4068.205128
233,4383.589743,4509.743589,4554.358974,4247.692307,4482.051282,4195.384615,4452.820512,4223.076923,4246.153846,4504.102564,4224.615384,4651.282051,4015.384615,4065.128205
234,4377.948717,4501.025641,4551.282051,4249.230769,4478.974358,4192.820512,4450.256410,4218.461538,4241.538461,4492.307692,4217.435897,4645.641025,4021.538461,4057.435897
235,4379.487179,4501.538461,4547.692307,4250.769230,4482.564102,4195.384615,4448.717948,4220.512820,4237.948717,4490.769230,4212.820512,4644.615384,4017.435897,4056.923076
236,4382.051282,4510.256410,4549.230769,4245.128205,4484.615384,4197.435897,4452.307692,4225.128205,4242.051282,4498.461538,4212.820512,4650.769230,4010.769230,4064.615384
237,4383.076923,4511.282051,4553.846153,4244.615384,4483.076923,4200.512820,4457.948717,4225.128205,4252.307692,4501.538461,4216.410256,4655.384615,4017.948717,4068.717948
238,4385.128205,4505.128205,4554.871794,4248.205128,4484.615384,4202.564102,4455.897435,4225.641025,4252.307692,4503.589743,4217.435897,4651.794871,4025.641025,4063.589743
239,4382.051282,4505.641025,4550.769230,4245.641025,4492.307692,4203.076923,4453.846153,4222.564102,4243.589743,4503.589743,4217.948717,4646.153846,4017.435897,4058.974358
240,4376.410256,4508.717948,4543.076923,4244.102564,4493.846153,4204.615384,4457.948717,4215.384615,4240.000000,4494.871794,4217.948717,4643.589743,4012.820512,4058.461538
241,4377.435897,4505.641025,4538.974358,4245.641025,4489.230769,4203.076923,4457.948717,4219.487179,4241.025641,4492.307692,4214.871794,4642.564102,4013.333333,4056.923076
242,4374.871794,4498.974358,4539.487179,4235.897435,4489.230769,4196.923076,4452.307692,4225.641025,4240.512820,4494.871794,4207.179487,4636.410256,4001.025641,4053.333333
243,4369.743589,4500.512820,4538.461538,4229.743589,4494.358974,4195.384615,4447.692307,4218.974358,4236.923076,4490.256410,4200.512820,4632.307692,3995.897436,4049.743589
244,4377.435897,4508.205128,4545.641025,4245.128205,4500.000000,4201.025641,4454.871794,4221.025641,4236.410256,4492.307692,4206.666666,4642.564102,4012.820512,4055.384615
245,4388.717948,4511.794871,4556.410256,4255.384615,4500.512820,4208.205128,4465.641025,4235.897435,4242.564102,4498.461538,4219.487179,4654.871794,4021.025641,4067.692307
246,4387.179487,4508.205128,4555.897435,4248.717948,4501.025641,4211.794871,4462.051282,4234.358974,4249.743589,4494.871794,4217.948717,4650.256410,4009.230769,4068.205128
247,4380.512820,4508.205128,4553.333333,4244.102564,4504.102564,4207.692307,4456.923076,4222.564102,4247.692307,4496.410256,4204.615384,4643.589743,4004.615384,4061.025641
248,4378.974358,4515.384615,4555.384615,4251.282051,4502.564102,4207.179487,4461.538461,4222.051282,4247.179487,4505.128205,4207.692307,4648.205128,4007.179487,4063.589743
249,4377.948717,4515.897435,4552.820512,4255.384615,4503.589743,4211.282051,4457.948717,4221.538461,4246.666666,4504.102564,4214.871794,4648.717948,4006.666666,4064.615384
250,4377.435897,4512.307692,4551.282051,4251.282051,4508.205128,4207.692307,4448.205128,4215.897435,4238.461538,4491.794871,4211.794871,4644.615384,4006.153846,4059.487179
251,4380.000000,4515.897435,4552.820512,4250.769230,4506.666666,4201.538461,4449.743589,4218.974358,4234.358974,4485.641025,4208.717948,4648.205128,4007.179487,4063.589743
252,4383.076923,4518.461538,4553.846153,4253.333333,4503.589743,4202.051282,4454.871794,4223.076923,4239.487179,4490.256410,4206.153846,4652.307692,4005.641025,4068.205128
253,4385.128205,4517.948717,4554.871794,4256.923076,4511.794871,4208.205128,4455.897435,4223.589743,4243.589743,4493.846153,4206.666666,4650.256410,4004.615384,4066.666666
254,4385.641025,4516.410256,4554.358974,4258.461538,4518.974358,4212.307692,4457.948717,4223.589743,4242.051282,4496.923076,4219.487179,4648.717948,4007.692307,4066.153846
255,4383.589743,4511.794871,4552.820512,4257.435897,4513.333333,4208.205128,4457.948717,4216.923076,4235.897435,4497.948717,4226.666666,4649.230769,4005.128205,4065.641025
256,4382.051282,4511.282051,4551.794871,4254.358974,4507.692307,4202.051282,4454.358974,4206.666666,4232.307692,4491.794871,4216.410256,4648.205128,3998.974359,4063.076923
257,4386.153846,4521.025641,4554.871794,4252.820512,4518.461538,4212.307692,4455.897435,4210.256410,4238.461538,4491.282051,4212.820512,4651.794871,4009.230769,4068.205128
258,4394.358974,4530.769230,4558.461538,4260.512820,4527.692307,4221.025641,4464.615384,4225.641025,4249.230769,4498.461538,4225.128205,4657.948717,4025.128205,4077.435897
259,4394.358974,4529.230769,4558.974358,4265.128205,4523.076923,4215.384615,4468.717948,4239.487179,4258.974358,4503.589743,4229.743589,4656.410256,4016.410256,4076.923076
