,AF3,F7,F3,FC5,T7,P7,O1,O2,P8,T8,FC6,F4,F8,AF4
0,4391.794871,4513.846153,4507.692307,4304.615384,4427.179487,4170.769230,4425.641025,4241.025641,4271.282051,4473.846153,4212.820512,4638.461538,3941.025642,3974.358975
1,4395.897435,4511.282051,4507.692307,4294.358974,4432.307692,4172.820512,4424.102564,4238.461538,4276.923076,4471.794871,4219.487179,4636.410256,3950.769231,3967.692308
2,4398.974358,4511.794871,4510.256410,4287.692307,4434.871794,4175.897435,4423.589743,4234.358974,4272.307692,4476.410256,4223.076923,4640.000000,3963.589744,3966.153847
3,4402.051282,4513.846153,4513.333333,4301.538461,4433.846153,4175.897435,4423.076923,4237.948717,4274.358974,4485.128205,4216.410256,4649.230769,3962.564103,3970.769231
4,4403.076923,4515.897435,4514.358974,4312.820512,4428.717948,4173.846153,4420.000000,4241.538461,4277.948717,4485.128205,4211.282051,4650.256410,3952.820513,3966.666667
5,4404.102564,4515.897435,4515.384615,4308.717948,4429.230769,4174.358974,4425.641025,4240.000000,4272.820512,4480.000000,4208.717948,4645.641025,3951.794872,3963.076924
6,4405.641025,4513.846153,4522.564102,4305.641025,4436.410256,4176.410256,4437.948717,4243.589743,4272.820512,4482.564102,4217.435897,4649.743589,3956.410257,3967.692308
7,4408.717948,4512.307692,4526.666666,4305.128205,4435.897435,4182.051282,4443.589743,4246.666666,4278.461538,4489.230769,4228.717948,4656.923076,3963.076924,3973.333334
8,4414.871794,4516.923076,4522.564102,4308.717948,4436.410256,4189.743589,4443.589743,4241.025641,4277.435897,4488.717948,4222.051282,4656.923076,3977.435898,3978.461539
9,4413.846153,4522.564102,4517.948717,4318.974358,4443.076923,4186.153846,4440.512820,4240.512820,4275.384615,4480.000000,4214.358974,4654.871794,3980.000000,3978.461539
10,4403.076923,4515.384615,4513.333333,4317.435897,4442.051282,4175.897435,4430.769230,4247.179487,4277.435897,4480.512820,4221.025641,4648.205128,3962.564103,3970.769231
11,4393.333333,4501.538461,4506.153846,4304.615384,4436.410256,4174.358974,4423.589743,4248.205128,4277.435897,4484.102564,4215.384615,4637.948717,3950.256411,3959.487180
12,4389.743589,4496.923076,4500.000000,4300.000000,4434.871794,4179.487179,4430.769230,4245.641025,4273.846153,4473.846153,4202.051282,4634.358974,3949.743590,3951.282052
13,4388.205128,4498.974358,4502.051282,4300.000000,4433.333333,4181.538461,4445.128205,4250.769230,4273.333333,4470.769230,4203.076923,4636.410256,3948.717949,3948.717949
14,4391.282051,4501.025641,4509.743589,4298.974358,4434.871794,4185.128205,4451.794871,4255.384615,4277.435897,4482.564102,4210.256410,4640.000000,3954.358975,3954.358975
15,4398.461538,4508.717948,4512.820512,4306.153846,4440.512820,4186.153846,4445.128205,4248.717948,4277.948717,4483.589743,4216.923076,4643.076923,3960.512821,3963.589744
16,4397.948717,4513.333333,4509.230769,4315.897435,4436.923076,4180.000000,4432.820512,4240.000000,4271.282051,4471.282051,4220.512820,4641.025641,3952.307693,3963.076924
17,4394.871794,4506.666666,4511.282051,4314.358974,4433.333333,4177.948717,4428.205128,4239.487179,4268.205128,4465.128205,4211.282051,4635.897435,3945.641026,3956.410257
18,4392.820512,4500.512820,4513.333333,4305.128205,4434.358974,4180.000000,4428.717948,4237.948717,4268.717948,4470.256410,4199.487179,4634.871794,3951.282052,3955.384616
19,4393.846153,4498.461538,4510.256410,4303.076923,4428.205128,4176.923076,4423.589743,4225.641025,4257.435897,4470.769230,4203.076923,4637.948717,3957.948718,3961.025642
20,4400.000000,4498.461538,4512.820512,4305.641025,4426.666666,4170.769230,4420.512820,4216.410256,4245.641025,4463.589743,4206.666666,4643.076923,3957.948718,3966.666667
21,4407.179487,4507.179487,4520.000000,4306.666666,4437.435897,4173.846153,4430.256410,4223.076923,4257.948717,4467.692307,4211.282051,4649.743589,3954.358975,3969.743590
22,4411.282051,4515.384615,4523.589743,4316.410256,4444.102564,4184.615384,4441.025641,4238.461538,4280.512820,4485.641025,4224.102564,4652.307692,3958.461539,3976.923077
23,4412.820512,4517.948717,4521.538461,4326.153846,4443.589743,4191.282051,4441.538461,4247.692307,4285.128205,4492.307692,4220.000000,4651.282051,3965.128206,3981.538462
24,4408.717948,4518.461538,4515.384615,4316.923076,4442.564102,4188.205128,4437.948717,4246.666666,4274.358974,4478.461538,4208.717948,4648.205128,3961.025642,3974.871795
25,4401.025641,4511.282051,4510.769230,4303.076923,4438.461538,4180.512820,4432.307692,4241.025641,4270.256410,4466.153846,4210.769230,4643.589743,3954.358975,3965.128206
26,4403.076923,4503.589743,4511.794871,4304.615384,4436.410256,4178.461538,4428.717948,4236.923076,4272.307692,4469.743589,4215.384615,4645.641025,3956.923077,3968.717949
27,4409.743589,4508.205128,4514.358974,4312.307692,4439.487179,4180.512820,4432.820512,4238.461538,4273.333333,4475.897435,4212.307692,4649.230769,3959.487180,3977.948718
28,4404.102564,4510.256410,4512.307692,4311.794871,4435.897435,4178.461538,4436.410256,4241.538461,4275.384615,4475.384615,4209.743589,4645.641025,3957.435898,3974.871795
29,4392.307692,4495.897435,4505.641025,4306.666666,4430.256410,4174.358974,4429.230769,4235.384615,4270.256410,4470.769230,4208.717948,4635.897435,3945.641026,3962.051283
30,4385.128205,4488.717948,4497.435897,4298.461538,4429.230769,4174.871794,4424.102564,4224.615384,4254.358974,4459.487179,4201.538461,4626.666666,3927.692308,3951.282052
31,4386.666666,4495.384615,4498.974358,4297.435897,4427.179487,4174.871794,4427.179487,4220.512820,4250.769230,4452.307692,4188.205128,4625.641025,3927.179488,3953.333334
32,4395.384615,4502.564102,4509.743589,4304.615384,4424.615384,4173.846153,4425.128205,4221.025641,4261.025641,4460.000000,4189.743589,4635.897435,3946.153847,3967.179488
33,4404.615384,4503.589743,4517.435897,4309.743589,4429.230769,4177.948717,4423.589743,4223.589743,4262.051282,4470.256410,4215.897435,4651.282051,3961.025642,3982.564103
34,4410.769230,4501.538461,4523.076923,4311.794871,4437.435897,4182.564102,4433.846153,4227.179487,4259.487179,4474.871794,4233.333333,4656.923076,3968.717949,3987.692308
35,4407.179487,4506.153846,4526.153846,4313.846153,4436.410256,4180.512820,4438.974358,4231.794871,4266.666666,4478.974358,4228.717948,4652.820512,3972.820513,3980.000000
36,4401.025641,4513.333333,4516.923076,4314.358974,4432.307692,4181.025641,4434.358974,4235.897435,4271.794871,4482.051282,4223.076923,4646.666666,3968.205129,3975.384616
37,4402.051282,4514.871794,4511.794871,4314.358974,4436.410256,4186.666666,4437.948717,4240.000000,4269.743589,4483.076923,4222.051282,4645.641025,3964.615385,3984.102565
38,4408.205128,4507.692307,4517.948717,4316.410256,4440.512820,4187.179487,4441.025641,4242.051282,4270.256410,4485.128205,4224.102564,4647.692307,3965.128206,3990.256411
39,4404.102564,4498.974358,4516.410256,4311.794871,4432.307692,4179.487179,4432.307692,4241.538461,4271.794871,4479.487179,4222.051282,4646.666666,3957.948718,3984.102565
40,4396.410256,4492.820512,4508.205128,4303.589743,4425.128205,4174.871794,4428.205128,4242.051282,4267.692307,4477.435897,4213.333333,4646.153846,3953.333334,3977.948718
41,4392.307692,4488.717948,4507.692307,4303.076923,4426.153846,4176.923076,4431.794871,4242.051282,4261.025641,4483.076923,4211.282051,4646.153846,3957.435898,3975.384616
42,4386.153846,4489.230769,4507.179487,4299.487179,4424.102564,4175.384615,4429.230769,4233.333333,4253.846153,4474.871794,4212.820512,4639.487179,3952.307693,3968.205129
43,4388.205128,4494.358974,4507.692307,4301.025641,4424.615384,4168.717948,4420.000000,4224.102564,4245.641025,4461.538461,4205.641025,4632.307692,3947.179488,3969.230770
44,4401.538461,4504.102564,4513.846153,4318.461538,4429.743589,4168.205128,4418.461538,4225.641025,4249.230769,4461.025641,4203.076923,4634.871794,3953.846154,3980.000000
45,4407.692307,4505.641025,4518.461538,4321.538461,4427.179487,4170.769230,4421.025641,4225.641025,4255.384615,4463.589743,4207.692307,4639.487179,3953.846154,3984.102565
46,4402.051282,4502.051282,4516.410256,4305.641025,4423.076923,4170.256410,4419.487179,4215.897435,4245.128205,4462.051282,4207.179487,4636.923076,3946.666667,3983.076924
47,4395.897435,4501.538461,4513.333333,4303.076923,4425.128205,4172.307692,4424.102564,4217.435897,4239.487179,4463.589743,4208.205128,4634.871794,3951.282052,3984.102565
48,4393.846153,4496.923076,4514.871794,4311.282051,4429.743589,4176.410256,4433.333333,4231.282051,4251.794871,4466.666666,4211.282051,4636.923076,3952.820513,3982.564103
49,4396.410256,4493.333333,4515.384615,4310.256410,4431.282051,4177.435897,4433.846153,4236.410256,4262.051282,4472.820512,4211.282051,4637.948717,3941.538462,3980.512821
50,4401.538461,4495.384615,4517.948717,4310.769230,4430.256410,4174.871794,4430.769230,4236.923076,4263.076923,4478.974358,4211.794871,4643.076923,3942.564103,3986.153847
51,4407.179487,4504.102564,4524.102564,4316.923076,4429.743589,4174.358974,4432.820512,4242.564102,4264.615384,4474.871794,4211.794871,4649.230769,3958.461539,3994.871795
52,4406.153846,4505.641025,4525.128205,4315.384615,4428.205128,4176.923076,4434.871794,4243.076923,4264.615384,4467.692307,4208.205128,4644.615384,3959.487180,3995.897436
53,4397.948717,4496.410256,4521.025641,4310.769230,4428.205128,4178.461538,4431.794871,4236.410256,4261.538461,4469.743589,4207.692307,4637.435897,3950.256411,3988.717949
54,4394.871794,4496.410256,4516.410256,4308.205128,4433.846153,4178.974358,4432.820512,4235.897435,4261.538461,4469.230769,4206.153846,4638.974358,3949.743590,3985.128206
55,4394.358974,4500.000000,4515.384615,4303.589743,4438.461538,4180.000000,4437.435897,4236.410256,4254.871794,4460.000000,4194.871794,4637.948717,3949.230770,3986.666667
56,4386.153846,4494.358974,4512.820512,4302.564102,4433.846153,4179.487179,4436.923076,4232.820512,4244.102564,4458.461538,4196.923076,4629.743589,3942.564103,3982.564103
57,4382.564102,4489.230769,4510.256410,4310.256410,4429.230769,4178.461538,4435.897435,4231.794871,4245.128205,4465.641025,4206.666666,4630.769230,3934.871795,3980.512821
58,4388.205128,4493.846153,4512.820512,4311.794871,4429.230769,4178.461538,4436.410256,4227.692307,4248.205128,4464.615384,4195.384615,4636.923076,3935.384616,3983.589744
59,4390.769230,4498.974358,4516.410256,4304.615384,4427.692307,4181.025641,4435.897435,4223.589743,4240.000000,4454.358974,4188.205128,4634.358974,3944.615385,3986.666667
60,4385.641025,4496.410256,4514.871794,4304.102564,4425.641025,4184.615384,4435.384615,4228.717948,4238.974358,4448.717948,4205.641025,4631.794871,3949.743590,3985.641026
61,4385.641025,4495.897435,4512.307692,4310.769230,4429.743589,4187.179487,4442.051282,4238.461538,4256.410256,4457.948717,4215.897435,4635.897435,3949.743590,3986.666667
62,4392.307692,4499.487179,4516.923076,4315.897435,4438.974358,4188.717948,4449.743589,4243.589743,4265.128205,4474.358974,4207.179487,4637.948717,3954.358975,3992.820513
63,4392.820512,4497.435897,4521.025641,4316.410256,4437.435897,4188.205128,4449.743589,4243.589743,4257.948717,4479.487179,4207.692307,4635.384615,3956.410257,3994.358975
64,4390.769230,4494.871794,4518.974358,4316.923076,4432.820512,4190.256410,4448.717948,4243.589743,4261.538461,4473.846153,4220.512820,4636.923076,3953.333334,3994.358975
65,4392.307692,4500.000000,4517.948717,4315.384615,4435.897435,4190.256410,4447.179487,4245.128205,4270.769230,4471.282051,4224.102564,4641.025641,3954.358975,3998.461539
66,4389.230769,4499.487179,4517.948717,4311.282051,4434.358974,4184.102564,4443.589743,4247.179487,4268.717948,4471.282051,4211.794871,4639.487179,3951.282052,3998.461539
67,4385.128205,4492.820512,4515.384615,4310.769230,4430.769230,4180.000000,4441.025641,4245.641025,4261.025641,4463.589743,4206.666666,4635.897435,3943.076924,3993.846154
68,4385.641025,4490.769230,4516.410256,4313.846153,4432.307692,4181.025641,4441.025641,4242.564102,4256.923076,4459.487179,4208.717948,4634.358974,3945.128206,3992.820513
69,4380.000000,4479.487179,4518.461538,4311.794871,4429.230769,4180.000000,4440.512820,4243.076923,4251.794871,4466.666666,4201.538461,4633.333333,3949.743590,3990.256411
70,4371.282051,4469.743589,4515.897435,4304.102564,4423.076923,4175.384615,4437.948717,4235.384615,4242.564102,4464.102564,4192.820512,4629.743589,3940.512821,3982.564103
71,4374.871794,4482.051282,4514.358974,4303.076923,4426.666666,4175.384615,4433.333333,4218.974358,4230.256410,4448.205128,4194.358974,4627.692307,3926.153847,3981.538462
72,4385.128205,4496.923076,4519.487179,4311.282051,4430.769230,4179.487179,4434.358974,4217.435897,4229.230769,4449.743589,4201.538461,4631.282051,3929.230770,3990.256411
73,4391.282051,4504.615384,4528.717948,4320.000000,4434.358974,4185.641025,4441.538461,4236.410256,4248.205128,4467.179487,4212.307692,4640.512820,3942.051283,4002.051282
74,4391.794871,4512.307692,4530.256410,4320.512820,4438.974358,4191.282051,4443.076923,4247.179487,4263.589743,4471.794871,4214.358974,4645.128205,3945.641026,4005.128205
75,4387.692307,4508.205128,4523.076923,4314.871794,4437.948717,4190.769230,4439.487179,4241.025641,4256.923076,4464.615384,4201.538461,4638.974358,3944.615385,3998.974359
76,4385.641025,4500.512820,4516.923076,4314.358974,4434.871794,4187.179487,4440.000000,4238.461538,4249.743589,4467.179487,4203.589743,4631.282051,3942.564103,4000.000000
77,4389.743589,4509.230769,4518.974358,4315.897435,4436.923076,4185.641025,4440.512820,4244.615384,4257.435897,4472.307692,4221.025641,4632.307692,3942.564103,4009.230769
78,4390.256410,4523.589743,4525.641025,4315.897435,4435.384615,4184.102564,4436.923076,4247.179487,4264.102564,4469.230769,4217.948717,4635.384615,3946.666667,4009.743589
79,4389.230769,4526.666666,4528.717948,4317.435897,4432.307692,4183.589743,4437.948717,4249.743589,4262.051282,4466.666666,4205.128205,4637.435897,3944.102565,4008.717948
80,4389.230769,4523.076923,4523.076923,4311.794871,4435.897435,4184.615384,4442.564102,4252.307692,4254.871794,4468.205128,4204.102564,4636.410256,3931.282052,4009.743589
81,4383.589743,4522.564102,4515.897435,4303.589743,4435.384615,4181.538461,4440.000000,4245.128205,4246.153846,4459.487179,4198.461538,4631.794871,3923.589744,4004.102564
82,4377.948717,4522.051282,4515.384615,4308.205128,4431.794871,4181.538461,4435.384615,4237.435897,4246.153846,4451.282051,4189.230769,4626.153846,3924.102565,3998.461539
83,4374.871794,4516.923076,4514.358974,4313.333333,4431.282051,4185.641025,4436.410256,4237.435897,4245.128205,4454.358974,4189.743589,4625.641025,3915.897436,3999.487180
84,4372.307692,4513.333333,4508.205128,4303.076923,4430.256410,4181.538461,4436.410256,4233.846153,4236.923076,4449.743589,4189.743589,4625.641025,3908.205129,4001.538461
85,4375.897435,4522.564102,4507.692307,4297.435897,4431.794871,4180.512820,4437.435897,4233.333333,4237.948717,4443.589743,4188.717948,4625.641025,3921.025642,4005.128205
86,4379.487179,4528.205128,4511.794871,4304.102564,4436.410256,4187.692307,4437.435897,4241.538461,4246.666666,4451.794871,4190.256410,4627.692307,3933.333334,4012.307692
87,4374.358974,4517.435897,4510.256410,4303.589743,4434.871794,4188.717948,4433.846153,4243.589743,4245.641025,4458.461538,4187.692307,4622.564102,3927.179488,4011.794871
88,4375.897435,4515.897435,4510.256410,4306.666666,4431.794871,4185.128205,4434.358974,4242.051282,4244.102564,4453.333333,4193.333333,4618.974358,3923.076924,4007.692307
89,4384.102564,4527.692307,4514.871794,4314.358974,4436.410256,4185.641025,4435.897435,4246.666666,4249.230769,4452.307692,4202.051282,4626.153846,3926.153847,4011.794871
90,4384.102564,4527.692307,4515.897435,4307.692307,4440.000000,4186.153846,4432.820512,4247.692307,4251.794871,4456.410256,4204.615384,4630.256410,3924.102565,4019.487179
91,4384.615384,4521.025641,4516.923076,4306.153846,4440.512820,4186.153846,4433.333333,4248.205128,4253.333333,4459.487179,4205.128205,4630.769230,3928.205129,4022.051282
92,4390.256410,4524.102564,4521.538461,4320.512820,4441.025641,4190.256410,4437.435897,4251.794871,4257.948717,4467.179487,4198.974358,4635.384615,3931.282052,4020.512820
93,4391.282051,4525.128205,4522.051282,4321.025641,4441.538461,4191.794871,4438.461538,4248.205128,4255.897435,4468.717948,4192.820512,4637.948717,3928.205129,4021.025641
94,4386.153846,4521.025641,4516.923076,4309.230769,4437.435897,4186.666666,4436.410256,4235.384615,4245.128205,4455.384615,4200.000000,4632.307692,3934.358975,4022.051282
95,4383.076923,4522.564102,4512.307692,4313.846153,4429.230769,4182.051282,4434.358974,4228.717948,4238.461538,4448.717948,4206.666666,4628.205128,3937.948718,4023.076923
96,4386.153846,4522.564102,4512.307692,4323.076923,4429.743589,4183.589743,4434.871794,4232.820512,4243.589743,4457.435897,4204.102564,4634.871794,3928.717949,4026.153846
97,4393.846153,4523.589743,4517.948717,4320.512820,4444.615384,4191.282051,4442.564102,4241.538461,4251.282051,4463.076923,4205.128205,4644.102564,3932.820513,4029.743589
98,4395.897435,4530.769230,4520.512820,4319.487179,4446.666666,4193.333333,4444.102564,4242.051282,4253.333333,4463.076923,4202.564102,4643.076923,3940.000000,4028.717948
99,4390.769230,4534.358974,4515.897435,4321.025641,4438.974358,4185.128205,4433.846153,4232.307692,4247.179487,4462.564102,4195.384615,4637.435897,3931.282052,4026.153846
100,4391.282051,4533.846153,4513.333333,4323.589743,4443.589743,4180.000000,4430.256410,4229.743589,4245.128205,4462.051282,4204.615384,4636.923076,3932.307693,4029.230769
101,4395.384615,4530.769230,4515.897435,4327.179487,4447.692307,4184.615384,4436.410256,4236.923076,4253.846153,4465.641025,4213.846153,4637.948717,3944.102565,4031.282051
102,4393.333333,4523.589743,4516.923076,4331.282051,4441.025641,4188.717948,4440.512820,4239.487179,4260.512820,4469.230769,4206.153846,4636.410256,3941.025642,4029.743589
103,4390.769230,4523.076923,4517.948717,4330.769230,4437.948717,4186.153846,4440.512820,4237.948717,4258.974358,4466.666666,4202.051282,4635.384615,3934.358975,4029.230769
104,4389.743589,4527.179487,4520.000000,4326.666666,4442.564102,4188.717948,4442.051282,4239.487179,4254.871794,4464.102564,4209.743589,4634.871794,3936.410257,4028.205128
105,4387.692307,4520.000000,4519.487179,4326.666666,4446.666666,4193.333333,4444.615384,4238.461538,4250.769230,4462.564102,4215.897435,4633.333333,3940.512821,4026.153846
106,4390.769230,4520.512820,4524.615384,4327.179487,4446.153846,4193.846153,4448.205128,4236.923076,4253.333333,4462.051282,4213.846153,4640.000000,3946.666667,4032.307692
107,4396.410256,4527.692307,4533.846153,4324.615384,4442.564102,4192.820512,4449.230769,4242.051282,4261.025641,4467.179487,4209.743589,4647.692307,3949.743590,4038.461538
108,4392.820512,4514.358974,4528.717948,4325.128205,4441.538461,4186.153846,4445.641025,4238.974358,4258.461538,4472.307692,4213.333333,4645.128205,3937.435898,4031.794871
109,4386.666666,4503.589743,4516.410256,4325.641025,4438.974358,4178.974358,4441.538461,4225.641025,4245.641025,4464.102564,4212.307692,4635.384615,3923.076924,4023.589743
110,4387.692307,4514.871794,4512.820512,4321.538461,4432.307692,4180.512820,4439.487179,4221.538461,4239.487179,4451.794871,4195.897435,4630.769230,3931.794872,4023.076923
111,4389.230769,4517.435897,4513.333333,4320.000000,4432.307692,4182.564102,4438.461538,4224.102564,4241.538461,4449.743589,4187.179487,4632.307692,3945.128206,4022.564102
112,4385.641025,4509.743589,4510.256410,4317.948717,4436.410256,4178.461538,4437.948717,4220.512820,4241.025641,4451.282051,4192.820512,4631.794871,3935.897436,4019.487179
113,4385.641025,4511.794871,4513.846153,4313.846153,4432.307692,4177.435897,4437.948717,4223.076923,4245.641025,4450.256410,4192.820512,4631.282051,3926.666667,4020.512820
114,4390.769230,4512.820512,4519.487179,4318.974358,4427.179487,4177.435897,4438.974358,4236.923076,4261.025641,4454.358974,4198.461538,4633.846153,3935.384616,4029.230769
115,4394.358974,4512.307692,4520.512820,4326.666666,4431.282051,4176.923076,4442.051282,4244.615384,4271.282051,4462.051282,4213.333333,4641.538461,3943.589744,4036.410256
116,4391.282051,4508.717948,4523.076923,4318.461538,4433.333333,4176.410256,4441.538461,4236.923076,4260.512820,4458.461538,4209.743589,4641.025641,3937.435898,4033.333333
117,4383.589743,4498.461538,4523.589743,4308.717948,4427.692307,4174.871794,4434.358974,4225.128205,4243.589743,4450.256410,4194.871794,4632.307692,3925.641026,4025.128205
118,4382.051282,4500.512820,4519.487179,4315.897435,4428.205128,4175.384615,4432.820512,4225.128205,4238.974358,4446.153846,4190.256410,4631.282051,3923.589744,4024.615384
119,4385.641025,4512.307692,4518.461538,4317.948717,4433.333333,4175.384615,4435.897435,4227.179487,4243.076923,4442.564102,4187.692307,4636.923076,3932.307693,4025.641025
120,4389.743589,4513.846153,4521.025641,4314.358974,4434.871794,4173.846153,4438.974358,4224.102564,4246.666666,4446.153846,4186.666666,4640.512820,3936.410257,4027.179487
121,4389.743589,4513.333333,4521.025641,4321.538461,4436.410256,4177.435897,4440.000000,4225.641025,4246.666666,4454.358974,4186.153846,4639.487179,3932.307693,4031.794871
122,4384.102564,4509.230769,4516.410256,4322.051282,4434.871794,4179.487179,4437.435897,4225.641025,4244.615384,4451.794871,4183.076923,4634.871794,3927.179488,4027.692307
123,4379.487179,4502.051282,4512.820512,4311.282051,4431.794871,4175.897435,4434.358974,4220.512820,4242.564102,4442.051282,4187.692307,4627.692307,3925.128206,4019.487179
124,4385.641025,4508.205128,4515.897435,4315.897435,4436.410256,4178.974358,4436.410256,4227.179487,4247.692307,4447.179487,4197.435897,4630.256410,3928.205129,4026.666666
125,4393.846153,4515.897435,4521.538461,4329.230769,4439.487179,4187.179487,4445.641025,4238.974358,4257.435897,4461.538461,4204.615384,4638.461538,3928.717949,4036.923076
126,4393.846153,4510.769230,4520.512820,4324.615384,4435.897435,4185.641025,4449.743589,4241.025641,4265.641025,4462.564102,4209.230769,4638.461538,3928.717949,4031.282051
127,4390.256410,4505.641025,4516.410256,4311.794871,4433.846153,4180.512820,4444.102564,4241.538461,4270.769230,4456.410256,4193.333333,4636.923076,3937.948718,4025.128205
128,4386.153846,4504.102564,4513.846153,4310.769230,4432.820512,4180.512820,4436.923076,4241.538461,4265.128205,4449.743589,4171.282051,4634.871794,3941.025642,4026.153846
129,4381.538461,4501.025641,4510.769230,4316.410256,4432.307692,4179.487179,4435.897435,4233.333333,4251.282051,4445.641025,4181.025641,4631.794871,3931.794872,4026.666666
130,4379.487179,4498.974358,4512.820512,4319.487179,4435.384615,4178.461538,4436.410256,4226.666666,4249.230769,4449.230769,4201.025641,4634.358974,3931.282052,4027.179487
131,4384.615384,4497.948717,4514.871794,4315.897435,4435.384615,4180.512820,4434.358974,4226.153846,4256.410256,4452.307692,4197.435897,4637.948717,3938.974359,4027.179487
132,4387.692307,4500.512820,4513.333333,4311.794871,4430.769230,4178.461538,4432.820512,4224.102564,4254.358974,4450.256410,4192.820512,4637.435897,3933.846154,4027.179487
133,4386.666666,4505.641025,4514.871794,4309.743589,4431.282051,4178.974358,4434.358974,4224.102564,4248.717948,4454.358974,4195.897435,4636.923076,3918.974359,4030.256410
134,4382.051282,4496.410256,4516.923076,4306.153846,4433.333333,4182.564102,4436.410256,4224.102564,4245.128205,4454.358974,4191.282051,4635.384615,3917.948718,4028.717948
135,4372.307692,4482.051282,4509.743589,4303.076923,4432.820512,4177.435897,4431.794871,4215.897435,4235.897435,4435.897435,4180.000000,4626.153846,3931.794872,4020.000000
136,4367.692307,4488.717948,4501.538461,4304.102564,4430.256410,4171.282051,4426.153846,4211.282051,4232.820512,4429.743589,4174.871794,4621.538461,3935.384616,4014.871794
137,4377.435897,4498.461538,4505.128205,4308.717948,4426.666666,4173.846153,4429.743589,4223.076923,4246.666666,4445.641025,4183.076923,4629.743589,3929.230770,4021.538461
138,4383.076923,4492.820512,4511.794871,4311.282051,4425.128205,4178.461538,4433.846153,4234.358974,4259.487179,4454.871794,4192.307692,4634.871794,3927.179488,4029.230769
139,4374.358974,4481.538461,4508.205128,4303.589743,4424.102564,4177.948717,4429.743589,4228.717948,4256.410256,4450.256410,4184.102564,4628.205128,3917.948718,4022.051282
140,4372.820512,4485.128205,4504.615384,4299.487179,4426.666666,4176.923076,4427.692307,4224.615384,4253.333333,4447.179487,4176.923076,4624.102564,3912.307693,4012.820512
141,4383.589743,4500.512820,4513.333333,4312.820512,4432.307692,4178.974358,4434.358974,4234.358974,4258.974358,4450.769230,4192.307692,4632.307692,3925.128206,4021.025641
142,4381.025641,4497.948717,4516.923076,4319.487179,4427.692307,4178.461538,4435.384615,4232.307692,4254.358974,4442.051282,4200.512820,4634.871794,3923.076924,4025.641025
143,4369.743589,4476.410256,4504.102564,4310.256410,4420.000000,4172.820512,4428.205128,4216.923076,4241.025641,4427.692307,4181.025641,4623.076923,3909.230770,4014.358974
144,4370.769230,4471.794871,4496.410256,4304.615384,4424.102564,4173.333333,4426.666666,4214.358974,4244.615384,4431.794871,4165.128205,4616.923076,3917.435898,4010.256410
145,4374.871794,4484.102564,4501.538461,4305.641025,4423.589743,4177.435897,4427.692307,4222.051282,4251.282051,4446.153846,4173.846153,4620.512820,3923.076924,4014.358974
146,4369.230769,4479.487179,4499.487179,4305.128205,4411.794871,4171.282051,4426.153846,4221.025641,4245.128205,4447.179487,4187.179487,4618.974358,3909.743590,4012.307692
147,4365.641025,4469.743589,4497.435897,4305.128205,4411.282051,4164.102564,4426.153846,4218.974358,4244.615384,4442.051282,4181.025641,4615.384615,3911.282052,4009.743589
148,4366.666666,4476.410256,4502.564102,4305.128205,4421.025641,4171.794871,4428.205128,4222.564102,4247.179487,4437.948717,4168.717948,4615.897435,3921.025642,4011.282051
149,4366.666666,4483.589743,4507.692307,4306.153846,4425.128205,4180.512820,4431.282051,4222.051282,4242.564102,4435.384615,4182.564102,4616.410256,3911.282052,4010.256410
150,4373.333333,4484.615384,4508.717948,4308.717948,4426.666666,4181.025641,4433.333333,4225.641025,4244.615384,4441.538461,4199.487179,4621.538461,3906.153847,4013.333333
151,4374.358974,4481.538461,4505.128205,4305.641025,4426.666666,4177.948717,4429.743589,4227.692307,4251.282051,4444.615384,4182.564102,4623.589743,3917.435898,4014.871794
152,4362.564102,4472.820512,4497.435897,4302.564102,4423.076923,4174.871794,4421.538461,4218.461538,4242.564102,4435.384615,4158.974358,4613.333333,3915.384616,4005.641025
153,4353.846153,4464.615384,4489.743589,4302.564102,4422.051282,4173.846153,4423.589743,4210.769230,4230.256410,4428.717948,4163.076923,4607.179487,3902.564103,3999.487180
154,4355.384615,4465.641025,4490.769230,4303.076923,4425.641025,4175.384615,4432.820512,4217.435897,4235.384615,4432.820512,4171.282051,4614.358974,3904.615385,4004.102564
155,4363.076923,4474.358974,4496.923076,4302.051282,4428.717948,4177.435897,4435.384615,4226.153846,4247.179487,4435.384615,4172.820512,4620.000000,3912.820513,4008.717948
156,4371.794871,4483.076923,4503.076923,4301.538461,4431.794871,4178.974358,4431.282051,4225.128205,4249.743589,4440.000000,4186.666666,4625.128205,3918.461539,4014.358974
157,4374.358974,4487.179487,4506.666666,4306.153846,4432.307692,4176.410256,4426.666666,4216.410256,4244.102564,4446.666666,4193.846153,4630.256410,3922.051283,4021.538461
158,4375.384615,4486.153846,4508.717948,4312.820512,4430.769230,4174.358974,4425.128205,4210.769230,4237.948717,4444.615384,4187.179487,4630.256410,3920.000000,4021.538461
159,4380.512820,4483.589743,4512.307692,4316.923076,4429.230769,4177.435897,4429.230769,4212.820512,4241.025641,4444.102564,4192.307692,4630.256410,3922.564103,4022.051282
160,4383.076923,4485.128205,4514.871794,4321.538461,4432.307692,4179.487179,4433.333333,4213.333333,4248.205128,4449.230769,4201.025641,4633.846153,3933.846154,4026.666666
161,4382.564102,4492.820512,4512.820512,4320.000000,4438.974358,4177.948717,4432.307692,4214.871794,4248.717948,4447.692307,4190.256410,4632.820512,3933.846154,4027.179487
162,4377.948717,4491.794871,4510.256410,4310.769230,4437.435897,4176.923076,4426.666666,4219.487179,4247.692307,4436.410256,4178.974358,4625.641025,3920.512821,4023.076923
163,4375.384615,4484.102564,4506.666666,4310.769230,4430.769230,4175.897435,4424.102564,4216.410256,4253.333333,4437.435897,4181.025641,4622.051282,3913.333334,4020.512820
164,4378.461538,4485.641025,4505.128205,4316.410256,4433.333333,4174.871794,4427.692307,4212.307692,4251.794871,4451.794871,4182.051282,4623.076923,3922.051283,4021.025641
165,4376.923076,4486.666666,4507.692307,4311.794871,4437.948717,4174.358974,4428.205128,4214.871794,4242.051282,4455.897435,4184.615384,4625.128205,3931.282052,4021.538461
166,4374.871794,4486.666666,4510.769230,4312.307692,4435.384615,4175.897435,4425.128205,4213.846153,4242.051282,4447.692307,4194.871794,4626.153846,3926.153847,4021.025641
167,4375.384615,4489.230769,4506.153846,4312.307692,4429.230769,4170.769230,4420.512820,4208.717948,4243.589743,4437.948717,4200.000000,4622.051282,3914.871795,4017.948717
168,4372.820512,4485.641025,4498.461538,4305.128205,4424.615384,4163.589743,4419.487179,4207.692307,4239.487179,4438.461538,4195.897435,4616.410256,3917.435898,4016.410256
169,4376.410256,4484.615384,4503.589743,4311.282051,4431.794871,4169.230769,4427.692307,4213.846153,4248.205128,4445.641025,4193.333333,4622.564102,3935.384616,4024.615384
170,4385.641025,4492.820512,4511.794871,4321.538461,4441.538461,4176.923076,4430.769230,4220.512820,4256.410256,4451.282051,4192.307692,4632.307692,3944.102565,4033.333333
171,4383.076923,4497.435897,4510.256410,4318.974358,4439.487179,4172.307692,4425.128205,4217.948717,4251.794871,4457.948717,4189.230769,4630.256410,3937.435898,4028.717948
172,4378.461538,4497.435897,4507.692307,4317.435897,4437.948717,4169.230769,4424.102564,4212.307692,4250.256410,4461.538461,4193.333333,4628.205128,3932.820513,4025.641025
173,4381.025641,4499.487179,4509.230769,4314.871794,4437.435897,4171.794871,4426.666666,4214.871794,4255.384615,4456.410256,4197.435897,4630.769230,3928.205129,4027.692307
174,4381.538461,4501.025641,4507.179487,4312.307692,4433.333333,4172.307692,4429.230769,4224.102564,4258.974358,4450.256410,4198.461538,4631.794871,3918.461539,4028.717948
175,4378.461538,4500.000000,4500.512820,4315.384615,4436.923076,4174.358974,4433.846153,4224.102564,4254.871794,4449.230769,4192.820512,4630.256410,3917.948718,4030.256410
176,4376.410256,4502.564102,4500.000000,4309.743589,4443.076923,4172.307692,4431.794871,4219.487179,4251.282051,4449.230769,4182.051282,4628.717948,3928.717949,4029.230769
177,4380.512820,4505.641025,4505.128205,4302.051282,4439.487179,4169.230769,4427.179487,4229.230769,4258.974358,4457.948717,4182.564102,4628.717948,3937.435898,4031.282051
178,4388.717948,4512.307692,4512.307692,4308.717948,4436.923076,4173.333333,4431.794871,4243.589743,4270.769230,4468.205128,4194.358974,4634.358974,3933.846154,4043.076923
179,4391.794871,4525.641025,4514.358974,4315.897435,4444.615384,4175.897435,4434.358974,4243.589743,4267.692307,4467.692307,4202.051282,4641.538461,3924.102565,4050.256410
180,4393.846153,4535.384615,4512.820512,4317.948717,4444.102564,4174.358974,4432.307692,4234.871794,4262.051282,4468.205128,4204.102564,4643.076923,3923.589744,4051.282051
181,4401.025641,4532.820512,4517.435897,4324.615384,4443.076923,4175.897435,4432.820512,4231.794871,4265.128205,4468.717948,4205.641025,4644.102564,3935.897436,4056.923076
182,4405.128205,4531.282051,4520.512820,4325.128205,4445.641025,4177.948717,4432.820512,4234.358974,4268.717948,4462.564102,4193.846153,4646.153846,3946.153847,4063.076923
183,4404.615384,4542.051282,4519.487179,4319.487179,4444.615384,4175.897435,4432.820512,4238.461538,4271.282051,4464.102564,4188.717948,4648.717948,3943.589744,4067.179487
184,4405.128205,4546.153846,4517.435897,4319.487179,4446.153846,4173.333333,4430.769230,4238.974358,4268.717948,4472.820512,4204.615384,4647.692307,3934.871795,4067.692307
185,4404.615384,4534.871794,4512.307692,4323.589743,4446.153846,4169.743589,4424.102564,4230.769230,4256.410256,4468.717948,4206.153846,4641.538461,3929.743590,4061.538461
186,4401.025641,4530.769230,4509.743589,4324.615384,4442.564102,4164.615384,4418.974358,4226.153846,4251.794871,4463.589743,4197.948717,4641.538461,3932.307693,4060.512820
187,4401.025641,4534.871794,4511.282051,4318.461538,4443.076923,4166.666666,4418.974358,4226.666666,4257.948717,4468.717948,4194.871794,4643.589743,3935.897436,4065.128205
188,4400.000000,4532.307692,4509.743589,4312.307692,4445.641025,4170.256410,4421.025641,4226.153846,4257.435897,4462.051282,4187.692307,4638.461538,3931.282052,4060.512820
189,4394.871794,4527.692307,4508.717948,4309.743589,4445.128205,4168.205128,4421.538461,4229.230769,4255.384615,4448.717948,4179.487179,4634.871794,3926.153847,4055.384615
190,4395.384615,4527.179487,4517.435897,4307.692307,4441.538461,4164.102564,4423.076923,4234.871794,4258.974358,4453.333333,4181.538461,4640.000000,3926.153847,4058.974358
191,4400.512820,4526.153846,4521.538461,4308.717948,4442.564102,4162.564102,4422.564102,4233.333333,4256.923076,4465.128205,4186.153846,4643.589743,3930.256411,4061.538461
192,4402.564102,4527.692307,4519.487179,4314.871794,4445.641025,4163.589743,4420.000000,4224.615384,4251.794871,4464.102564,4194.358974,4639.487179,3934.871795,4062.564102
193,4399.487179,4530.769230,4522.564102,4316.410256,4444.615384,4164.615384,4421.025641,4218.461538,4250.769230,4456.923076,4198.461538,4635.384615,3930.256411,4063.076923
194,4398.974358,4529.230769,4525.641025,4317.435897,4442.564102,4163.589743,4422.051282,4219.487179,4255.897435,4455.384615,4188.717948,4636.410256,3926.666667,4064.102564
195,4404.615384,4530.769230,4527.692307,4316.923076,4442.564102,4161.538461,4420.000000,4226.153846,4258.974358,4455.897435,4188.205128,4642.051282,3937.948718,4068.717948
196,4405.641025,4532.307692,4527.179487,4306.153846,4443.076923,4160.000000,4416.923076,4226.666666,4254.871794,4453.846153,4195.384615,4640.512820,3942.051283,4069.743589
197,4399.487179,4528.205128,4522.564102,4303.589743,4442.564102,4157.948717,4416.923076,4225.641025,4250.256410,4456.410256,4189.230769,4637.435897,3925.128206,4063.076923
198,4398.974358,4528.205128,4521.538461,4311.794871,4442.051282,4160.000000,4422.051282,4234.358974,4254.358974,4462.051282,4187.179487,4643.076923,3921.538462,4062.564102
199,4405.641025,4529.230769,4523.589743,4309.230769,4443.076923,4165.128205,4431.282051,4241.025641,4262.051282,4464.102564,4193.846153,4647.692307,3940.000000,4069.743589
200,4406.666666,4525.641025,4519.487179,4304.102564,4445.641025,4165.641025,4431.794871,4234.871794,4266.153846,4464.102564,4190.256410,4644.615384,3946.666667,4071.794871
201,4403.589743,4526.153846,4512.307692,4305.128205,4448.205128,4161.025641,4424.615384,4227.179487,4265.128205,4463.076923,4190.769230,4644.615384,3942.051283,4069.743589
202,4403.589743,4528.205128,4512.820512,4299.487179,4444.102564,4156.410256,4424.102564,4228.205128,4262.564102,4464.615384,4205.128205,4645.641025,3946.153847,4068.205128
203,4406.153846,4527.692307,4521.025641,4300.512820,4446.153846,4156.923076,4424.102564,4233.333333,4263.076923,4471.282051,4207.692307,4644.615384,3950.769231,4069.230769
204,4409.230769,4532.820512,4525.641025,4314.358974,4451.282051,4161.538461,4425.128205,4231.794871,4266.666666,4473.333333,4197.948717,4645.641025,3944.102565,4074.871794
205,4409.743589,4533.333333,4520.000000,4317.948717,4454.358974,4162.051282,4428.205128,4223.076923,4261.025641,4465.128205,4196.923076,4646.153846,3936.923077,4072.820512
206,4405.641025,4524.615384,4514.358974,4307.692307,4451.794871,4158.461538,4426.153846,4218.974358,4250.256410,4457.948717,4194.358974,4643.589743,3941.025642,4066.666666
207,4403.589743,4522.051282,4516.923076,4303.589743,4446.666666,4160.000000,4428.717948,4226.666666,4253.846153,4460.000000,4191.794871,4642.564102,3950.769231,4068.205128
208,4406.153846,4529.230769,4518.974358,4305.641025,4452.820512,4164.615384,4438.974358,4232.307692,4267.692307,4463.589743,4199.487179,4645.128205,3949.743590,4069.230769
209,4403.076923,4530.769230,4514.871794,4306.153846,4454.871794,4160.512820,4435.897435,4224.102564,4266.153846,4464.102564,4199.487179,4644.102564,3934.871795,4064.102564
210,4397.948717,4526.666666,4517.435897,4311.282051,4446.153846,4158.974358,4426.153846,4215.897435,4259.487179,4466.153846,4189.230769,4639.487179,3930.769231,4062.564102
211,4402.051282,4525.641025,4524.102564,4313.846153,4446.666666,4161.025641,4424.615384,4215.897435,4258.974358,4465.641025,4188.205128,4642.051282,3939.487180,4066.153846
212,4408.205128,4527.179487,4522.564102,4306.666666,4453.333333,4155.384615,4422.564102,4215.897435,4258.461538,4465.128205,4198.974358,4649.743589,3943.589744,4070.769230
213,4408.717948,4527.179487,4520.000000,4302.564102,4449.743589,4152.820512,4420.000000,4218.974358,4258.974358,4467.179487,4208.717948,4653.333333,3946.153847,4075.897435
214,4408.205128,4527.179487,4528.717948,4307.692307,4445.128205,4158.461538,4427.692307,4224.102564,4258.974358,4462.051282,4214.871794,4652.820512,3949.743590,4078.461538
215,4408.205128,4526.666666,4530.256410,4307.692307,4449.743589,4158.974358,4430.769230,4226.153846,4257.435897,4453.846153,4206.666666,4649.230769,3942.051283,4076.410256
216,4402.564102,4523.589743,4517.948717,4303.076923,4445.128205,4152.820512,4423.589743,4227.692307,4260.000000,4458.461538,4190.256410,4643.076923,3931.282052,4068.205128
217,4405.641025,4525.641025,4520.512820,4307.179487,4442.051282,4154.871794,4425.128205,4237.948717,4271.794871,4473.846153,4197.435897,4646.153846,3940.000000,4070.769230
218,4418.461538,4534.358974,4534.871794,4312.820512,4453.333333,4162.564102,4433.333333,4241.538461,4277.435897,4479.487179,4212.820512,4657.435897,3956.923077,4084.615384
219,4421.025641,4532.307692,4533.333333,4309.743589,4457.435897,4160.000000,4431.794871,4231.282051,4272.820512,4472.307692,4215.897435,4658.461538,3956.923077,4085.128205
220,4409.230769,4523.076923,4520.000000,4301.025641,4447.692307,4155.384615,4426.153846,4223.589743,4269.230769,4467.179487,4217.435897,4648.205128,3945.641026,4074.358974
221,4402.564102,4522.051282,4515.384615,4294.871794,4449.230769,4155.384615,4427.179487,4224.615384,4267.179487,4466.153846,4215.897435,4639.487179,3941.538462,4070.256410
222,4406.666666,4525.641025,4517.948717,4299.487179,4456.923076,4155.384615,4425.128205,4224.102564,4264.102564,4457.948717,4206.666666,4640.512820,3947.179488,4069.743589
223,4407.692307,4520.000000,4514.358974,4298.974358,4449.230769,4149.743589,4420.000000,4221.538461,4260.000000,4450.769230,4203.076923,4643.589743,3949.230770,4071.282051
224,4404.615384,4513.846153,4516.410256,4291.282051,4443.076923,4147.179487,4420.512820,4223.076923,4260.000000,4456.410256,4202.051282,4644.615384,3945.128206,4075.384615
225,4407.179487,4523.589743,4526.153846,4296.410256,4451.282051,4152.820512,4421.025641,4227.179487,4265.641025,4467.692307,4206.153846,4645.641025,3943.076924,4076.410256
226,4409.230769,4533.333333,4528.717948,4304.102564,4455.384615,4153.333333,4419.487179,4227.179487,4270.256410,4470.769230,4220.000000,4646.666666,3947.692308,4077.435897
227,4405.128205,4527.179487,4525.128205,4295.897435,4450.256410,4148.717948,4417.948717,4217.435897,4264.102564,4462.564102,4220.512820,4643.589743,3951.794872,4077.435897
228,4405.128205,4518.974358,4529.743589,4291.282051,4450.769230,4149.743589,4417.435897,4210.256410,4254.358974,4454.871794,4209.230769,4643.589743,3955.897436,4074.871794
229,4407.692307,4517.435897,4532.820512,4298.461538,4451.282051,4150.769230,4417.948717,4211.794871,4254.358974,4454.358974,4209.743589,4649.743589,3959.487180,4077.435897
230,4403.076923,4515.384615,4522.051282,4293.846153,4445.641025,4145.128205,4415.897435,4208.205128,4255.384615,4457.435897,4210.769230,4645.641025,3950.256411,4077.948717
231,4399.487179,4513.846153,4519.487179,4284.102564,4444.615384,4143.076923,4416.923076,4206.153846,4252.307692,4461.025641,4201.538461,4638.974358,3938.974359,4068.717948
232,4401.025641,4513.333333,4528.205128,4285.128205,4448.205128,4148.717948,4423.589743,4218.461538,4257.948717,4467.179487,4195.897435,4645.128205,3943.076924,4066.666666
233,4401.538461,4514.871794,4531.794871,4291.282051,4450.769230,4151.282051,4424.615384,4228.205128,4271.794871,4470.769230,4201.538461,4650.256410,3951.794872,4074.871794
234,4401.538461,4520.000000,4527.179487,4296.410256,4453.333333,4151.794871,4420.512820,4223.076923,4273.333333,4467.179487,4210.256410,4646.666666,3952.820513,4074.871794
235,4406.153846,4521.538461,4521.538461,4301.025641,4457.948717,4154.358974,4425.641025,4219.487179,4264.102564,4460.512820,4210.769230,4647.692307,3952.307693,4071.794871
236,4409.230769,4518.461538,4519.487179,4303.589743,4459.487179,4158.974358,4433.333333,4223.076923,4266.666666,4462.564102,4207.179487,4650.769230,3954.358975,4077.435897
237,4403.589743,4520.512820,4516.410256,4298.974358,4459.487179,4160.512820,4432.307692,4223.076923,4269.743589,4469.230769,4205.641025,4646.153846,3954.358975,4078.461538
238,4398.974358,4521.025641,4515.384615,4294.871794,4458.461538,4158.461538,4430.256410,4221.538461,4264.615384,4466.153846,4204.102564,4642.051282,3951.794872,4070.769230
239,4403.589743,4517.435897,4521.538461,4297.948717,4456.923076,4161.538461,4433.846153,4225.641025,4270.769230,4468.717948,4207.179487,4647.179487,3951.794872,4072.307692
240,4410.256410,4517.435897,4529.230769,4302.564102,4455.384615,4162.564102,4435.897435,4232.307692,4280.000000,4482.564102,4210.769230,4654.358974,3959.487180,4082.564102
241,4410.256410,4521.538461,4528.205128,4298.461538,4453.333333,4156.410256,4432.820512,4230.769230,4275.384615,4486.153846,4210.256410,4653.333333,3963.589744,4082.564102
242,4407.179487,4520.000000,4525.128205,4294.871794,4450.769230,4154.358974,4430.256410,4228.205128,4271.282051,4476.410256,4211.282051,4649.743589,3962.051283,4078.974358
243,4408.717948,4517.948717,4525.641025,4298.974358,4447.179487,4158.974358,4433.333333,4235.897435,4275.384615,4470.769230,4214.871794,4651.794871,3966.666667,4081.538461
244,4411.282051,4523.589743,4526.153846,4300.512820,4450.256410,4161.025641,4438.461538,4243.076923,4279.487179,4475.384615,4216.410256,4653.846153,3968.717949,4083.076923
245,4415.897435,4531.794871,4528.717948,4302.564102,4457.948717,4161.538461,4440.512820,4238.461538,4282.051282,4484.615384,4220.512820,4656.410256,3963.589744,4082.051282
246,4416.923076,4528.205128,4529.743589,4302.564102,4457.435897,4163.589743,4437.435897,4229.743589,4281.538461,4485.128205,4227.179487,4660.000000,3967.179488,4083.589743
247,4410.256410,4514.358974,4527.179487,4294.871794,4450.256410,4160.000000,4429.743589,4222.564102,4270.769230,4471.794871,4213.333333,4656.410256,3969.230770,4080.512820
248,4402.564102,4508.205128,4525.641025,4288.717948,4448.717948,4153.333333,4424.615384,4220.512820,4260.000000,4462.564102,4193.333333,4646.666666,3954.871795,4075.384615
249,4400.000000,4510.256410,4526.153846,4289.230769,4452.307692,4149.743589,4423.589743,4216.923076,4257.435897,4465.128205,4199.487179,4639.487179,3944.102565,4070.769230
250,4399.487179,4511.282051,4521.025641,4289.743589,4450.769230,4149.743589,4424.615384,4213.333333,4257.948717,4466.666666,4205.641025,4640.512820,3946.153847,4066.666666
251,4401.025641,4513.333333,4519.487179,4292.820512,4448.205128,4151.282051,4431.282051,4217.948717,4262.051282,4467.692307,4197.948717,4645.128205,3950.769231,4070.256410
252,4405.641025,4514.358974,4526.153846,4299.487179,4447.692307,4151.794871,4433.333333,4218.974358,4263.589743,4466.153846,4204.102564,4646.153846,3951.794872,4073.333333
253,4405.128205,4509.230769,4526.153846,4302.051282,4447.179487,4152.307692,4427.692307,4211.282051,4260.000000,4459.487179,4207.692307,4641.538461,3950.256411,4069.230769
254,4402.564102,4507.692307,4522.051282,4296.410256,4447.692307,4152.820512,4424.615384,4210.769230,4258.461538,4452.820512,4192.307692,4641.025641,3948.205129,4068.205128
255,4404.615384,4513.846153,4525.128205,4290.256410,4450.769230,4151.282051,4423.076923,4211.794871,4259.487179,4453.846153,4191.282051,4642.564102,3946.666667,4071.282051
256,4407.179487,4516.923076,4530.769230,4295.384615,4453.846153,4152.307692,4422.051282,4209.743589,4257.948717,4461.025641,4205.128205,4643.589743,3948.717949,4070.769230
257,4406.666666,4517.948717,4531.282051,4305.128205,4456.923076,4157.948717,4429.230769,4216.923076,4257.948717,4463.589743,4207.692307,4649.230769,3949.743590,4069.743589
258,4405.128205,4518.461538,4525.641025,4304.615384,4461.538461,4163.076923,4437.435897,4225.128205,4260.000000,4460.512820,4204.615384,4649.743589,3947.179488,4067.179487
259,4404.102564,4516.923076,4523.076923,4302.051282,4458.461538,4163.589743,4438.461538,4224.615384,4257.435897,4464.102564,4197.435897,4643.076923,3946.666667,4062.051282
