,AF3,F7,F3,FC5,T7,P7,O1,O2,P8,T8,FC6,F4,F8,AF4
0,4392.820512,4493.333333,4495.384615,4254.358974,4498.461538,4190.769230,4426.153846,4181.538461,4191.282051,4503.589743,4198.461538,4645.128205,3970.256411,4060.000000
1,4396.923076,4502.051282,4498.461538,4251.794871,4498.974358,4201.538461,4432.820512,4190.256410,4196.923076,4504.102564,4205.641025,4651.794871,3972.820513,4069.230769
2,4403.589743,4506.666666,4498.461538,4260.000000,4504.102564,4202.051282,4441.025641,4194.871794,4205.641025,4510.769230,4215.384615,4663.076923,3981.538462,4076.923076
3,4408.717948,4507.692307,4505.128205,4264.615384,4508.205128,4202.051282,4443.589743,4192.820512,4207.179487,4522.564102,4220.000000,4667.692307,3991.794872,4076.410256
4,4409.230769,4507.179487,4509.230769,4261.025641,4505.641025,4201.538461,4443.076923,4193.846153,4203.589743,4523.589743,4218.974358,4665.641025,3990.769231,4077.435897
5,4410.256410,4508.205128,4506.153846,4263.076923,4508.717948,4204.102564,4442.051282,4198.974358,4207.179487,4513.333333,4217.435897,4668.205128,3983.589744,4078.461538
6,4411.794871,4515.384615,4506.666666,4264.102564,4518.461538,4212.820512,4447.179487,4202.051282,4215.384615,4512.820512,4216.410256,4676.410256,3990.769231,4076.923076
7,4411.794871,4521.538461,4510.256410,4264.102564,4519.487179,4218.974358,4455.897435,4204.102564,4220.000000,4522.051282,4216.923076,4676.410256,4002.564102,4075.897435
8,4411.794871,4520.512820,4506.666666,4267.692307,4515.384615,4214.871794,4457.435897,4203.076923,4215.384615,4524.615384,4216.410256,4670.769230,4002.564102,4071.282051
9,4412.820512,4520.512820,4503.589743,4272.307692,4519.487179,4215.384615,4455.384615,4199.487179,4212.307692,4521.025641,4215.384615,4672.307692,4001.538461,4065.641025
10,4414.871794,4524.615384,4511.282051,4278.461538,4521.538461,4227.179487,4457.948717,4204.615384,4216.923076,4524.102564,4220.000000,4678.974358,4005.128205,4067.179487
11,4416.923076,4529.743589,4516.410256,4281.025641,4521.538461,4233.846153,4463.589743,4214.358974,4223.589743,4532.820512,4230.256410,4685.641025,4008.205128,4073.846153
12,4418.974358,4535.897435,4512.820512,4281.025641,4531.282051,4234.358974,4471.794871,4218.461538,4229.743589,4540.000000,4234.871794,4688.717948,4012.307692,4076.923076
13,4417.435897,4539.487179,4510.256410,4283.589743,4534.358974,4235.897435,4476.410256,4219.487179,4234.871794,4543.589743,4232.307692,4688.205128,4022.051282,4073.333333
14,4412.820512,4535.384615,4510.769230,4283.589743,4524.102564,4234.871794,4468.205128,4220.000000,4235.384615,4534.871794,4231.794871,4685.641025,4022.564102,4065.641025
15,4407.692307,4524.102564,4506.153846,4276.923076,4520.000000,4228.717948,4458.974358,4216.410256,4229.743589,4528.205128,4231.794871,4681.538461,4008.205128,4060.000000
16,4411.282051,4523.589743,4505.128205,4275.384615,4521.025641,4228.717948,4459.487179,4215.897435,4230.769230,4537.948717,4231.794871,4678.461538,4008.717948,4063.076923
17,4414.871794,4533.846153,4509.230769,4282.051282,4517.948717,4232.307692,4462.051282,4218.461538,4230.769230,4542.051282,4229.230769,4677.948717,4020.512820,4065.128205
18,4408.205128,4531.282051,4506.153846,4282.051282,4520.000000,4223.589743,4459.487179,4209.230769,4220.512820,4527.179487,4222.051282,4674.871794,4016.923076,4063.076923
19,4404.102564,4520.512820,4503.076923,4278.461538,4518.974358,4215.384615,4450.256410,4196.923076,4211.794871,4518.974358,4215.384615,4671.282051,4002.564102,4060.000000
20,4405.641025,4522.051282,4508.205128,4276.923076,4511.282051,4218.461538,4443.076923,4196.410256,4210.256410,4525.128205,4213.333333,4670.769230,3996.923077,4053.846153
21,4400.000000,4523.076923,4506.153846,4277.435897,4507.692307,4218.974358,4441.538461,4198.461538,4210.769230,4525.641025,4215.384615,4671.794871,3998.974359,4050.256410
22,4394.871794,4517.948717,4498.974358,4275.384615,4507.179487,4213.333333,4443.589743,4198.974358,4214.871794,4523.589743,4218.461538,4672.307692,4004.102564,4049.230769
23,4398.461538,4518.461538,4499.487179,4269.230769,4505.128205,4212.307692,4443.589743,4205.128205,4217.435897,4524.615384,4214.871794,4669.743589,4006.153846,4048.717948
24,4401.538461,4521.025641,4506.666666,4270.256410,4505.128205,4215.897435,4443.076923,4213.846153,4218.461538,4526.153846,4213.333333,4673.846153,4000.512820,4051.794871
25,4404.615384,4522.564102,4509.743589,4279.487179,4510.256410,4218.461538,4450.256410,4216.923076,4225.641025,4531.282051,4227.692307,4685.128205,4003.589743,4058.974358
26,4406.666666,4523.589743,4506.666666,4283.589743,4515.897435,4219.487179,4455.384615,4214.358974,4231.794871,4537.948717,4238.974358,4686.153846,4014.871794,4058.461538
27,4401.538461,4522.564102,4505.128205,4280.000000,4519.487179,4218.461538,4450.769230,4212.820512,4227.179487,4542.051282,4230.769230,4673.846153,4013.846153,4050.769230
28,4397.435897,4523.589743,4504.102564,4280.512820,4521.025641,4217.948717,4447.692307,4214.358974,4223.589743,4542.051282,4218.461538,4666.666666,4006.153846,4046.153846
29,4400.512820,4525.641025,4503.076923,4281.538461,4522.564102,4218.974358,4448.717948,4208.205128,4225.128205,4536.923076,4215.897435,4668.205128,4003.076923,4050.769230
30,4402.564102,4525.128205,4506.666666,4278.974358,4522.051282,4218.461538,4446.153846,4199.487179,4219.487179,4532.307692,4221.025641,4670.769230,4004.615384,4056.410256
31,4401.025641,4522.564102,4508.717948,4282.564102,4520.512820,4216.923076,4443.589743,4206.153846,4219.487179,4537.948717,4232.307692,4675.384615,4008.205128,4055.384615
32,4396.923076,4522.051282,4500.000000,4282.051282,4518.974358,4216.923076,4445.641025,4215.897435,4226.153846,4540.512820,4235.897435,4677.948717,4007.692307,4051.794871
33,4392.307692,4517.948717,4495.897435,4270.256410,4511.794871,4216.923076,4445.641025,4207.179487,4223.589743,4528.717948,4221.025641,4669.230769,3993.846154,4044.615384
34,4391.794871,4512.820512,4498.461538,4267.692307,4508.717948,4215.384615,4443.589743,4197.948717,4215.897435,4525.128205,4210.256410,4661.538461,3984.615385,4041.025641
35,4393.333333,4514.358974,4497.435897,4277.435897,4515.897435,4213.846153,4443.076923,4200.512820,4214.358974,4536.923076,4215.384615,4665.641025,3995.384616,4050.256410
36,4397.435897,4521.538461,4499.487179,4282.051282,4522.564102,4216.410256,4447.179487,4205.641025,4219.487179,4544.102564,4217.948717,4672.820512,4007.179487,4059.487179
37,4397.948717,4521.025641,4501.538461,4276.923076,4520.000000,4219.487179,4450.256410,4210.769230,4226.666666,4538.974358,4214.871794,4672.307692,4001.025641,4051.794871
38,4390.769230,4509.230769,4499.487179,4269.230769,4509.743589,4212.307692,4445.128205,4211.282051,4224.615384,4526.666666,4214.871794,4665.641025,3989.743590,4043.589743
39,4389.743589,4507.692307,4497.948717,4268.717948,4505.641025,4206.666666,4442.051282,4208.205128,4217.435897,4524.102564,4215.897435,4664.615384,3991.794872,4047.692307
40,4397.435897,4519.487179,4503.589743,4275.897435,4515.897435,4212.820512,4446.153846,4214.358974,4228.205128,4536.410256,4217.435897,4670.769230,3998.974359,4052.307692
41,4402.051282,4520.000000,4505.641025,4281.025641,4523.589743,4220.000000,4448.717948,4220.512820,4236.923076,4545.128205,4221.538461,4673.846153,3994.358975,4055.384615
42,4394.871794,4507.692307,4498.974358,4273.333333,4519.487179,4212.307692,4443.589743,4208.205128,4223.076923,4538.974358,4218.974358,4667.692307,3986.666667,4051.794871
43,4388.205128,4505.128205,4498.461538,4269.230769,4518.461538,4206.666666,4441.025641,4198.974358,4215.384615,4529.743589,4210.769230,4664.102564,3987.692308,4044.615384
44,4392.820512,4511.282051,4503.076923,4276.923076,4523.589743,4212.307692,4444.102564,4204.102564,4220.512820,4525.641025,4214.871794,4668.205128,3992.820513,4048.717948
45,4394.871794,4508.717948,4499.487179,4275.384615,4519.487179,4208.717948,4443.076923,4204.102564,4216.410256,4524.102564,4220.512820,4666.666666,3990.256411,4053.333333
46,4390.769230,4506.153846,4495.384615,4266.153846,4510.256410,4200.000000,4437.948717,4198.974358,4212.307692,4524.102564,4211.282051,4662.051282,3981.025642,4047.692307
47,4393.846153,4508.717948,4498.974358,4267.692307,4513.846153,4202.564102,4434.871794,4194.871794,4214.358974,4522.051282,4198.974358,4663.076923,3980.000000,4045.641025
48,4400.000000,4509.743589,4500.000000,4272.820512,4518.974358,4205.641025,4434.358974,4190.256410,4208.205128,4521.025641,4200.000000,4658.461538,3985.128206,4047.179487
49,4391.794871,4506.153846,4493.846153,4265.641025,4511.794871,4200.512820,4429.230769,4186.153846,4202.564102,4521.538461,4203.076923,4647.692307,3980.512821,4042.564102
50,4385.641025,4504.102564,4493.846153,4262.051282,4506.153846,4197.948717,4427.179487,4185.641025,4208.205128,4521.025641,4200.512820,4648.205128,3970.256411,4041.538461
51,4394.871794,4507.179487,4500.512820,4267.692307,4510.769230,4201.538461,4434.358974,4189.743589,4215.384615,4521.538461,4202.564102,4657.435897,3971.794872,4046.666666
52,4393.333333,4504.615384,4501.025641,4264.615384,4512.820512,4201.538461,4440.512820,4197.435897,4216.410256,4522.051282,4202.051282,4658.461538,3980.512821,4045.641025
53,4380.512820,4491.794871,4492.307692,4260.000000,4507.179487,4197.435897,4439.487179,4200.512820,4216.410256,4521.025641,4198.974358,4654.358974,3978.461539,4038.461538
54,4382.051282,4488.205128,4493.333333,4263.076923,4507.179487,4200.000000,4438.461538,4200.512820,4217.435897,4522.051282,4206.153846,4654.358974,3977.435898,4038.974358
55,4396.923076,4500.512820,4506.666666,4265.128205,4517.435897,4212.820512,4449.230769,4209.743589,4223.589743,4530.769230,4218.461538,4662.051282,3987.179488,4051.282051
56,4395.897435,4502.564102,4509.230769,4263.589743,4525.128205,4211.282051,4456.410256,4217.435897,4230.769230,4537.435897,4220.000000,4665.641025,3992.820513,4056.410256
57,4387.692307,4490.769230,4498.974358,4261.538461,4519.487179,4201.538461,4449.230769,4215.897435,4230.256410,4537.435897,4214.358974,4661.025641,3987.179488,4048.205128
58,4391.794871,4487.692307,4496.923076,4258.461538,4518.974358,4206.666666,4443.589743,4216.410256,4232.307692,4536.410256,4214.358974,4659.487179,3978.974359,4045.641025
59,4393.846153,4491.282051,4498.461538,4251.282051,4520.000000,4209.230769,4444.615384,4214.358974,4230.769230,4532.820512,4215.897435,4657.435897,3973.333334,4046.666666
60,4389.743589,4490.256410,4496.923076,4252.307692,4513.846153,4201.025641,4444.615384,4210.769230,4224.102564,4531.794871,4215.384615,4654.358974,3977.948718,4047.179487
61,4393.846153,4490.256410,4499.487179,4261.025641,4515.384615,4202.051282,4443.589743,4212.820512,4229.230769,4538.461538,4215.384615,4657.435897,3987.692308,4053.333333
62,4398.974358,4493.333333,4503.076923,4263.076923,4522.051282,4204.102564,4444.102564,4210.256410,4234.358974,4542.051282,4215.384615,4663.076923,3981.538462,4053.846153
63,4394.871794,4491.282051,4501.025641,4260.512820,4520.000000,4199.487179,4440.512820,4201.025641,4222.051282,4533.846153,4213.333333,4662.051282,3972.307693,4049.743589
64,4397.948717,4491.794871,4501.025641,4268.205128,4517.435897,4202.564102,4440.512820,4200.512820,4215.897435,4530.256410,4213.333333,4662.051282,3983.076924,4057.948717
65,4408.717948,4499.487179,4507.179487,4277.435897,4523.589743,4206.153846,4443.076923,4205.128205,4224.615384,4537.435897,4218.461538,4667.692307,3995.384616,4067.179487
66,4410.256410,4506.153846,4507.692307,4271.794871,4521.538461,4202.051282,4437.435897,4203.589743,4226.666666,4541.025641,4219.487179,4668.205128,3989.743590,4064.102564
67,4408.205128,4505.128205,4505.641025,4265.128205,4508.717948,4198.461538,4430.256410,4198.974358,4219.487179,4540.000000,4216.923076,4665.128205,3975.384616,4062.564102
68,4409.743589,4501.025641,4509.230769,4270.256410,4507.692307,4198.974358,4430.256410,4195.897435,4214.871794,4537.435897,4216.923076,4666.153846,3973.333334,4068.205128
69,4412.307692,4503.589743,4510.256410,4278.461538,4521.538461,4202.564102,4433.333333,4199.487179,4214.871794,4528.717948,4217.948717,4674.358974,3984.615385,4071.282051
70,4416.410256,4508.717948,4506.153846,4280.512820,4527.692307,4204.615384,4433.846153,4202.564102,4215.897435,4518.974358,4216.923076,4676.923076,3988.205129,4068.205128
71,4417.435897,4509.743589,4501.025641,4278.974358,4522.564102,4203.076923,4430.769230,4192.307692,4214.358974,4522.051282,4215.897435,4667.179487,3979.487180,4064.615384
72,4413.846153,4507.179487,4501.538461,4275.384615,4521.025641,4201.538461,4427.179487,4186.666666,4214.358974,4531.794871,4215.897435,4662.564102,3977.948718,4066.666666
73,4411.282051,4505.128205,4504.615384,4275.897435,4521.538461,4201.538461,4426.666666,4194.358974,4216.410256,4537.435897,4217.435897,4668.205128,3984.615385,4070.769230
74,4415.384615,4508.205128,4505.641025,4282.564102,4525.128205,4202.564102,4429.230769,4202.051282,4221.025641,4541.538461,4220.000000,4671.282051,3983.076924,4073.846153
75,4416.410256,4504.102564,4503.076923,4277.435897,4525.641025,4205.641025,4431.794871,4198.974358,4222.051282,4538.974358,4217.435897,4665.128205,3975.384616,4069.743589
76,4406.153846,4488.205128,4494.358974,4258.461538,4511.794871,4199.487179,4425.641025,4190.256410,4216.410256,4528.205128,4207.692307,4656.923076,3968.717949,4055.897435
77,4395.384615,4480.512820,4487.692307,4249.230769,4505.128205,4190.256410,4415.897435,4185.128205,4215.897435,4521.025641,4201.538461,4649.743589,3965.641026,4050.769230
78,4401.025641,4488.205128,4491.794871,4260.000000,4517.948717,4194.871794,4419.487179,4183.589743,4216.923076,4522.051282,4202.051282,4649.743589,3964.102565,4055.384615
79,4409.230769,4495.384615,4495.897435,4267.692307,4522.051282,4202.564102,4427.692307,4185.128205,4207.179487,4523.076923,4200.512820,4654.871794,3963.589744,4056.923076
80,4400.000000,4488.717948,4492.307692,4255.897435,4509.743589,4200.000000,4426.666666,4185.128205,4202.051282,4519.487179,4198.461538,4649.743589,3956.923077,4053.846153
81,4391.282051,4475.897435,4490.769230,4245.128205,4505.128205,4194.871794,4423.076923,4185.128205,4211.282051,4520.000000,4198.461538,4644.102564,3952.820513,4048.717948
82,4396.923076,4473.846153,4496.923076,4249.743589,4508.205128,4194.358974,4424.615384,4191.282051,4218.461538,4523.589743,4200.000000,4651.282051,3957.948718,4048.717948
83,4402.564102,4484.615384,4502.051282,4257.948717,4507.692307,4195.384615,4424.102564,4198.461538,4216.923076,4522.564102,4203.076923,4658.461538,3961.538462,4053.333333
84,4409.230769,4492.820512,4509.230769,4263.589743,4511.794871,4199.487179,4424.102564,4197.948717,4218.461538,4528.717948,4211.282051,4662.564102,3965.128206,4062.051282
85,4421.025641,4493.333333,4514.871794,4269.743589,4525.128205,4203.589743,4429.230769,4198.974358,4221.025641,4537.435897,4217.948717,4666.153846,3972.307693,4072.820512
86,4420.512820,4493.846153,4509.743589,4269.743589,4523.589743,4202.051282,4430.256410,4199.487179,4219.487179,4536.923076,4214.358974,4665.128205,3978.461539,4075.897435
87,4412.307692,4491.282051,4502.564102,4263.076923,4509.743589,4198.974358,4426.153846,4194.358974,4215.897435,4538.461538,4210.256410,4662.564102,3973.846154,4065.641025
88,4413.333333,4489.230769,4504.615384,4262.051282,4512.820512,4199.487179,4425.641025,4194.358974,4215.897435,4537.435897,4215.384615,4664.102564,3961.538462,4061.025641
89,4421.025641,4492.820512,4509.743589,4265.641025,4526.153846,4203.589743,4430.769230,4200.512820,4222.051282,4524.102564,4213.846153,4666.666666,3964.102565,4071.282051
90,4420.000000,4492.820512,4508.205128,4266.153846,4524.615384,4203.589743,4433.333333,4198.461538,4220.000000,4521.025641,4209.230769,4664.615384,3978.461539,4074.871794
91,4413.333333,4489.230769,4504.615384,4262.564102,4514.871794,4200.000000,4432.307692,4196.923076,4213.846153,4534.358974,4212.820512,4662.564102,3976.923077,4072.307692
92,4412.307692,4488.717948,4504.102564,4262.564102,4512.820512,4202.051282,4430.769230,4198.461538,4216.410256,4541.538461,4212.820512,4662.051282,3961.025642,4073.846153
93,4412.307692,4489.230769,4502.051282,4261.538461,4510.769230,4201.538461,4429.230769,4190.769230,4218.974358,4537.948717,4203.076923,4658.461538,3955.897436,4067.692307
94,4408.717948,4484.102564,4496.923076,4251.282051,4504.102564,4189.743589,4425.641025,4178.974358,4212.307692,4526.666666,4197.948717,4652.307692,3960.512821,4056.410256
95,4409.743589,4484.615384,4499.487179,4249.230769,4505.128205,4187.179487,4425.128205,4184.615384,4213.846153,4524.102564,4206.666666,4658.461538,3960.512821,4061.025641
96,4418.974358,4490.769230,4510.256410,4261.538461,4513.333333,4198.461538,4429.230769,4200.000000,4225.641025,4533.333333,4217.948717,4670.769230,3957.948718,4074.871794
97,4420.512820,4491.794871,4510.769230,4268.205128,4514.358974,4202.051282,4431.282051,4201.538461,4225.641025,4528.717948,4216.410256,4671.282051,3956.923077,4077.948717
98,4415.384615,4489.743589,4504.102564,4262.564102,4504.102564,4197.948717,4428.717948,4190.769230,4216.410256,4520.000000,4207.692307,4668.205128,3963.076924,4070.769230
99,4413.333333,4484.102564,4503.589743,4252.820512,4500.512820,4194.358974,4427.179487,4187.692307,4215.897435,4527.179487,4207.179487,4668.205128,3964.615385,4066.666666
100,4413.846153,4477.435897,4504.615384,4249.230769,4506.153846,4191.794871,4426.153846,4191.794871,4219.487179,4537.948717,4213.333333,4666.666666,3961.538462,4069.743589
101,4415.384615,4482.051282,4506.666666,4251.282051,4508.717948,4194.358974,4426.153846,4192.307692,4215.897435,4537.435897,4210.769230,4667.179487,3964.102565,4074.358974
102,4415.897435,4490.256410,4508.717948,4251.282051,4505.641025,4199.487179,4427.692307,4191.282051,4214.871794,4530.256410,4209.230769,4671.282051,3970.769231,4073.846153
103,4419.487179,4492.820512,4507.179487,4254.358974,4507.179487,4198.461538,4426.666666,4189.230769,4219.487179,4530.769230,4217.435897,4672.307692,3976.410257,4072.307692
104,4426.153846,4496.410256,4508.717948,4260.512820,4518.974358,4200.512820,4427.179487,4186.153846,4217.948717,4536.410256,4214.358974,4670.256410,3975.384616,4074.871794
105,4429.743589,4496.923076,4511.282051,4255.897435,4521.538461,4206.153846,4433.333333,4187.179487,4216.410256,4531.794871,4201.025641,4671.794871,3975.384616,4072.307692
106,4426.153846,4495.897435,4506.153846,4251.794871,4511.794871,4204.102564,4432.820512,4187.179487,4216.923076,4525.128205,4202.051282,4669.743589,3981.538462,4068.717948
107,4425.641025,4501.538461,4507.179487,4260.000000,4515.384615,4201.025641,4429.230769,4186.153846,4218.974358,4537.435897,4214.358974,4669.230769,3990.256411,4070.769230
108,4435.384615,4510.256410,4514.358974,4269.743589,4525.128205,4206.153846,4436.410256,4192.307692,4225.128205,4546.153846,4217.948717,4676.923076,3995.384616,4072.307692
109,4442.564102,4518.461538,4516.410256,4274.358974,4524.615384,4216.410256,4445.128205,4203.076923,4232.820512,4537.948717,4224.102564,4686.666666,4002.051282,4074.871794
110,4445.128205,4524.102564,4518.974358,4280.000000,4524.102564,4219.487179,4444.615384,4205.641025,4237.948717,4542.564102,4237.435897,4691.282051,4011.794871,4078.974358
111,4443.589743,4523.076923,4516.410256,4278.461538,4525.641025,4217.435897,4443.589743,4202.051282,4237.435897,4553.846153,4233.333333,4687.179487,4010.769230,4073.846153
112,4436.923076,4518.974358,4509.230769,4270.769230,4523.076923,4217.948717,4445.641025,4202.051282,4235.384615,4551.282051,4217.948717,4680.000000,4001.538461,4063.589743
113,4430.256410,4518.974358,4508.717948,4264.102564,4521.538461,4217.435897,4443.076923,4201.025641,4233.846153,4547.179487,4212.820512,4676.923076,3996.410257,4061.025641
114,4427.692307,4514.871794,4512.820512,4263.589743,4520.512820,4214.358974,4438.974358,4198.461538,4233.333333,4545.641025,4218.461538,4677.435897,3999.487180,4060.000000
115,4429.230769,4511.282051,4514.871794,4273.333333,4518.974358,4214.358974,4439.487179,4197.948717,4233.333333,4540.512820,4218.974358,4677.948717,4006.666666,4057.435897
116,4435.897435,4515.897435,4515.384615,4281.538461,4522.564102,4217.435897,4442.051282,4200.000000,4233.846153,4537.435897,4214.358974,4681.538461,4003.076923,4058.974358
117,4437.435897,4515.384615,4516.923076,4278.974358,4520.000000,4217.435897,4443.076923,4202.564102,4233.333333,4540.000000,4218.461538,4688.205128,3990.256411,4061.025641
118,4430.256410,4508.205128,4513.333333,4275.897435,4509.230769,4214.358974,4439.487179,4202.051282,4231.282051,4540.000000,4219.487179,4686.153846,3993.333334,4057.948717
119,4433.333333,4511.794871,4512.820512,4278.974358,4506.153846,4212.820512,4435.384615,4199.487179,4232.820512,4546.153846,4214.871794,4686.666666,4010.769230,4059.487179
120,4446.666666,4524.102564,4521.538461,4284.102564,4510.256410,4217.948717,4438.461538,4203.076923,4235.384615,4557.435897,4223.589743,4698.974358,4015.384615,4069.230769
121,4447.179487,4523.589743,4523.076923,4283.589743,4510.256410,4219.487179,4443.076923,4209.743589,4238.461538,4555.384615,4236.923076,4705.128205,4007.692307,4074.871794
122,4442.051282,4519.487179,4515.897435,4280.512820,4508.205128,4216.410256,4442.051282,4211.794871,4238.461538,4553.333333,4232.820512,4696.410256,4009.743589,4070.256410
123,4446.153846,4524.102564,4516.923076,4282.051282,4509.743589,4218.461538,4441.025641,4210.769230,4237.435897,4563.076923,4220.512820,4690.256410,4017.435897,4064.615384
124,4443.076923,4521.538461,4518.974358,4283.589743,4511.282051,4220.000000,4445.128205,4206.666666,4236.410256,4559.487179,4218.974358,4687.692307,4008.717948,4060.000000
125,4428.717948,4509.743589,4508.205128,4274.358974,4502.564102,4213.846153,4442.564102,4201.025641,4228.205128,4538.974358,4218.461538,4680.000000,3989.743590,4050.769230
126,4424.615384,4505.128205,4502.564102,4267.692307,4495.897435,4212.307692,4433.846153,4198.461538,4217.435897,4533.846153,4213.846153,4676.410256,3982.564103,4046.153846
127,4430.256410,4510.256410,4512.307692,4275.384615,4497.435897,4213.846153,4430.256410,4195.384615,4217.435897,4541.538461,4211.794871,4682.051282,3993.333334,4051.794871
128,4433.333333,4510.769230,4516.410256,4281.025641,4496.410256,4205.641025,4429.743589,4192.820512,4220.000000,4535.384615,4213.846153,4685.641025,4000.512820,4053.846153
129,4437.435897,4512.307692,4514.358974,4281.538461,4496.923076,4205.128205,4427.179487,4197.435897,4222.051282,4537.435897,4217.435897,4687.179487,3996.923077,4051.794871
130,4440.512820,4518.974358,4516.923076,4284.615384,4504.102564,4214.871794,4428.717948,4202.564102,4232.307692,4553.846153,4217.948717,4687.692307,3993.846154,4055.897435
131,4431.794871,4514.871794,4517.948717,4283.076923,4507.179487,4218.461538,4432.820512,4201.025641,4233.333333,4549.230769,4212.820512,4685.641025,3990.769231,4055.384615
132,4426.153846,4506.153846,4511.794871,4275.897435,4501.538461,4212.820512,4432.820512,4199.487179,4220.000000,4534.358974,4211.282051,4684.615384,3989.743590,4048.717948
133,4430.769230,4510.769230,4506.153846,4276.923076,4495.897435,4205.641025,4428.717948,4193.846153,4214.358974,4536.923076,4215.384615,4683.076923,3991.794872,4051.794871
134,4430.769230,4515.897435,4504.615384,4278.461538,4490.769230,4200.512820,4422.051282,4184.615384,4215.897435,4538.974358,4207.692307,4678.461538,3990.256411,4052.820512
135,4424.615384,4509.230769,4506.666666,4276.410256,4489.230769,4198.461538,4418.461538,4181.538461,4212.820512,4532.307692,4198.974358,4675.384615,3985.641026,4049.230769
136,4429.743589,4510.256410,4510.769230,4278.974358,4490.769230,4199.487179,4424.102564,4189.230769,4214.358974,4535.897435,4210.256410,4681.538461,3987.692308,4055.897435
137,4438.461538,4521.025641,4512.307692,4281.025641,4489.743589,4201.538461,4429.230769,4198.974358,4223.589743,4545.128205,4219.487179,4685.128205,3991.794872,4060.512820
138,4435.897435,4518.974358,4510.256410,4279.487179,4492.307692,4204.102564,4428.717948,4202.051282,4226.153846,4545.641025,4215.897435,4679.487179,3989.230770,4055.897435
139,4430.256410,4508.205128,4510.769230,4277.435897,4494.358974,4204.615384,4428.717948,4201.025641,4224.615384,4541.025641,4214.871794,4680.512820,3985.128206,4052.307692
140,4430.769230,4506.666666,4511.794871,4274.871794,4493.846153,4204.615384,4430.769230,4200.000000,4222.564102,4538.461538,4214.871794,4685.641025,3987.179488,4050.256410
141,4432.307692,4511.282051,4511.794871,4278.461538,4500.512820,4214.358974,4432.307692,4200.512820,4220.512820,4540.512820,4213.846153,4683.076923,3993.846154,4051.282051
142,4429.743589,4509.230769,4512.307692,4279.487179,4504.102564,4217.435897,4431.282051,4198.974358,4217.948717,4540.000000,4213.846153,4677.435897,3988.205129,4056.410256
143,4427.692307,4506.666666,4508.205128,4271.794871,4495.897435,4205.641025,4427.179487,4196.410256,4216.923076,4534.871794,4208.205128,4673.846153,3975.384616,4055.384615
144,4427.179487,4507.692307,4507.692307,4267.179487,4489.230769,4199.487179,4423.589743,4195.897435,4216.923076,4541.025641,4201.538461,4674.871794,3980.512821,4050.256410
145,4429.230769,4509.230769,4510.769230,4269.230769,4492.820512,4201.538461,4421.538461,4201.538461,4217.435897,4547.692307,4202.564102,4677.948717,3989.743590,4051.282051
146,4428.717948,4508.205128,4508.205128,4267.692307,4493.333333,4197.948717,4415.384615,4199.487179,4219.487179,4532.820512,4203.076923,4675.384615,3981.025642,4053.333333
147,4420.512820,4506.153846,4506.153846,4264.102564,4489.230769,4194.871794,4409.743589,4187.692307,4216.923076,4518.461538,4200.000000,4669.230769,3970.256411,4050.256410
148,4412.820512,4502.564102,4505.641025,4264.615384,4489.743589,4198.974358,4415.897435,4183.076923,4211.794871,4532.307692,4197.435897,4666.153846,3972.820513,4044.102564
149,4414.871794,4498.461538,4504.102564,4262.051282,4492.820512,4201.025641,4419.487179,4185.128205,4209.743589,4541.538461,4196.410256,4664.102564,3975.897436,4042.051282
150,4420.512820,4501.025641,4506.153846,4261.025641,4487.692307,4197.948717,4415.384615,4183.589743,4210.769230,4526.153846,4198.974358,4665.128205,3972.820513,4041.025641
151,4421.025641,4505.641025,4509.743589,4264.102564,4478.974358,4196.923076,4420.000000,4185.641025,4213.846153,4525.641025,4202.051282,4672.307692,3970.769231,4040.000000
152,4421.025641,4504.102564,4510.769230,4263.589743,4483.589743,4198.974358,4426.153846,4193.846153,4217.435897,4534.358974,4199.487179,4673.846153,3975.384616,4046.666666
153,4427.179487,4502.564102,4510.256410,4266.153846,4492.820512,4198.974358,4418.974358,4192.307692,4215.384615,4526.666666,4198.461538,4669.230769,3975.384616,4053.333333
154,4429.230769,4504.615384,4509.743589,4267.179487,4489.743589,4193.846153,4411.794871,4185.128205,4208.205128,4520.000000,4201.025641,4665.641025,3964.102565,4048.205128
155,4426.153846,4505.128205,4508.205128,4265.128205,4487.179487,4191.794871,4413.846153,4182.051282,4201.025641,4522.051282,4195.897435,4663.589743,3958.461539,4041.538461
156,4425.641025,4505.128205,4512.820512,4265.128205,4491.794871,4198.461538,4412.820512,4181.025641,4201.538461,4524.615384,4188.205128,4666.666666,3967.692308,4043.589743
157,4429.743589,4507.179487,4517.435897,4268.205128,4493.846153,4201.025641,4412.307692,4184.615384,4209.230769,4535.384615,4198.461538,4672.307692,3975.384616,4052.820512
158,4431.794871,4509.230769,4512.820512,4267.692307,4492.820512,4192.820512,4414.871794,4185.128205,4210.769230,4541.538461,4206.666666,4672.307692,3968.205129,4055.897435
159,4424.615384,4506.666666,4505.641025,4264.615384,4491.794871,4183.589743,4406.666666,4175.384615,4200.512820,4524.615384,4192.307692,4663.589743,3953.333334,4041.538461
160,4420.512820,4502.564102,4507.179487,4262.564102,4488.717948,4182.564102,4395.897435,4169.230769,4195.897435,4515.384615,4182.564102,4658.974358,3955.384616,4035.384615
161,4426.666666,4506.666666,4511.794871,4264.102564,4489.230769,4186.153846,4401.538461,4174.871794,4201.538461,4522.051282,4188.717948,4662.051282,3967.692308,4047.179487
162,4426.153846,4510.256410,4506.666666,4267.692307,4493.333333,4185.128205,4407.692307,4175.384615,4203.076923,4518.974358,4191.794871,4660.000000,3963.589744,4046.153846
163,4413.333333,4498.974358,4499.487179,4261.538461,4485.641025,4182.564102,4398.461538,4168.205128,4194.358974,4514.871794,4183.589743,4649.230769,3948.717949,4033.333333
164,4408.205128,4488.205128,4500.512820,4254.871794,4475.384615,4183.589743,4395.384615,4165.128205,4189.230769,4521.538461,4178.461538,4644.615384,3953.333334,4033.846153
165,4417.435897,4495.897435,4506.666666,4258.974358,4482.051282,4184.102564,4405.128205,4168.717948,4194.358974,4523.076923,4190.256410,4655.897435,3970.769231,4043.076923
166,4425.641025,4508.205128,4509.230769,4265.128205,4494.871794,4185.128205,4404.615384,4172.307692,4202.051282,4516.923076,4203.589743,4664.102564,3971.282052,4049.230769
167,4423.589743,4505.641025,4507.692307,4264.102564,4494.358974,4185.128205,4395.384615,4170.769230,4200.000000,4521.538461,4197.948717,4658.974358,3956.923077,4047.692307
168,4412.820512,4494.358974,4504.102564,4253.846153,4483.076923,4179.487179,4394.358974,4168.205128,4195.384615,4523.076923,4183.589743,4653.333333,3951.282052,4040.000000
169,4409.230769,4490.256410,4502.051282,4245.128205,4478.974358,4175.384615,4401.025641,4173.333333,4198.461538,4515.384615,4184.615384,4654.358974,3960.000000,4038.974358
170,4413.333333,4491.282051,4504.615384,4249.743589,4484.615384,4180.512820,4404.102564,4175.384615,4199.487179,4516.410256,4189.230769,4650.256410,3960.000000,4044.615384
171,4413.846153,4492.307692,4507.179487,4256.410256,4490.256410,4183.589743,4402.564102,4170.256410,4197.435897,4521.025641,4185.641025,4647.179487,3946.666667,4044.102564
172,4413.333333,4491.794871,4506.666666,4257.435897,4490.256410,4182.564102,4403.076923,4174.871794,4200.512820,4524.102564,4185.128205,4653.846153,3947.179488,4046.666666
173,4412.307692,4490.256410,4508.205128,4255.897435,4487.179487,4181.025641,4403.076923,4181.025641,4202.564102,4519.487179,4187.179487,4657.948717,3961.025642,4049.743589
174,4412.820512,4490.769230,4509.743589,4254.358974,4489.230769,4177.435897,4398.461538,4175.384615,4199.487179,4508.717948,4185.641025,4656.410256,3963.076924,4042.564102
175,4418.461538,4492.820512,4507.692307,4256.410256,4487.179487,4171.282051,4396.410256,4175.384615,4198.461538,4511.794871,4186.153846,4656.410256,3946.666667,4042.051282
176,4424.615384,4493.333333,4510.769230,4261.538461,4479.487179,4169.230769,4402.564102,4183.589743,4203.076923,4526.153846,4188.205128,4656.410256,3938.461539,4049.230769
177,4427.692307,4497.435897,4517.948717,4260.512820,4480.512820,4175.384615,4406.666666,4187.692307,4204.615384,4527.179487,4189.230769,4660.512820,3952.307693,4053.333333
178,4429.230769,4503.076923,4514.358974,4260.000000,4491.794871,4184.615384,4405.128205,4184.615384,4202.051282,4520.000000,4192.820512,4663.076923,3962.564103,4054.358974
179,4423.589743,4498.974358,4506.153846,4264.102564,4495.897435,4183.589743,4401.025641,4177.948717,4197.948717,4522.564102,4192.820512,4657.948717,3948.205129,4049.230769
180,4417.948717,4491.794871,4505.128205,4262.051282,4489.743589,4172.820512,4397.435897,4169.230769,4198.461538,4522.051282,4186.153846,4653.333333,3938.461539,4046.153846
181,4418.461538,4493.333333,4507.692307,4253.846153,4489.230769,4169.230769,4395.384615,4168.205128,4195.384615,4515.384615,4186.153846,4654.358974,3952.307693,4048.717948
182,4414.358974,4493.333333,4504.615384,4249.230769,4492.307692,4172.820512,4393.846153,4169.743589,4186.666666,4509.743589,4184.615384,4649.743589,3953.846154,4046.153846
183,4410.256410,4489.230769,4500.000000,4248.205128,4490.769230,4172.307692,4394.358974,4168.205128,4189.230769,4506.666666,4172.820512,4641.538461,3939.487180,4037.435897
184,4410.769230,4488.717948,4500.512820,4249.230769,4488.717948,4170.256410,4396.410256,4168.717948,4193.333333,4505.128205,4167.179487,4637.948717,3934.871795,4035.897435
185,4412.307692,4489.743589,4505.641025,4248.717948,4490.769230,4170.769230,4396.923076,4169.230769,4188.717948,4503.076923,4174.871794,4641.025641,3942.564103,4037.435897
186,4415.897435,4491.794871,4506.153846,4248.205128,4487.179487,4171.794871,4397.948717,4169.230769,4188.717948,4506.153846,4183.589743,4646.153846,3949.743590,4042.051282
187,4417.948717,4492.820512,4502.564102,4248.205128,4476.923076,4169.743589,4396.923076,4171.282051,4194.871794,4509.230769,4186.153846,4645.128205,3949.230770,4046.153846
188,4417.435897,4490.256410,4505.641025,4247.692307,4477.435897,4169.230769,4393.333333,4173.333333,4197.948717,4506.666666,4186.153846,4646.153846,3945.128206,4043.589743
189,4416.923076,4488.205128,4507.692307,4247.692307,4477.948717,4168.205128,4391.794871,4169.743589,4196.410256,4507.692307,4187.692307,4648.717948,3942.564103,4043.076923
190,4414.871794,4488.205128,4502.051282,4246.666666,4470.256410,4167.692307,4392.307692,4169.230769,4195.897435,4509.743589,4185.641025,4644.102564,3943.076924,4045.128205
191,4420.512820,4490.256410,4506.666666,4247.692307,4477.948717,4170.256410,4398.974358,4182.051282,4198.461538,4509.230769,4182.564102,4645.128205,3946.666667,4046.153846
192,4429.743589,4493.846153,4515.384615,4252.307692,4492.307692,4173.333333,4407.179487,4186.666666,4203.076923,4509.230769,4187.179487,4654.871794,3949.230770,4050.256410
193,4423.076923,4489.743589,4509.230769,4251.794871,4484.102564,4172.307692,4402.051282,4174.871794,4200.512820,4510.769230,4185.641025,4650.769230,3940.512821,4047.692307
194,4406.666666,4476.410256,4500.512820,4238.461538,4470.769230,4164.615384,4389.230769,4163.076923,4186.153846,4504.615384,4172.307692,4634.358974,3928.205129,4036.410256
195,4401.538461,4469.230769,4501.538461,4229.230769,4471.794871,4161.538461,4388.717948,4158.974358,4175.384615,4495.384615,4166.666666,4628.205128,3923.589744,4028.717948
196,4406.153846,4472.307692,4504.102564,4238.974358,4475.897435,4166.666666,4396.923076,4158.974358,4176.923076,4491.282051,4167.179487,4632.307692,3922.564103,4030.769230
197,4411.794871,4473.333333,4505.641025,4244.102564,4476.923076,4169.743589,4397.435897,4159.487179,4178.974358,4487.692307,4163.076923,4634.358974,3921.025642,4034.871794
198,4410.769230,4470.256410,4502.564102,4231.794871,4474.871794,4166.666666,4393.333333,4157.948717,4176.410256,4489.743589,4158.974358,4630.256410,3923.076924,4033.846153
199,4408.717948,4472.820512,4503.589743,4233.333333,4475.384615,4168.205128,4396.923076,4163.589743,4179.487179,4502.564102,4168.717948,4631.794871,3933.333334,4038.974358
200,4418.461538,4478.461538,4511.282051,4249.230769,4483.076923,4172.307692,4402.051282,4176.410256,4192.307692,4512.307692,4186.666666,4644.615384,3946.666667,4055.897435
201,4426.666666,4477.948717,4510.769230,4242.564102,4479.487179,4169.230769,4394.358974,4174.871794,4198.461538,4508.717948,4190.769230,4649.230769,3953.846154,4058.974358
202,4426.153846,4480.512820,4505.128205,4230.256410,4467.179487,4167.692307,4389.230769,4171.794871,4198.974358,4507.179487,4184.615384,4647.692307,3956.410257,4050.256410
203,4427.692307,4490.769230,4509.743589,4238.974358,4478.461538,4171.794871,4398.461538,4183.076923,4200.512820,4510.769230,4186.153846,4653.846153,3960.000000,4055.897435
204,4430.769230,4490.769230,4513.846153,4243.076923,4491.282051,4173.846153,4401.538461,4183.076923,4196.410256,4509.230769,4187.692307,4655.384615,3958.974359,4063.589743
205,4427.692307,4483.589743,4508.205128,4234.358974,4482.564102,4170.256410,4395.384615,4169.230769,4190.769230,4505.128205,4182.564102,4649.230769,3953.333334,4058.974358
206,4426.153846,4488.205128,4508.205128,4238.974358,4482.051282,4171.794871,4395.897435,4167.692307,4195.384615,4507.179487,4181.025641,4651.282051,3958.461539,4058.974358
207,4431.282051,4495.897435,4516.410256,4250.769230,4492.820512,4181.538461,4402.051282,4177.435897,4201.025641,4512.820512,4182.564102,4656.410256,3966.666667,4059.487179
208,4437.948717,4499.487179,4522.051282,4254.358974,4492.820512,4187.179487,4404.102564,4185.128205,4203.589743,4516.923076,4189.743589,4662.051282,3967.179488,4057.435897
209,4442.564102,4505.128205,4527.692307,4257.435897,4491.282051,4183.076923,4406.153846,4194.871794,4215.897435,4525.128205,4203.589743,4675.384615,3974.358975,4067.179487
210,4445.641025,4508.205128,4530.769230,4264.102564,4495.384615,4185.641025,4408.717948,4202.564102,4226.153846,4538.974358,4206.666666,4683.076923,3989.230770,4074.358974
211,4447.692307,4508.717948,4528.205128,4264.102564,4496.410256,4200.000000,4413.846153,4198.461538,4217.948717,4539.487179,4200.512820,4676.923076,3994.871795,4068.717948
212,4442.051282,4507.179487,4524.102564,4255.384615,4493.333333,4198.974358,4416.923076,4188.717948,4208.205128,4528.717948,4197.948717,4668.717948,3989.230770,4061.025641
213,4430.256410,4497.948717,4517.435897,4248.205128,4487.179487,4185.128205,4413.333333,4183.076923,4203.589743,4519.487179,4194.358974,4665.128205,3980.000000,4047.179487
214,4424.615384,4490.256410,4511.282051,4247.179487,4484.615384,4188.205128,4411.794871,4181.025641,4196.410256,4507.692307,4181.538461,4661.538461,3970.769231,4033.846153
215,4428.717948,4496.923076,4516.410256,4250.256410,4490.769230,4201.538461,4418.461538,4183.076923,4201.538461,4504.615384,4181.538461,4662.051282,3975.897436,4040.000000
216,4431.282051,4505.641025,4521.538461,4252.820512,4494.871794,4200.512820,4416.923076,4189.230769,4213.846153,4516.410256,4195.897435,4668.205128,3987.179488,4049.743589
217,4429.743589,4507.179487,4517.435897,4254.358974,4488.717948,4195.897435,4413.333333,4196.923076,4217.435897,4524.102564,4201.025641,4670.769230,3988.205129,4047.692307
218,4431.794871,4505.128205,4515.384615,4260.000000,4491.282051,4200.000000,4422.564102,4201.538461,4222.564102,4529.743589,4203.076923,4670.769230,3994.358975,4045.641025
219,4431.794871,4504.615384,4515.897435,4263.076923,4503.076923,4201.538461,4428.205128,4201.538461,4228.717948,4536.923076,4203.076923,4671.282051,4004.615384,4045.128205
220,4426.666666,4505.128205,4515.384615,4253.846153,4498.974358,4200.512820,4422.564102,4197.948717,4221.538461,4532.820512,4193.333333,4667.692307,3998.461539,4044.615384
221,4424.615384,4506.666666,4514.358974,4250.769230,4493.333333,4201.538461,4424.102564,4196.410256,4212.820512,4525.128205,4187.692307,4662.051282,3984.615385,4043.076923
222,4428.717948,4508.205128,4514.871794,4263.076923,4501.025641,4201.538461,4429.230769,4199.487179,4217.435897,4522.564102,4193.333333,4663.589743,3984.102565,4037.948717
223,4429.743589,4508.205128,4515.384615,4268.205128,4500.512820,4200.000000,4422.564102,4198.461538,4220.512820,4525.128205,4197.435897,4670.256410,3991.794872,4036.410256
224,4427.692307,4504.615384,4518.974358,4263.076923,4490.769230,4196.923076,4413.846153,4195.384615,4214.358974,4532.307692,4197.948717,4672.820512,3991.282052,4042.051282
225,4428.717948,4504.615384,4522.564102,4264.102564,4492.820512,4197.435897,4414.871794,4197.948717,4212.820512,4531.282051,4202.051282,4676.410256,3988.717949,4044.615384
226,4431.282051,4508.717948,4524.102564,4265.641025,4495.897435,4198.461538,4418.974358,4204.102564,4216.923076,4524.102564,4202.564102,4681.025641,3989.230770,4045.128205
227,4430.256410,4508.717948,4523.589743,4264.102564,4490.256410,4192.307692,4416.923076,4199.487179,4214.871794,4517.948717,4197.948717,4678.461538,3988.717949,4045.641025
228,4423.589743,4504.615384,4517.948717,4262.564102,4488.717948,4187.179487,4410.769230,4189.230769,4204.615384,4515.384615,4192.307692,4670.769230,3988.205129,4039.487179
229,4415.897435,4503.076923,4511.794871,4254.358974,4491.794871,4187.692307,4412.820512,4186.153846,4201.538461,4516.410256,4185.641025,4664.102564,3980.000000,4034.871794
230,4412.307692,4503.589743,4508.717948,4249.743589,4492.820512,4185.641025,4412.820512,4185.128205,4201.538461,4513.333333,4184.102564,4661.538461,3971.282052,4033.846153
231,4418.974358,4504.615384,4515.384615,4262.051282,4489.743589,4190.256410,4411.282051,4186.666666,4202.564102,4511.794871,4191.794871,4667.179487,3983.076924,4035.897435
232,4429.230769,4508.205128,4526.153846,4275.897435,4493.846153,4201.025641,4421.538461,4195.897435,4212.820512,4521.538461,4198.974358,4679.487179,3998.974359,4046.153846
233,4432.820512,4513.846153,4527.179487,4274.358974,4504.102564,4201.025641,4426.153846,4202.564102,4219.487179,4528.205128,4204.102564,4685.128205,3996.923077,4054.358974
234,4431.794871,4522.051282,4524.102564,4271.794871,4506.153846,4197.948717,4416.923076,4202.564102,4217.948717,4525.641025,4210.769230,4682.051282,3993.333334,4054.358974
235,4431.282051,4520.000000,4523.076923,4271.794871,4502.051282,4196.410256,4413.846153,4201.538461,4218.461538,4529.230769,4210.256410,4674.871794,3994.871795,4050.256410
236,4427.692307,4510.769230,4516.923076,4272.820512,4503.589743,4192.820512,4416.923076,4198.974358,4215.897435,4524.615384,4196.923076,4664.615384,3987.692308,4041.538461
237,4424.102564,4515.897435,4512.307692,4274.871794,4502.051282,4194.358974,4414.871794,4196.923076,4211.282051,4518.461538,4193.333333,4661.025641,3984.615385,4038.461538
238,4428.717948,4526.666666,4516.410256,4271.794871,4498.461538,4195.897435,4413.846153,4202.564102,4217.435897,4538.461538,4204.102564,4667.692307,3989.230770,4043.589743
239,4428.717948,4524.615384,4522.051282,4270.769230,4501.538461,4187.179487,4413.333333,4202.564102,4220.000000,4545.641025,4204.615384,4670.769230,3990.256411,4047.179487
240,4427.179487,4521.025641,4526.666666,4278.974358,4504.615384,4186.153846,4411.282051,4197.948717,4214.871794,4522.564102,4204.102564,4677.435897,3993.846154,4052.820512
241,4434.871794,4525.128205,4531.282051,4286.153846,4505.128205,4200.000000,4417.948717,4206.666666,4221.538461,4520.512820,4216.410256,4688.205128,4001.025641,4064.102564
242,4441.538461,4526.153846,4530.769230,4281.538461,4506.666666,4203.589743,4423.076923,4215.897435,4228.205128,4543.076923,4217.435897,4684.102564,3998.974359,4061.538461
243,4431.794871,4517.948717,4519.487179,4271.282051,4505.128205,4193.846153,4418.461538,4206.153846,4213.333333,4538.461538,4200.000000,4670.256410,3987.692308,4046.666666
244,4412.820512,4507.692307,4506.153846,4260.512820,4494.871794,4184.615384,4410.769230,4190.769230,4195.384615,4509.743589,4188.717948,4660.000000,3977.948718,4036.410256
245,4409.230769,4503.589743,4504.615384,4258.461538,4487.179487,4184.615384,4411.794871,4189.230769,4198.461538,4501.025641,4187.692307,4654.358974,3970.769231,4035.384615
246,4419.487179,4506.666666,4511.282051,4264.102564,4492.307692,4194.871794,4421.538461,4192.307692,4205.128205,4507.179487,4185.128205,4653.846153,3964.615385,4039.487179
247,4425.641025,4513.333333,4513.333333,4263.589743,4501.538461,4202.564102,4428.205128,4191.794871,4202.051282,4513.333333,4189.743589,4657.948717,3970.769231,4041.538461
248,4425.641025,4521.538461,4514.358974,4265.128205,4505.641025,4202.051282,4427.692307,4195.384615,4206.153846,4521.538461,4201.025641,4660.512820,3987.692308,4045.641025
249,4427.179487,4525.641025,4520.000000,4276.410256,4508.717948,4203.076923,4423.076923,4200.000000,4216.923076,4525.641025,4203.589743,4663.076923,3992.307693,4056.410256
250,4430.256410,4523.589743,4520.512820,4279.487179,4507.692307,4200.000000,4415.897435,4197.435897,4216.410256,4523.076923,4201.025641,4665.641025,3985.128206,4058.974358
251,4428.205128,4521.538461,4518.461538,4270.769230,4497.435897,4190.769230,4410.256410,4194.358974,4206.666666,4521.538461,4201.025641,4666.153846,3987.179488,4054.871794
252,4426.666666,4521.538461,4522.564102,4269.743589,4494.871794,4192.820512,4412.307692,4199.487179,4206.153846,4526.666666,4203.076923,4670.256410,3994.871795,4056.410256
253,4427.179487,4521.025641,4523.589743,4273.846153,4504.615384,4197.948717,4413.333333,4198.974358,4209.230769,4524.102564,4205.128205,4672.820512,3983.076924,4055.384615
254,4427.179487,4521.025641,4517.948717,4272.820512,4507.179487,4192.307692,4411.794871,4187.179487,4201.025641,4513.333333,4202.564102,4666.153846,3968.717949,4049.743589
255,4429.230769,4523.589743,4515.384615,4274.358974,4502.564102,4193.333333,4415.384615,4187.692307,4197.435897,4515.897435,4198.461538,4662.564102,3979.487180,4054.358974
256,4431.282051,4526.666666,4520.000000,4279.487179,4508.717948,4202.051282,4419.487179,4197.435897,4209.230769,4526.666666,4202.564102,4665.641025,3995.384616,4064.102564
