,AF3,F7,F3,FC5,T7,P7,O1,O2,P8,T8,FC6,F4,F8,AF4
0,2628.717949,4517.948717,4535.897435,4247.692307,4500.512820,4202.051282,4458.461538,4246.153846,4250.769230,4522.051282,4232.820512,4662.564102,3982.564103,4059.487179
1,2570.769231,4521.538461,4539.487179,4250.256410,4504.615384,4211.794871,4462.564102,4253.846153,4255.384615,4525.641025,4232.820512,4667.692307,3989.743590,4063.589743
2,2527.692308,4520.512820,4540.512820,4255.384615,4506.666666,4213.846153,4463.589743,4253.846153,4257.435897,4528.717948,4232.820512,4673.333333,3993.846154,4063.589743
3,2482.564103,4516.923076,4538.461538,4244.102564,4506.153846,4208.717948,4461.538461,4254.358974,4258.461538,4527.179487,4233.846153,4675.384615,3998.461539,4061.025641
4,2442.051283,4513.333333,4535.897435,4228.717948,4504.615384,4210.769230,4460.512820,4257.435897,4259.487179,4521.538461,4230.769230,4668.717948,3999.487180,4055.897435
5,2417.435898,4513.846153,4535.384615,4230.769230,4506.153846,4215.384615,4460.512820,4253.333333,4257.435897,4519.487179,4230.256410,4663.076923,3996.923077,4052.820512
6,2400.000000,4518.461538,4537.435897,4235.897435,4508.205128,4213.846153,4461.538461,4252.820512,4254.871794,4527.692307,4231.282051,4665.128205,3998.461539,4054.358974
7,2387.179488,4517.948717,4538.461538,4231.282051,4506.153846,4207.179487,4461.025641,4254.358974,4257.948717,4533.333333,4229.230769,4665.128205,4002.051282,4053.846153
8,2376.410257,4514.358974,4536.410256,4227.692307,4502.564102,4200.512820,4458.461538,4251.282051,4262.051282,4528.717948,4229.743589,4663.076923,4002.564102,4048.717948
9,2371.794872,4516.923076,4535.384615,4228.205128,4503.589743,4199.487179,4458.461538,4252.307692,4262.051282,4527.179487,4232.820512,4667.692307,4008.205128,4046.153846
10,2369.230770,4518.974358,4536.923076,4226.153846,4504.615384,4203.076923,4461.025641,4257.435897,4263.076923,4529.743589,4226.153846,4668.205128,4010.256410,4042.564102
11,2365.128206,4509.743589,4531.794871,4217.948717,4504.615384,4203.076923,4462.564102,4254.871794,4265.128205,4528.717948,4223.076923,4660.512820,4002.051282,4036.410256
12,2374.871795,4505.641025,4527.179487,4213.333333,4502.564102,4202.051282,4461.025641,4251.794871,4263.589743,4527.179487,4225.128205,4656.923076,3997.948718,4032.820512
13,2415.384616,4511.282051,4532.820512,4218.461538,4497.435897,4203.076923,4460.000000,4251.282051,4255.384615,4525.128205,4220.000000,4657.948717,3995.897436,4030.256410
14,2469.743590,4509.230769,4538.974358,4226.153846,4499.487179,4202.051282,4460.512820,4245.128205,4250.256410,4517.948717,4216.410256,4659.487179,3988.205129,4027.179487
15,2517.435898,4507.179487,4539.487179,4232.820512,4507.179487,4202.564102,4461.025641,4247.179487,4259.487179,4518.461538,4221.538461,4669.743589,3991.794872,4033.333333
16,2557.435898,4513.846153,4540.512820,4234.358974,4509.743589,4203.076923,4461.025641,4257.435897,4265.641025,4529.230769,4229.230769,4675.384615,4007.692307,4043.076923
17,2587.179488,4515.384615,4540.512820,4230.769230,4502.051282,4202.564102,4458.974358,4260.512820,4262.051282,4531.794871,4228.205128,4666.153846,4007.692307,4040.000000
18,2613.333334,4512.307692,4537.948717,4231.794871,4497.948717,4201.025641,4457.435897,4260.512820,4263.589743,4526.153846,4222.564102,4660.512820,3995.384616,4033.846153
19,2640.000000,4517.948717,4539.487179,4238.461538,4504.102564,4200.512820,4457.948717,4261.025641,4267.179487,4522.051282,4220.512820,4662.564102,3992.307693,4036.923076
20,2661.025642,4518.974358,4540.000000,4238.461538,4505.128205,4200.512820,4458.974358,4256.410256,4256.923076,4520.512820,4219.487179,4657.948717,3992.307693,4034.358974
21,2681.538462,4510.769230,4536.410256,4236.923076,4498.974358,4202.051282,4457.948717,4247.692307,4251.794871,4516.410256,4215.897435,4656.410256,3990.256411,4027.179487
22,2707.692308,4514.871794,4538.461538,4243.589743,4501.538461,4202.051282,4458.974358,4248.205128,4258.461538,4518.974358,4217.948717,4665.128205,3993.846154,4034.358974
23,2733.846154,4525.128205,4546.153846,4250.256410,4508.717948,4201.538461,4458.974358,4256.923076,4264.615384,4525.641025,4228.717948,4672.820512,3998.974359,4044.615384
24,2753.333334,4522.564102,4546.666666,4250.769230,4506.153846,4208.717948,4457.435897,4263.076923,4267.692307,4524.615384,4230.769230,4671.794871,3999.487180,4041.538461
25,2773.846154,4521.025641,4545.641025,4250.769230,4506.666666,4213.846153,4466.153846,4264.615384,4268.205128,4522.051282,4223.589743,4670.769230,3998.974359,4037.948717
26,2794.358975,4524.102564,4550.769230,4249.743589,4509.743589,4210.769230,4471.282051,4265.641025,4269.230769,4527.692307,4223.589743,4674.358974,4001.538461,4040.512820
27,2811.282052,4521.025641,4552.820512,4245.641025,4504.102564,4209.743589,4467.179487,4269.230769,4272.820512,4533.333333,4230.256410,4678.974358,4004.102564,4044.102564
28,2830.769231,4521.538461,4553.333333,4249.230769,4504.102564,4209.743589,4469.743589,4272.307692,4272.307692,4529.743589,4231.282051,4680.512820,4001.538461,4047.179487
29,2849.743590,4526.153846,4554.358974,4257.435897,4509.230769,4204.102564,4473.333333,4268.205128,4265.128205,4523.076923,4224.102564,4677.435897,3995.897436,4046.153846
30,2862.564103,4518.974358,4545.641025,4254.871794,4502.051282,4201.025641,4464.102564,4259.487179,4262.051282,4518.974358,4219.487179,4670.769230,3989.230770,4040.000000
31,2866.666667,4510.769230,4536.923076,4248.717948,4492.307692,4202.564102,4457.435897,4253.846153,4258.461538,4514.871794,4219.487179,4665.641025,3983.076924,4038.974358
32,2872.307693,4513.333333,4537.948717,4247.179487,4489.743589,4198.461538,4458.461538,4245.641025,4246.153846,4508.205128,4215.384615,4661.538461,3978.974359,4034.871794
33,2886.666667,4511.794871,4535.897435,4244.615384,4490.256410,4196.923076,4456.410256,4235.384615,4242.051282,4504.615384,4212.820512,4655.384615,3979.487180,4026.153846
34,2905.641026,4512.307692,4533.846153,4249.230769,4497.435897,4200.512820,4456.410256,4239.487179,4251.282051,4511.282051,4214.358974,4658.461538,3984.102565,4032.307692
35,2924.615385,4524.102564,4538.461538,4261.025641,4504.615384,4203.076923,4460.512820,4249.743589,4255.897435,4520.000000,4216.923076,4666.153846,3988.717949,4041.025641
36,2941.538462,4522.051282,4538.974358,4259.487179,4500.512820,4203.076923,4460.512820,4250.769230,4251.794871,4515.897435,4213.846153,4660.000000,3983.589744,4031.794871
37,2958.974359,4504.102564,4533.846153,4252.307692,4493.846153,4198.974358,4457.435897,4244.615384,4245.128205,4503.076923,4208.205128,4648.717948,3975.384616,4023.589743
38,2978.974359,4508.205128,4533.333333,4255.384615,4491.794871,4197.435897,4455.384615,4239.487179,4244.102564,4503.589743,4210.256410,4653.333333,3977.435898,4032.307692
39,3003.589744,4525.128205,4535.384615,4260.000000,4500.000000,4201.025641,4458.974358,4238.461538,4251.282051,4515.897435,4222.564102,4664.615384,3988.205129,4042.564102
40,3028.717949,4525.641025,4538.974358,4262.051282,4506.153846,4204.102564,4462.051282,4242.564102,4255.897435,4522.564102,4227.692307,4667.692307,3997.948718,4045.641025
41,3047.179488,4521.538461,4538.974358,4263.076923,4501.538461,4203.076923,4459.487179,4247.692307,4255.384615,4523.589743,4223.076923,4665.128205,4000.000000,4045.641025
42,3063.589744,4522.564102,4537.948717,4261.538461,4500.000000,4202.051282,4458.461538,4247.179487,4256.410256,4522.564102,4222.051282,4664.102564,3990.769231,4042.051282
43,3083.076924,4521.025641,4538.461538,4263.076923,4502.051282,4202.564102,4459.487179,4245.128205,4255.897435,4520.000000,4220.512820,4664.102564,3983.589744,4041.025641
44,3096.923077,4522.051282,4536.923076,4269.230769,4502.051282,4204.102564,4460.000000,4246.666666,4256.923076,4525.641025,4221.025641,4665.641025,3992.307693,4047.692307
45,3097.435898,4530.256410,4542.051282,4271.282051,4503.076923,4205.128205,4459.487179,4250.256410,4264.102564,4535.897435,4235.897435,4668.717948,4004.102564,4054.871794
46,3091.282052,4530.256410,4549.743589,4270.769230,4503.589743,4203.589743,4458.461538,4246.153846,4268.717948,4532.307692,4245.128205,4673.846153,4005.128205,4057.435897
47,3081.025642,4522.564102,4546.153846,4267.692307,4497.435897,4201.538461,4457.435897,4239.487179,4263.589743,4524.102564,4236.923076,4677.435897,4000.512820,4056.923076
48,3053.846154,4518.461538,4537.948717,4263.076923,4494.871794,4196.410256,4454.358974,4234.358974,4255.384615,4522.564102,4228.717948,4671.794871,3990.256411,4053.333333
49,3029.743590,4515.897435,4535.897435,4260.000000,4491.794871,4191.282051,4444.102564,4226.666666,4246.666666,4513.846153,4225.128205,4662.564102,3981.538462,4046.666666
50,3046.666667,4518.974358,4537.948717,4261.025641,4486.153846,4194.358974,4443.076923,4224.615384,4242.051282,4503.589743,4219.487179,4662.564102,3981.538462,4044.102564
51,3090.769231,4522.051282,4537.435897,4263.589743,4489.743589,4201.538461,4454.871794,4230.256410,4245.641025,4505.641025,4218.974358,4665.641025,3982.051283,4043.076923
52,3130.256411,4512.820512,4531.282051,4263.076923,4491.282051,4200.512820,4460.000000,4231.794871,4248.205128,4507.179487,4217.948717,4661.025641,3973.333334,4038.461538
53,3170.769231,4503.589743,4528.205128,4258.974358,4487.179487,4200.000000,4457.948717,4231.282051,4250.256410,4504.615384,4214.358974,4658.974358,3969.230770,4037.948717
54,3217.948718,4512.820512,4536.410256,4265.641025,4488.717948,4203.589743,4460.512820,4236.410256,4254.871794,4510.256410,4220.000000,4664.615384,3978.461539,4045.641025
55,3257.435898,4522.051282,4541.538461,4276.410256,4491.794871,4202.564102,4461.538461,4235.897435,4254.871794,4516.410256,4228.717948,4667.692307,3985.128206,4047.692307
56,3290.769231,4520.000000,4536.410256,4273.333333,4492.307692,4200.000000,4457.948717,4228.205128,4249.743589,4513.333333,4227.179487,4666.153846,3985.128206,4044.102564
57,3326.153847,4522.564102,4534.871794,4270.769230,4490.769230,4201.025641,4457.435897,4224.102564,4247.692307,4506.153846,4218.461538,4663.076923,3982.564103,4047.692307
58,3356.410257,4522.051282,4538.974358,4276.923076,4491.794871,4202.564102,4458.974358,4218.974358,4246.666666,4504.615384,4214.871794,4661.538461,3980.000000,4048.205128
59,3384.102565,4515.384615,4533.846153,4274.358974,4491.794871,4202.564102,4458.461538,4211.794871,4237.948717,4508.717948,4216.923076,4660.512820,3976.410257,4041.538461
60,3412.307693,4512.307692,4527.692307,4269.743589,4489.230769,4201.025641,4458.974358,4208.717948,4234.358974,4506.666666,4215.384615,4660.512820,3971.794872,4038.974358
61,3443.076924,4511.282051,4530.769230,4273.333333,4488.205128,4198.974358,4459.487179,4212.820512,4243.076923,4503.076923,4214.358974,4662.051282,3972.307693,4041.025641
62,3479.487180,4512.820512,4530.256410,4275.384615,4491.282051,4198.461538,4458.461538,4222.564102,4254.358974,4511.794871,4217.435897,4662.051282,3976.923077,4040.000000
63,3496.923077,4516.410256,4527.692307,4272.820512,4491.282051,4198.974358,4456.410256,4231.794871,4257.948717,4520.512820,4217.435897,4660.512820,3980.512821,4040.512820
64,3484.102565,4516.923076,4531.794871,4277.948717,4490.769230,4201.025641,4458.461538,4233.333333,4260.000000,4518.461538,4216.923076,4661.025641,3980.000000,4045.641025
65,3480.000000,4516.410256,4531.282051,4283.589743,4500.000000,4205.128205,4460.512820,4234.871794,4264.102564,4520.000000,4221.025641,4664.102564,3974.358975,4046.153846
66,3530.769231,4515.897435,4525.128205,4282.564102,4502.564102,4206.153846,4460.000000,4236.923076,4261.025641,4521.025641,4221.538461,4666.666666,3970.256411,4040.000000
67,3626.666667,4512.307692,4525.641025,4282.564102,4494.871794,4202.051282,4458.974358,4227.692307,4251.794871,4509.743589,4216.410256,4660.000000,3973.333334,4036.410256
68,3723.589744,4506.666666,4524.102564,4277.948717,4492.307692,4198.461538,4452.820512,4212.307692,4242.564102,4502.051282,4207.179487,4648.717948,3970.256411,4031.282051
69,3807.692308,4507.179487,4518.974358,4274.358974,4493.333333,4198.461538,4446.153846,4206.666666,4237.435897,4505.641025,4200.512820,4648.205128,3959.487180,4027.692307
70,3894.871795,4515.384615,4529.230769,4283.589743,4492.307692,4201.538461,4453.333333,4211.794871,4241.025641,4508.717948,4210.769230,4660.512820,3965.641026,4037.948717
71,3976.410257,4520.000000,4541.025641,4291.282051,4494.871794,4203.076923,4458.974358,4213.333333,4245.128205,4508.205128,4226.666666,4667.179487,3981.025642,4051.282051
72,4039.487179,4517.948717,4535.897435,4290.256410,4495.897435,4199.487179,4448.717948,4209.230769,4245.128205,4513.333333,4225.128205,4665.641025,3978.974359,4051.282051
73,4098.974358,4512.307692,4524.102564,4289.743589,4490.256410,4196.923076,4440.512820,4207.692307,4243.589743,4516.923076,4214.871794,4662.564102,3970.769231,4043.076923
74,4161.025641,4515.384615,4523.076923,4288.205128,4490.769230,4201.025641,4443.589743,4207.179487,4243.076923,4513.846153,4216.410256,4655.384615,3974.358975,4039.487179
75,4217.948717,4521.538461,4524.615384,4282.051282,4491.794871,4198.461538,4442.051282,4203.589743,4238.974358,4508.717948,4218.974358,4651.282051,3974.871795,4042.051282
76,4275.384615,4516.410256,4523.076923,4280.000000,4488.717948,4189.743589,4437.948717,4197.435897,4233.846153,4505.641025,4212.820512,4653.333333,3971.794872,4044.102564
77,4326.153846,4510.769230,4531.282051,4286.153846,4491.282051,4192.820512,4441.538461,4200.512820,4237.948717,4511.794871,4215.897435,4660.512820,3973.333334,4047.692307
78,4372.820512,4515.897435,4540.000000,4291.282051,4491.282051,4202.051282,4445.641025,4209.743589,4244.615384,4516.410256,4224.615384,4667.692307,3973.846154,4053.846153
79,4418.974358,4518.974358,4540.512820,4291.282051,4490.256410,4201.538461,4444.615384,4214.871794,4249.230769,4514.871794,4225.128205,4671.794871,3973.333334,4054.358974
80,4413.333333,4514.358974,4537.948717,4286.153846,4493.333333,4201.025641,4443.076923,4214.358974,4249.743589,4520.000000,4223.076923,4668.205128,3974.871795,4050.769230
81,4355.384615,4513.333333,4529.743589,4281.025641,4490.769230,4200.512820,4443.076923,4203.589743,4245.641025,4518.461538,4221.025641,4656.923076,3972.820513,4047.179487
82,4337.948717,4512.307692,4519.487179,4279.487179,4484.102564,4194.358974,4441.025641,4192.820512,4237.435897,4504.615384,4208.205128,4648.205128,3962.051283,4040.512820
83,4380.512820,4506.666666,4520.512820,4278.461538,4486.666666,4193.333333,4441.025641,4190.769230,4229.743589,4497.435897,4196.923076,4643.076923,3954.358975,4033.333333
84,4400.000000,4503.589743,4521.025641,4275.897435,4487.179487,4192.820512,4442.051282,4190.769230,4228.717948,4498.974358,4198.974358,4641.025641,3951.794872,4032.307692
85,4367.692307,4502.564102,4512.307692,4272.307692,4482.051282,4191.282051,4442.051282,4190.769230,4232.820512,4498.461538,4205.128205,4642.564102,3954.358975,4033.333333
86,4335.384615,4502.564102,4513.846153,4273.333333,4486.153846,4195.897435,4443.589743,4196.410256,4243.076923,4503.589743,4210.769230,4645.128205,3962.051283,4035.897435
87,4336.410256,4509.743589,4522.564102,4278.974358,4492.820512,4200.512820,4441.538461,4196.410256,4249.230769,4512.820512,4216.923076,4649.743589,3969.743590,4043.589743
88,4377.435897,4517.435897,4524.615384,4285.128205,4490.769230,4196.923076,4431.794871,4186.153846,4244.615384,4513.333333,4216.923076,4653.846153,3972.307693,4051.282051
89,4415.384615,4519.487179,4524.102564,4289.230769,4491.794871,4197.435897,4432.820512,4180.512820,4238.461538,4509.230769,4219.487179,4654.871794,3973.333334,4052.307692
90,4370.769230,4510.769230,4520.000000,4284.102564,4494.358974,4201.538461,4438.461538,4179.487179,4232.307692,4506.666666,4219.487179,4650.256410,3974.871795,4045.128205
91,4291.282051,4505.128205,4513.333333,4277.948717,4487.179487,4193.846153,4432.820512,4177.948717,4227.692307,4503.589743,4213.333333,4647.179487,3967.179488,4039.487179
92,4302.564102,4507.692307,4515.897435,4281.025641,4482.051282,4184.615384,4428.717948,4182.051282,4228.717948,4500.000000,4212.307692,4648.717948,3957.948718,4043.589743
93,4371.282051,4507.179487,4523.589743,4282.051282,4487.692307,4189.230769,4432.820512,4190.769230,4236.410256,4500.512820,4215.384615,4652.820512,3964.615385,4048.717948
94,4402.564102,4507.179487,4522.051282,4277.435897,4489.230769,4196.410256,4433.333333,4195.384615,4244.102564,4508.717948,4216.410256,4654.871794,3973.333334,4047.179487
95,4432.820512,4509.743589,4517.948717,4278.461538,4484.615384,4192.307692,4430.769230,4196.923076,4245.128205,4513.333333,4218.461538,4653.333333,3968.717949,4047.692307
96,4449.230769,4507.692307,4522.051282,4282.051282,4486.666666,4190.256410,4437.435897,4194.871794,4243.076923,4508.717948,4220.512820,4651.794871,3964.102565,4049.230769
97,4410.769230,4506.153846,4520.000000,4281.538461,4487.692307,4191.282051,4439.487179,4190.769230,4239.487179,4498.974358,4213.846153,4650.256410,3959.487180,4042.051282
98,4409.743589,4505.128205,4508.717948,4277.435897,4482.564102,4186.666666,4432.820512,4184.615384,4231.794871,4492.820512,4204.615384,4643.589743,3948.205129,4032.307692
99,4433.333333,4503.076923,4509.230769,4277.948717,4481.538461,4190.256410,4436.410256,4183.076923,4227.692307,4494.871794,4206.153846,4641.538461,3949.230770,4033.333333
100,4368.717948,4504.615384,4522.564102,4280.000000,4486.666666,4199.487179,4445.128205,4193.846153,4237.948717,4502.564102,4221.025641,4649.743589,3959.487180,4045.641025
101,4260.512820,4507.692307,4525.128205,4278.461538,4489.743589,4198.461538,4441.025641,4197.948717,4243.076923,4502.564102,4230.769230,4654.871794,3957.435898,4050.769230
102,4201.025641,4508.205128,4520.000000,4277.435897,4488.717948,4195.384615,4434.871794,4190.769230,4234.871794,4495.384615,4223.076923,4650.256410,3952.820513,4043.589743
103,4166.153846,4507.179487,4521.025641,4283.076923,4489.743589,4202.051282,4437.435897,4185.641025,4233.333333,4496.923076,4220.000000,4649.743589,3962.051283,4042.051282
104,4134.871794,4507.692307,4524.102564,4286.153846,4488.717948,4199.487179,4433.846153,4180.512820,4228.717948,4501.538461,4220.512820,4648.717948,3962.564103,4041.025641
105,4122.051282,4508.205128,4517.948717,4281.538461,4483.589743,4191.282051,4426.153846,4166.153846,4208.205128,4493.333333,4210.256410,4640.000000,3948.717949,4034.871794
106,4131.794871,4508.717948,4511.794871,4276.923076,4482.564102,4193.846153,4426.153846,4157.948717,4199.487179,4483.076923,4203.589743,4636.923076,3947.179488,4032.820512
107,4180.000000,4509.230769,4517.435897,4279.487179,4490.769230,4199.487179,4428.205128,4172.820512,4213.846153,4486.666666,4207.692307,4645.128205,3960.000000,4041.538461
108,4268.717948,4510.769230,4520.000000,4282.564102,4494.871794,4201.538461,4431.282051,4187.179487,4225.128205,4497.435897,4210.256410,4649.230769,3965.641026,4046.666666
109,4345.641025,4509.230769,4510.769230,4277.435897,4487.179487,4200.000000,4431.794871,4184.102564,4226.153846,4500.000000,4205.641025,4644.102564,3964.615385,4040.000000
110,4323.589743,4504.615384,4505.641025,4273.846153,4482.564102,4193.333333,4428.717948,4185.128205,4230.256410,4501.538461,4204.102564,4642.564102,3968.205129,4036.410256
111,4220.512820,4504.615384,4513.333333,4276.923076,4486.666666,4186.666666,4428.717948,4194.871794,4237.435897,4507.179487,4212.307692,4646.153846,3974.358975,4038.974358
112,4162.564102,4510.256410,4522.051282,4279.487179,4491.282051,4185.641025,4429.743589,4194.358974,4238.974358,4507.179487,4217.948717,4649.230769,3977.435898,4041.025641
113,4190.256410,4509.743589,4518.974358,4275.384615,4490.769230,4190.256410,4430.769230,4185.641025,4233.846153,4497.948717,4208.205128,4648.205128,3976.410257,4036.923076
114,4251.282051,4504.102564,4513.333333,4274.871794,4488.717948,4192.820512,4439.487179,4190.769230,4229.743589,4496.410256,4199.487179,4646.153846,3976.923077,4031.282051
115,4289.743589,4508.205128,4516.410256,4278.974358,4492.307692,4192.820512,4445.128205,4193.333333,4226.666666,4498.461538,4203.589743,4645.128205,3976.410257,4031.794871
116,4289.743589,4520.000000,4521.538461,4282.051282,4496.923076,4193.846153,4434.871794,4182.051282,4217.948717,4489.743589,4201.025641,4643.589743,3973.333334,4034.358974
117,4302.051282,4523.076923,4520.000000,4280.000000,4497.948717,4197.435897,4429.743589,4181.025641,4213.333333,4483.589743,4197.948717,4645.128205,3976.923077,4036.410256
118,4365.641025,4522.564102,4522.564102,4272.307692,4494.871794,4192.820512,4434.871794,4186.666666,4219.487179,4488.717948,4203.589743,4652.307692,3983.076924,4037.948717
119,4427.179487,4520.000000,4524.615384,4260.000000,4489.743589,4182.564102,4431.282051,4182.051282,4223.589743,4488.717948,4202.051282,4654.358974,3977.435898,4037.435897
120,4460.512820,4515.897435,4520.000000,4256.410256,4487.692307,4187.179487,4431.282051,4185.641025,4226.153846,4489.743589,4197.948717,4648.717948,3973.333334,4034.358974
121,4504.102564,4519.487179,4524.615384,4274.358974,4496.923076,4198.974358,4443.589743,4201.538461,4237.948717,4502.564102,4205.128205,4651.794871,3983.076924,4035.897435
122,4551.282051,4523.076923,4528.205128,4286.153846,4502.564102,4201.538461,4447.179487,4204.615384,4244.102564,4505.641025,4207.692307,4657.435897,3985.641026,4038.461538
123,4584.102564,4518.974358,4522.564102,4280.512820,4494.871794,4197.948717,4440.000000,4198.974358,4236.923076,4500.000000,4205.128205,4653.846153,3981.025642,4033.333333
124,4619.487179,4521.025641,4527.179487,4280.512820,4496.410256,4197.435897,4442.564102,4208.717948,4237.948717,4504.102564,4211.282051,4654.871794,3987.179488,4034.358974
125,4657.435897,4526.666666,4539.487179,4283.076923,4504.615384,4201.538461,4449.230769,4216.410256,4247.179487,4507.179487,4215.897435,4665.128205,3990.256411,4043.076923
126,4685.128205,4524.102564,4541.025641,4284.102564,4501.538461,4202.564102,4448.717948,4212.307692,4245.641025,4499.487179,4211.282051,4666.153846,3982.051283,4045.128205
127,4706.153846,4522.564102,4535.897435,4288.717948,4497.948717,4200.000000,4453.333333,4213.333333,4242.564102,4501.025641,4209.743589,4659.487179,3978.461539,4042.564102
128,4728.205128,4523.589743,4537.948717,4291.282051,4498.974358,4199.487179,4458.461538,4218.461538,4249.230769,4511.794871,4207.692307,4657.948717,3982.564103,4040.512820
129,4748.717948,4523.076923,4536.923076,4285.641025,4494.871794,4201.025641,4452.820512,4216.923076,4249.230769,4507.179487,4201.538461,4659.487179,3978.461539,4034.871794
130,4764.102564,4518.461538,4526.666666,4280.512820,4491.794871,4196.923076,4446.153846,4213.846153,4241.538461,4495.384615,4200.000000,4656.410256,3968.717949,4027.692307
131,4773.333333,4509.743589,4520.000000,4280.000000,4491.282051,4187.692307,4446.666666,4209.743589,4235.897435,4491.794871,4198.461538,4647.692307,3963.589744,4022.051282
132,4784.102564,4505.128205,4527.692307,4276.410256,4488.205128,4184.615384,4444.615384,4202.564102,4231.794871,4488.205128,4190.256410,4646.153846,3960.000000,4018.461538
133,4802.564102,4507.692307,4533.846153,4271.282051,4490.769230,4187.179487,4442.564102,4198.974358,4231.282051,4482.051282,4186.666666,4654.358974,3958.974359,4019.487179
134,4820.000000,4507.692307,4530.256410,4271.282051,4491.794871,4186.666666,4446.153846,4200.512820,4231.794871,4483.589743,4193.333333,4657.435897,3963.589744,4025.128205
135,4826.153846,4505.641025,4528.205128,4274.871794,4489.230769,4184.102564,4446.153846,4201.538461,4232.307692,4488.717948,4195.384615,4652.307692,3968.717949,4026.666666
136,4835.384615,4507.179487,4526.666666,4274.358974,4490.769230,4183.076923,4442.051282,4202.051282,4234.871794,4486.153846,4190.769230,4651.282051,3968.717949,4026.666666
137,4857.435897,4505.641025,4526.153846,4272.307692,4490.256410,4183.076923,4441.538461,4200.512820,4236.410256,4484.615384,4194.358974,4655.897435,3967.179488,4029.230769
138,4877.435897,4507.692307,4532.820512,4278.974358,4492.307692,4187.692307,4448.205128,4202.564102,4236.923076,4493.333333,4202.051282,4656.410256,3972.307693,4031.282051
139,4891.794871,4515.384615,4538.974358,4281.538461,4502.564102,4197.435897,4456.410256,4207.692307,4240.000000,4496.923076,4201.025641,4657.435897,3975.897436,4035.897435
140,4907.692307,4512.820512,4537.435897,4276.410256,4504.102564,4200.000000,4457.435897,4204.102564,4239.487179,4485.128205,4198.461538,4661.025641,3969.743590,4036.923076
141,4924.102564,4510.769230,4535.384615,4280.512820,4499.487179,4197.435897,4456.410256,4201.538461,4230.256410,4481.538461,4203.076923,4663.589743,3966.666667,4035.897435
142,4938.461538,4518.461538,4543.589743,4286.153846,4503.076923,4197.948717,4459.487179,4210.769230,4232.307692,4489.743589,4207.692307,4667.179487,3972.307693,4045.128205
143,4958.461538,4523.589743,4552.820512,4286.666666,4505.128205,4203.076923,4460.512820,4219.487179,4247.179487,4496.923076,4216.410256,4673.846153,3984.615385,4057.948717
144,4974.871794,4523.076923,4550.256410,4291.794871,4501.538461,4198.974358,4456.923076,4219.487179,4250.769230,4503.076923,4221.025641,4678.461538,3991.282052,4058.461538
145,4972.307692,4517.948717,4540.000000,4291.794871,4497.435897,4185.641025,4452.307692,4216.923076,4244.615384,4503.076923,4211.282051,4670.769230,3983.589744,4050.256410
146,4980.000000,4512.307692,4537.948717,4285.641025,4498.461538,4189.230769,4449.230769,4216.923076,4247.692307,4497.948717,4205.641025,4665.128205,3977.435898,4049.230769
147,4974.871794,4516.923076,4538.461538,4285.641025,4502.051282,4197.948717,4447.692307,4215.897435,4249.743589,4498.461538,4213.333333,4667.179487,3979.487180,4048.205128
148,4867.692307,4525.128205,4537.435897,4285.641025,4502.051282,4190.769230,4445.641025,4215.384615,4243.076923,4503.589743,4217.948717,4666.666666,3979.487180,4045.641025
149,4680.512820,4521.538461,4538.974358,4281.538461,4501.025641,4186.153846,4442.051282,4214.871794,4241.538461,4502.564102,4217.435897,4666.153846,3978.974359,4049.743589
150,4523.076923,4520.512820,4541.538461,4283.589743,4501.538461,4197.435897,4446.153846,4215.384615,4246.666666,4505.128205,4218.974358,4672.307692,3986.153847,4058.974358
151,4407.692307,4527.179487,4546.153846,4289.230769,4501.538461,4201.538461,4454.871794,4217.948717,4251.794871,4511.794871,4224.102564,4675.897435,3992.820513,4064.102564
152,4288.717948,4524.615384,4546.666666,4285.641025,4500.512820,4195.897435,4455.384615,4219.487179,4255.384615,4507.692307,4228.717948,4672.307692,3993.333334,4060.000000
153,4181.538461,4520.000000,4539.487179,4282.564102,4505.128205,4195.897435,4452.820512,4222.051282,4254.358974,4505.641025,4228.717948,4671.282051,3993.333334,4055.897435
154,4100.000000,4522.564102,4538.974358,4287.179487,4509.230769,4200.000000,4458.974358,4226.153846,4257.948717,4511.794871,4221.025641,4670.769230,3992.307693,4055.384615
155,4023.589743,4524.615384,4542.051282,4288.717948,4507.692307,4202.564102,4463.076923,4225.128205,4260.000000,4509.743589,4214.871794,4665.128205,3988.717949,4056.410256
156,3949.230770,4522.564102,4537.435897,4281.538461,4507.179487,4197.948717,4453.846153,4217.435897,4252.307692,4496.923076,4214.871794,4662.051282,3986.153847,4054.871794
157,3882.051283,4520.000000,4537.435897,4274.871794,4506.153846,4190.769230,4445.128205,4213.333333,4243.589743,4491.282051,4214.871794,4664.102564,3986.153847,4052.307692
158,3824.102565,4515.897435,4540.512820,4276.923076,4498.974358,4187.179487,4446.666666,4214.358974,4245.641025,4493.846153,4217.435897,4668.717948,3983.076924,4053.333333
159,3773.333334,4514.358974,4536.410256,4281.025641,4494.358974,4187.692307,4446.666666,4217.435897,4250.256410,4495.384615,4218.974358,4673.333333,3982.051283,4054.871794
160,3726.666667,4521.025641,4541.538461,4281.025641,4499.487179,4191.282051,4447.179487,4219.487179,4248.717948,4499.487179,4216.923076,4672.820512,3990.769231,4059.487179
161,3681.025642,4525.128205,4550.769230,4281.025641,4504.102564,4194.358974,4452.307692,4220.512820,4249.230769,4497.435897,4218.974358,4668.205128,3991.794872,4063.076923
162,3637.948718,4522.051282,4545.641025,4282.051282,4503.076923,4196.410256,4458.974358,4224.615384,4252.307692,4494.871794,4223.589743,4668.717948,3982.051283,4059.487179
163,3601.025642,4520.512820,4538.461538,4283.589743,4505.641025,4200.000000,4460.000000,4231.282051,4253.846153,4498.974358,4222.564102,4670.769230,3982.051283,4056.923076
164,3566.153847,4522.564102,4541.538461,4280.000000,4509.743589,4202.051282,4460.000000,4233.333333,4251.794871,4496.923076,4216.923076,4668.205128,3985.641026,4057.435897
165,3530.256411,4521.025641,4542.564102,4276.923076,4505.128205,4198.974358,4460.512820,4229.743589,4246.666666,4488.205128,4215.384615,4668.205128,3980.000000,4055.384615
166,3500.000000,4515.897435,4540.000000,4276.410256,4497.948717,4197.948717,4457.948717,4221.538461,4246.666666,4491.282051,4218.974358,4673.333333,3976.923077,4055.897435
167,3471.282052,4514.358974,4540.512820,4273.846153,4500.512820,4193.846153,4448.205128,4219.487179,4251.282051,4496.410256,4221.538461,4672.820512,3981.538462,4057.435897
168,3441.538462,4512.307692,4540.000000,4269.230769,4500.000000,4187.179487,4442.051282,4228.205128,4252.820512,4490.256410,4220.512820,4667.692307,3980.000000,4051.794871
169,3417.435898,4510.256410,4538.461538,4268.717948,4494.871794,4191.794871,4450.769230,4233.846153,4255.897435,4492.820512,4218.974358,4664.615384,3977.948718,4047.692307
170,3401.025642,4517.948717,4538.461538,4273.333333,4500.512820,4200.512820,4462.051282,4232.820512,4262.564102,4502.051282,4218.461538,4663.589743,3980.000000,4052.820512
171,3383.076924,4521.538461,4538.974358,4273.333333,4505.128205,4201.025641,4460.000000,4232.820512,4257.948717,4495.384615,4213.846153,4663.589743,3980.000000,4051.794871
172,3363.589744,4515.897435,4534.358974,4270.256410,4498.974358,4197.435897,4450.769230,4225.641025,4239.487179,4478.461538,4206.153846,4656.923076,3971.282052,4043.589743
173,3348.205129,4511.794871,4529.743589,4268.205128,4496.923076,4194.358974,4443.589743,4213.333333,4229.743589,4471.794871,4202.564102,4652.307692,3966.666667,4042.564102
174,3338.974359,4514.871794,4531.794871,4268.205128,4498.461538,4190.256410,4443.589743,4220.000000,4234.358974,4475.384615,4207.692307,4656.923076,3974.358975,4049.230769
175,3332.307693,4517.435897,4534.358974,4270.769230,4497.948717,4188.205128,4445.641025,4231.794871,4239.487179,4481.538461,4216.923076,4661.538461,3973.846154,4051.282051
176,3318.974359,4522.051282,4536.410256,4273.333333,4501.538461,4188.717948,4445.128205,4226.153846,4243.076923,4489.230769,4220.000000,4662.564102,3971.794872,4052.820512
177,3292.307693,4523.589743,4534.358974,4271.282051,4498.461538,4186.666666,4443.076923,4223.076923,4248.717948,4494.358974,4222.051282,4665.128205,3983.589744,4058.461538
178,3258.461539,4515.897435,4527.692307,4265.641025,4488.205128,4185.641025,4444.615384,4227.179487,4248.205128,4492.307692,4223.589743,4664.615384,3988.205129,4055.384615
179,3232.820513,4510.256410,4524.615384,4259.487179,4489.230769,4184.615384,4444.102564,4222.051282,4242.051282,4489.743589,4221.025641,4660.512820,3977.948718,4048.717948
180,3216.410257,4506.153846,4527.179487,4256.410256,4494.871794,4184.102564,4441.538461,4219.487179,4244.615384,4491.282051,4222.051282,4661.025641,3980.000000,4050.769230
181,3205.128206,4506.666666,4529.743589,4261.025641,4496.410256,4188.205128,4448.717948,4231.282051,4253.333333,4493.846153,4226.153846,4665.128205,3988.205129,4054.871794
182,3196.923077,4507.692307,4525.641025,4264.615384,4495.897435,4189.743589,4454.871794,4235.897435,4253.846153,4494.358974,4226.153846,4664.615384,3984.102565,4054.358974
183,3193.846154,4506.666666,4525.128205,4260.512820,4491.794871,4185.641025,4449.230769,4229.743589,4251.282051,4490.769230,4223.589743,4660.000000,3980.000000,4054.871794
184,3197.948718,4508.717948,4530.769230,4256.410256,4492.820512,4186.153846,4445.128205,4230.256410,4251.794871,4488.205128,4224.615384,4658.974358,3978.974359,4058.974358
185,3204.615385,4508.717948,4531.282051,4253.333333,4496.923076,4188.717948,4446.666666,4232.820512,4250.769230,4491.282051,4225.128205,4664.615384,3978.974359,4058.974358
186,3211.794872,4507.179487,4526.153846,4252.307692,4493.846153,4185.641025,4446.153846,4228.205128,4247.179487,4487.692307,4223.076923,4664.615384,3982.051283,4056.410256
187,3224.615385,4510.256410,4524.102564,4255.897435,4491.794871,4188.717948,4449.230769,4224.615384,4247.179487,4482.564102,4216.923076,4655.897435,3979.487180,4052.820512
188,3250.256411,4513.846153,4526.153846,4261.538461,4496.923076,4199.487179,4458.461538,4232.307692,4248.205128,4482.051282,4213.333333,4655.897435,3970.769231,4051.282051
189,3283.589744,4511.794871,4528.717948,4265.128205,4499.487179,4197.435897,4459.487179,4237.948717,4250.256410,4482.051282,4217.948717,4662.564102,3970.769231,4057.435897
190,3324.615385,4512.820512,4535.897435,4264.615384,4500.512820,4193.333333,4455.897435,4233.846153,4254.871794,4484.102564,4225.128205,4666.153846,3981.025642,4063.076923
191,3365.641026,4512.820512,4540.512820,4265.641025,4502.051282,4196.410256,4455.897435,4229.743589,4254.871794,4486.666666,4223.589743,4667.179487,3983.589744,4061.025641
192,3354.358975,4507.692307,4531.794871,4268.205128,4500.512820,4191.794871,4456.410256,4229.230769,4248.205128,4486.666666,4223.589743,4664.102564,3977.948718,4058.461538
193,3275.897436,4512.820512,4526.666666,4266.153846,4499.487179,4188.717948,4457.435897,4228.717948,4245.641025,4487.692307,4227.179487,4659.487179,3975.897436,4061.025641
194,3197.948718,4524.102564,4534.871794,4266.666666,4505.641025,4197.948717,4456.410256,4231.282051,4250.769230,4487.179487,4227.179487,4661.538461,3982.051283,4062.564102
195,3156.410257,4527.179487,4540.000000,4269.230769,4508.717948,4202.051282,4457.435897,4234.358974,4251.794871,4484.102564,4224.615384,4666.153846,3988.717949,4065.128205
196,3125.641026,4519.487179,4529.230769,4263.589743,4502.051282,4195.384615,4458.974358,4234.358974,4247.179487,4482.051282,4224.102564,4663.589743,3984.615385,4065.128205
197,3119.487180,4512.307692,4518.974358,4253.333333,4495.384615,4187.692307,4450.769230,4233.333333,4244.615384,4478.974358,4219.487179,4657.435897,3974.871795,4057.948717
198,3175.384616,4512.307692,4522.051282,4253.333333,4494.871794,4183.589743,4444.102564,4230.769230,4244.102564,4472.307692,4214.358974,4655.897435,3969.230770,4053.846153
199,3272.307693,4514.358974,4530.256410,4263.076923,4495.384615,4191.282051,4453.846153,4229.743589,4247.692307,4475.384615,4221.025641,4657.948717,3973.846154,4058.974358
200,3364.102565,4514.871794,4532.307692,4275.384615,4497.948717,4201.538461,4457.948717,4232.307692,4249.743589,4476.923076,4226.153846,4660.000000,3978.461539,4062.564102
201,3438.974359,4514.358974,4526.666666,4275.384615,4502.051282,4198.974358,4449.230769,4228.205128,4246.153846,4472.307692,4219.487179,4655.897435,3976.410257,4058.974358
202,3511.282052,4515.897435,4523.076923,4270.769230,4502.051282,4195.384615,4451.794871,4222.564102,4245.641025,4474.358974,4216.410256,4650.256410,3973.333334,4054.871794
203,3584.102565,4520.000000,4525.641025,4275.897435,4502.051282,4201.538461,4462.051282,4224.615384,4251.282051,4478.461538,4216.923076,4652.820512,3974.871795,4056.410256
204,3645.641026,4518.461538,4524.102564,4279.487179,4503.076923,4200.512820,4459.487179,4224.615384,4246.666666,4471.282051,4218.461538,4657.948717,3970.769231,4058.974358
205,3703.076924,4514.871794,4524.102564,4278.461538,4497.435897,4190.769230,4449.743589,4215.897435,4238.461538,4462.564102,4218.974358,4657.435897,3964.102565,4055.897435
206,3769.743590,4512.307692,4528.205128,4275.897435,4489.230769,4187.692307,4446.153846,4212.820512,4238.974358,4467.179487,4215.897435,4655.897435,3964.102565,4052.820512
207,3847.692308,4511.282051,4527.179487,4272.820512,4490.769230,4190.769230,4448.717948,4216.923076,4238.974358,4475.897435,4213.333333,4658.461538,3965.641026,4054.871794
208,3925.641026,4513.846153,4526.153846,4272.307692,4493.846153,4192.307692,4450.256410,4217.435897,4242.051282,4473.333333,4217.948717,4662.051282,3967.179488,4057.948717
209,3992.307693,4515.384615,4526.153846,4270.256410,4491.282051,4190.256410,4446.666666,4215.897435,4245.128205,4472.307692,4222.564102,4663.076923,3970.256411,4056.410256
210,4053.333333,4508.717948,4525.128205,4269.230769,4493.333333,4186.666666,4445.128205,4216.923076,4245.128205,4476.923076,4220.000000,4660.000000,3972.820513,4052.820512
211,4117.435897,4503.589743,4523.589743,4271.282051,4497.948717,4186.666666,4444.615384,4214.871794,4243.076923,4475.384615,4218.461538,4657.435897,3974.358975,4053.333333
212,4180.512820,4510.256410,4524.615384,4271.282051,4496.923076,4189.743589,4442.564102,4214.358974,4238.974358,4473.846153,4220.000000,4657.948717,3981.025642,4056.410256
213,4234.358974,4511.282051,4524.102564,4267.692307,4496.410256,4187.692307,4442.051282,4216.410256,4238.974358,4478.461538,4218.461538,4660.000000,3987.179488,4055.897435
214,4283.076923,4505.641025,4524.102564,4265.128205,4498.461538,4182.051282,4443.076923,4215.897435,4243.076923,4477.948717,4215.384615,4661.538461,3987.179488,4050.769230
215,4332.307692,4508.205128,4530.256410,4266.153846,4500.000000,4182.564102,4443.076923,4216.410256,4248.205128,4475.384615,4215.897435,4658.974358,3986.153847,4049.230769
216,4381.025641,4516.923076,4535.897435,4272.307692,4503.076923,4189.743589,4444.615384,4221.538461,4250.769230,4480.000000,4220.000000,4658.461538,3990.256411,4052.820512
217,4428.717948,4524.102564,4537.948717,4277.948717,4510.769230,4200.000000,4452.820512,4223.076923,4255.897435,4490.769230,4223.589743,4665.641025,4001.025641,4056.923076
218,4470.256410,4523.076923,4537.948717,4272.820512,4512.820512,4200.512820,4459.487179,4223.076923,4257.435897,4493.333333,4223.076923,4668.717948,4002.564102,4054.358974
219,4505.641025,4518.974358,4537.435897,4273.333333,4506.153846,4196.410256,4456.923076,4225.128205,4250.769230,4481.025641,4218.461538,4661.025641,3994.358975,4045.128205
220,4543.589743,4524.102564,4537.435897,4282.051282,4508.717948,4199.487179,4456.923076,4228.717948,4250.256410,4475.897435,4221.025641,4663.589743,3996.923077,4046.666666
221,4580.000000,4530.769230,4540.512820,4280.512820,4518.974358,4203.076923,4460.512820,4230.769230,4256.410256,4487.179487,4230.769230,4674.871794,4005.641025,4056.923076
222,4611.794871,4526.153846,4541.025641,4276.410256,4516.923076,4200.000000,4457.948717,4229.230769,4257.435897,4490.769230,4232.820512,4675.384615,4005.641025,4054.871794
223,4641.538461,4518.974358,4540.000000,4276.923076,4511.794871,4197.948717,4455.384615,4229.230769,4257.948717,4490.769230,4226.666666,4671.282051,4003.076923,4046.153846
224,4673.333333,4522.051282,4547.179487,4276.923076,4515.897435,4200.000000,4460.000000,4235.384615,4268.205128,4497.948717,4229.230769,4677.435897,4008.205128,4052.307692
225,4707.692307,4527.179487,4553.333333,4279.487179,4515.897435,4201.025641,4461.025641,4239.487179,4273.333333,4499.487179,4236.923076,4684.615384,4013.333333,4060.512820
226,4735.384615,4528.717948,4552.307692,4283.589743,4514.358974,4198.461538,4457.435897,4235.384615,4263.589743,4491.282051,4233.333333,4676.923076,4011.282051,4054.358974
227,4757.435897,4529.743589,4551.282051,4282.051282,4515.384615,4194.358974,4455.897435,4231.794871,4261.538461,4489.230769,4224.615384,4668.717948,4005.128205,4046.666666
228,4782.051282,4533.333333,4553.333333,4282.564102,4514.358974,4193.333333,4458.461538,4234.358974,4265.641025,4491.282051,4224.102564,4673.333333,4005.128205,4049.230769
229,4807.179487,4532.820512,4552.820512,4287.692307,4512.307692,4196.923076,4459.487179,4233.333333,4263.076923,4491.794871,4229.743589,4678.974358,4008.205128,4051.794871
230,4828.717948,4529.230769,4552.307692,4285.641025,4512.307692,4197.948717,4457.435897,4224.102564,4263.076923,4489.743589,4233.333333,4677.435897,4005.641025,4051.794871
231,4851.282051,4533.846153,4555.384615,4287.179487,4512.820512,4197.948717,4458.461538,4222.564102,4265.128205,4487.692307,4231.794871,4680.000000,4005.641025,4055.897435
232,4871.282051,4535.897435,4556.410256,4289.743589,4515.384615,4197.948717,4461.538461,4232.307692,4266.153846,4488.717948,4232.820512,4685.641025,4007.692307,4057.948717
233,4885.641025,4529.230769,4552.820512,4285.128205,4513.333333,4193.846153,4461.025641,4235.384615,4265.641025,4490.769230,4233.333333,4681.025641,4006.666666,4052.820512
234,4903.076923,4529.743589,4552.820512,4286.153846,4506.666666,4191.794871,4458.974358,4228.717948,4262.051282,4489.230769,4230.769230,4678.974358,4005.128205,4052.307692
235,4924.615384,4537.948717,4556.410256,4293.333333,4508.717948,4196.923076,4458.974358,4231.282051,4262.051282,4485.641025,4234.358974,4685.641025,4007.692307,4057.435897
236,4936.923076,4535.897435,4556.410256,4291.794871,4509.743589,4200.000000,4459.487179,4236.923076,4264.615384,4485.641025,4234.358974,4685.641025,4006.666666,4054.871794
237,4940.512820,4523.076923,4551.282051,4284.615384,4507.692307,4196.923076,4458.974358,4229.230769,4258.461538,4480.512820,4222.051282,4675.897435,3996.923077,4044.102564
238,4951.794871,4521.025641,4549.230769,4284.102564,4508.717948,4197.435897,4458.461538,4224.615384,4251.282051,4473.846153,4217.948717,4674.358974,3994.358975,4046.153846
239,4969.743589,4531.282051,4552.307692,4284.615384,4509.743589,4198.461538,4458.974358,4231.794871,4256.410256,4481.025641,4230.256410,4683.076923,4004.615384,4054.871794
240,4981.025641,4533.846153,4552.820512,4287.692307,4508.717948,4197.435897,4457.435897,4234.358974,4263.076923,4488.717948,4234.358974,4684.102564,4007.179487,4054.358974
241,4994.358974,4529.230769,4552.820512,4295.384615,4508.717948,4197.948717,4457.948717,4236.923076,4266.153846,4486.153846,4227.692307,4681.025641,4002.051282,4052.307692
242,5015.384615,4535.384615,4554.871794,4299.487179,4509.230769,4198.461538,4460.000000,4247.179487,4270.769230,4487.179487,4230.256410,4683.589743,4005.128205,4056.410256
243,5031.282051,4541.538461,4555.384615,4299.487179,4510.769230,4198.974358,4460.512820,4246.666666,4271.282051,4492.820512,4234.871794,4684.615384,4009.230769,4058.461538
244,5035.384615,4536.923076,4554.358974,4296.923076,4515.384615,4200.000000,4459.487179,4237.435897,4264.615384,4490.256410,4231.282051,4680.512820,4003.076923,4054.871794
245,5043.076923,4537.435897,4553.333333,4297.948717,4514.871794,4199.487179,4459.487179,4236.923076,4258.974358,4485.128205,4230.256410,4677.948717,3999.487180,4052.820512
246,5059.487179,4541.538461,4552.307692,4298.974358,4512.307692,4201.538461,4457.948717,4237.435897,4261.538461,4486.153846,4232.820512,4678.974358,4003.589743,4054.871794
247,5072.820512,4537.948717,4556.923076,4297.948717,4514.871794,4201.538461,4458.461538,4233.333333,4263.589743,4489.230769,4233.333333,4683.076923,4003.589743,4058.461538
248,5077.435897,4537.948717,4561.538461,4298.974358,4513.333333,4192.820512,4458.974358,4231.794871,4258.461538,4485.641025,4232.820512,4687.179487,3994.358975,4057.435897
249,5082.564102,4535.384615,4556.410256,4296.923076,4506.153846,4185.641025,4448.717948,4230.769230,4253.846153,4475.897435,4231.282051,4679.487179,3986.153847,4051.282051
250,5088.717948,4527.692307,4550.769230,4288.205128,4499.487179,4186.153846,4443.589743,4226.666666,4252.307692,4472.307692,4221.538461,4669.230769,3988.205129,4047.179487
251,5089.743589,4521.538461,4545.641025,4284.615384,4497.435897,4188.205128,4453.333333,4221.538461,4251.794871,4476.410256,4216.410256,4669.743589,3989.743590,4046.666666
252,5087.692307,4520.512820,4543.076923,4288.717948,4497.948717,4185.641025,4459.487179,4220.512820,4251.794871,4476.923076,4220.512820,4671.282051,3987.179488,4046.153846
253,5093.333333,4522.564102,4547.179487,4289.743589,4501.538461,4186.153846,4455.897435,4228.205128,4251.794871,4475.384615,4221.025641,4669.230769,3987.692308,4042.051282
254,5093.333333,4523.589743,4549.743589,4288.717948,4503.076923,4192.820512,4457.435897,4234.358974,4253.846153,4478.461538,4223.076923,4670.769230,3989.230770,4040.512820
255,5073.333333,4522.051282,4549.230769,4285.641025,4505.128205,4198.461538,4462.564102,4232.307692,4258.974358,4485.641025,4228.717948,4675.897435,3992.307693,4047.179487
256,5060.000000,4526.153846,4550.769230,4285.128205,4508.717948,4200.512820,4461.025641,4229.743589,4264.615384,4492.820512,4232.820512,4679.487179,4002.051282,4052.307692
257,5062.564102,4534.358974,4546.666666,4291.794871,4507.179487,4197.948717,4454.358974,4232.307692,4263.589743,4492.820512,4230.769230,4676.410256,4004.102564,4049.230769
258,5057.435897,4531.794871,4537.435897,4293.333333,4506.666666,4191.282051,4446.153846,4227.692307,4258.461538,4489.230769,4227.692307,4670.256410,3995.384616,4043.589743
259,5049.743589,4522.051282,4535.897435,4286.666666,4506.666666,4191.282051,4441.538461,4223.076923,4256.410256,4488.717948,4224.615384,4666.153846,3990.256411,4039.487179
