,AF3,F7,F3,FC5,T7,P7,O1,O2,P8,T8,FC6,F4,F8,AF4
0,4073.846153,4519.487179,4509.743589,4264.102564,4475.384615,4198.974358,4443.076923,4215.384615,4236.923076,4468.717948,4198.461538,4649.743589,3974.358975,4059.487179
1,4075.384615,4527.179487,4512.820512,4263.076923,4476.410256,4200.512820,4440.512820,4217.435897,4233.846153,4476.410256,4212.820512,4652.307692,3973.333334,4061.025641
2,4073.846153,4537.948717,4514.871794,4262.564102,4478.461538,4195.897435,4438.461538,4216.923076,4233.846153,4475.897435,4224.615384,4654.358974,3979.487180,4061.538461
3,4073.333333,4530.769230,4512.307692,4265.641025,4480.512820,4193.333333,4441.025641,4215.384615,4237.948717,4472.820512,4215.384615,4654.358974,3989.230770,4064.102564
4,4072.307692,4517.948717,4507.179487,4265.128205,4477.435897,4194.871794,4441.538461,4213.333333,4230.769230,4468.205128,4198.974358,4650.256410,3988.205129,4062.051282
5,4078.974358,4522.051282,4509.230769,4265.128205,4474.871794,4195.897435,4441.025641,4214.871794,4228.717948,4465.128205,4204.615384,4650.769230,3984.102565,4061.025641
6,4087.179487,4532.820512,4515.897435,4266.153846,4474.871794,4196.923076,4444.615384,4220.000000,4240.512820,4469.743589,4220.000000,4657.948717,3982.051283,4064.102564
7,4081.538461,4527.179487,4514.358974,4261.538461,4473.333333,4190.256410,4445.128205,4216.410256,4237.948717,4469.230769,4222.051282,4656.923076,3973.846154,4061.538461
8,4077.435897,4526.666666,4511.282051,4257.435897,4471.794871,4188.717948,4436.410256,4210.256410,4225.641025,4460.512820,4215.897435,4652.820512,3973.846154,4061.538461
9,4086.666666,4535.897435,4513.846153,4261.025641,4473.333333,4194.871794,4431.794871,4211.794871,4227.179487,4458.974358,4208.717948,4653.846153,3983.589744,4067.179487
10,4090.256410,4529.230769,4511.794871,4266.153846,4475.897435,4195.384615,4437.948717,4207.692307,4227.692307,4461.538461,4208.205128,4653.846153,3981.538462,4065.128205
11,4088.717948,4521.538461,4510.769230,4273.333333,4477.948717,4190.769230,4440.000000,4202.051282,4222.564102,4459.487179,4214.871794,4650.256410,3976.923077,4060.000000
12,4097.435897,4535.897435,4515.897435,4274.871794,4474.871794,4195.897435,4436.923076,4208.717948,4228.205128,4462.051282,4216.410256,4653.333333,3979.487180,4061.538461
13,4110.769230,4544.102564,4515.897435,4271.282051,4475.384615,4202.051282,4438.974358,4216.923076,4235.384615,4466.153846,4210.769230,4657.948717,3981.025642,4069.743589
14,4120.000000,4534.871794,4513.846153,4274.358974,4484.615384,4198.974358,4443.076923,4214.871794,4230.769230,4458.974358,4210.769230,4657.948717,3983.589744,4072.307692
15,4124.102564,4536.923076,4518.974358,4281.025641,4489.230769,4201.025641,4443.589743,4214.358974,4224.102564,4455.897435,4216.923076,4657.435897,3989.230770,4072.307692
16,4125.641025,4542.564102,4521.025641,4276.410256,4485.641025,4203.076923,4443.076923,4215.384615,4223.076923,4460.000000,4218.461538,4654.871794,3981.025642,4072.820512
17,4127.692307,4533.333333,4520.000000,4266.153846,4480.512820,4201.538461,4445.641025,4214.358974,4228.205128,4458.461538,4210.256410,4653.846153,3967.179488,4067.692307
18,4134.871794,4526.153846,4521.538461,4268.205128,4482.564102,4202.564102,4449.230769,4216.923076,4234.358974,4460.000000,4203.589743,4658.461538,3967.692308,4061.025641
19,4145.128205,4534.871794,4520.512820,4274.871794,4488.717948,4203.076923,4447.179487,4218.461538,4235.384615,4466.666666,4206.666666,4660.000000,3976.410257,4065.641025
20,4153.846153,4540.512820,4520.512820,4274.358974,4491.282051,4202.051282,4441.025641,4217.435897,4234.358974,4466.153846,4208.205128,4657.435897,3986.153847,4075.384615
21,4163.076923,4537.948717,4522.051282,4267.692307,4491.282051,4198.974358,4440.512820,4217.948717,4234.358974,4468.717948,4210.769230,4658.461538,3992.307693,4075.384615
22,4174.871794,4533.333333,4522.564102,4262.564102,4491.282051,4200.000000,4444.615384,4220.000000,4236.410256,4475.897435,4212.307692,4663.076923,3987.179488,4072.307692
23,4184.102564,4529.743589,4522.564102,4261.538461,4494.358974,4202.564102,4445.641025,4218.974358,4237.948717,4471.794871,4208.205128,4661.538461,3980.512821,4069.743589
24,4184.615384,4529.230769,4521.025641,4261.538461,4501.538461,4202.564102,4444.615384,4218.461538,4232.307692,4462.564102,4205.641025,4656.923076,3983.589744,4067.179487
25,4187.179487,4526.666666,4514.871794,4262.051282,4508.717948,4201.025641,4442.564102,4216.923076,4227.179487,4457.948717,4206.153846,4654.871794,3986.666667,4068.205128
26,4195.384615,4524.102564,4515.897435,4258.461538,4507.179487,4198.974358,4439.487179,4215.384615,4231.282051,4462.564102,4203.589743,4657.435897,3991.282052,4077.435897
27,4202.564102,4532.820512,4528.717948,4260.000000,4504.615384,4200.000000,4441.025641,4221.538461,4242.564102,4480.512820,4206.153846,4666.666666,4004.102564,4086.153846
28,4209.743589,4542.564102,4535.897435,4263.589743,4507.179487,4202.564102,4444.615384,4228.717948,4251.282051,4497.435897,4222.564102,4673.333333,4013.846153,4089.230769
29,4216.410256,4538.461538,4532.820512,4257.948717,4505.641025,4203.076923,4440.512820,4225.128205,4249.230769,4492.820512,4230.769230,4671.794871,4010.769230,4086.666666
30,4216.923076,4536.923076,4529.743589,4256.923076,4504.102564,4197.948717,4432.307692,4217.948717,4237.948717,4479.487179,4224.615384,4669.230769,4001.538461,4085.641025
31,4212.307692,4539.487179,4530.256410,4262.564102,4509.230769,4194.871794,4427.179487,4215.897435,4234.358974,4475.897435,4217.948717,4667.179487,4003.076923,4087.179487
32,4210.769230,4533.333333,4534.358974,4262.564102,4511.282051,4198.461538,4427.179487,4214.871794,4239.487179,4474.358974,4218.974358,4667.692307,4010.769230,4087.692307
33,4216.923076,4541.025641,4542.051282,4263.076923,4509.230769,4202.564102,4433.846153,4221.025641,4244.615384,4478.461538,4218.461538,4674.871794,4015.897435,4095.897435
34,4221.538461,4553.846153,4546.666666,4268.717948,4509.230769,4202.564102,4442.051282,4232.820512,4250.769230,4490.769230,4218.974358,4680.000000,4021.538461,4105.641025
35,4218.461538,4547.692307,4540.000000,4261.025641,4508.205128,4201.538461,4442.564102,4233.846153,4251.794871,4488.205128,4230.769230,4672.307692,4018.461538,4098.461538
36,4217.948717,4536.923076,4530.256410,4252.307692,4504.615384,4200.000000,4441.025641,4228.205128,4244.615384,4476.923076,4238.461538,4667.179487,3998.461539,4084.102564
37,4227.179487,4537.948717,4531.794871,4257.948717,4504.102564,4200.000000,4443.589743,4230.256410,4242.564102,4481.538461,4229.230769,4670.769230,3991.794872,4082.051282
38,4236.923076,4537.435897,4533.846153,4260.000000,4505.128205,4202.564102,4444.102564,4235.897435,4249.230769,4485.641025,4218.974358,4669.743589,4005.641025,4090.769230
39,4235.897435,4532.820512,4529.743589,4248.717948,4506.153846,4204.615384,4442.564102,4234.871794,4250.256410,4480.512820,4213.333333,4664.102564,4008.205128,4091.794871
40,4233.333333,4535.384615,4528.717948,4246.153846,4507.179487,4201.025641,4443.589743,4230.769230,4241.538461,4480.512820,4212.820512,4662.564102,3999.487180,4085.128205
41,4238.461538,4538.974358,4529.230769,4256.923076,4507.692307,4202.051282,4443.589743,4228.717948,4238.461538,4480.512820,4214.871794,4661.025641,3992.820513,4080.000000
42,4244.615384,4537.948717,4529.230769,4262.051282,4512.307692,4209.743589,4443.076923,4228.717948,4240.512820,4472.307692,4213.846153,4657.435897,3991.794872,4080.000000
43,4252.820512,4537.435897,4531.282051,4263.076923,4521.538461,4209.743589,4445.641025,4228.717948,4236.410256,4468.205128,4211.282051,4656.410256,3997.435898,4083.076923
44,4262.051282,4538.974358,4530.256410,4263.589743,4524.102564,4208.717948,4446.153846,4229.743589,4234.358974,4476.410256,4212.820512,4659.487179,3998.461539,4084.615384
45,4269.743589,4539.487179,4529.230769,4259.487179,4517.435897,4210.256410,4447.692307,4232.307692,4243.076923,4483.076923,4213.846153,4661.538461,3995.384616,4087.179487
46,4283.076923,4542.564102,4535.897435,4259.487179,4511.282051,4209.743589,4452.820512,4233.333333,4248.717948,4481.538461,4213.333333,4662.564102,4000.512820,4091.282051
47,4300.512820,4546.666666,4537.435897,4265.128205,4507.692307,4205.641025,4449.230769,4232.307692,4244.102564,4478.974358,4221.538461,4667.179487,4000.512820,4090.769230
48,4315.384615,4540.512820,4531.794871,4267.692307,4508.205128,4204.615384,4443.076923,4234.358974,4240.512820,4478.461538,4227.179487,4669.743589,3997.948718,4089.743589
49,4327.179487,4533.846153,4533.846153,4264.615384,4510.769230,4203.589743,4443.589743,4231.794871,4237.948717,4476.410256,4221.025641,4667.179487,4006.666666,4091.794871
50,4337.948717,4538.974358,4532.820512,4258.974358,4509.230769,4199.487179,4443.589743,4221.538461,4233.333333,4472.307692,4215.384615,4662.051282,4000.512820,4089.230769
51,4347.179487,4542.051282,4524.615384,4257.435897,4506.666666,4198.974358,4436.410256,4216.410256,4232.307692,4468.717948,4217.435897,4658.974358,3990.769231,4086.666666
52,4365.128205,4536.410256,4523.589743,4259.487179,4508.717948,4198.461538,4430.256410,4217.435897,4231.794871,4467.179487,4219.487179,4659.487179,4001.538461,4089.230769
53,4383.076923,4537.435897,4527.692307,4261.025641,4508.205128,4198.461538,4435.384615,4218.461538,4233.333333,4471.794871,4220.000000,4661.538461,4003.076923,4090.769230
54,4387.179487,4542.051282,4526.666666,4267.179487,4507.179487,4198.974358,4436.923076,4216.410256,4232.820512,4476.410256,4218.974358,4662.051282,3986.153847,4087.179487
55,4388.717948,4538.974358,4526.666666,4271.282051,4510.256410,4198.461538,4432.307692,4214.358974,4228.717948,4473.846153,4213.333333,4664.615384,3989.230770,4087.692307
56,4401.538461,4539.487179,4535.384615,4267.692307,4515.384615,4202.051282,4436.923076,4223.589743,4236.410256,4472.307692,4216.410256,4669.230769,4008.717948,4092.820512
57,4412.307692,4546.666666,4537.948717,4268.717948,4516.923076,4209.230769,4446.153846,4235.384615,4248.717948,4481.025641,4226.666666,4672.307692,4011.794871,4099.487179
58,4412.820512,4545.641025,4535.384615,4273.333333,4510.769230,4210.256410,4448.717948,4235.384615,4250.769230,4488.717948,4232.820512,4673.333333,4002.564102,4098.461538
59,4419.487179,4542.564102,4536.923076,4267.692307,4510.256410,4212.820512,4453.846153,4239.487179,4250.256410,4488.205128,4235.897435,4673.846153,3996.410257,4094.871794
60,4430.256410,4541.538461,4537.435897,4263.076923,4515.384615,4217.435897,4461.538461,4247.692307,4251.794871,4486.666666,4227.692307,4670.769230,3996.923077,4093.846153
61,4425.641025,4531.282051,4531.282051,4265.128205,4510.769230,4208.717948,4455.897435,4236.410256,4243.076923,4478.974358,4208.717948,4660.000000,3992.820513,4082.564102
62,4415.384615,4526.666666,4522.564102,4264.102564,4510.256410,4202.564102,4452.307692,4225.128205,4234.871794,4465.128205,4200.512820,4650.256410,3987.692308,4074.358974
63,4417.435897,4530.256410,4521.538461,4256.410256,4517.948717,4212.307692,4457.948717,4232.307692,4235.384615,4464.615384,4211.794871,4651.282051,3985.641026,4080.512820
64,4424.102564,4528.205128,4522.051282,4247.179487,4517.435897,4220.000000,4458.461538,4234.358974,4237.948717,4475.384615,4218.461538,4650.769230,3981.025642,4081.538461
65,4426.153846,4526.666666,4518.974358,4248.205128,4510.769230,4215.897435,4457.948717,4231.282051,4242.051282,4475.897435,4210.769230,4649.743589,3982.051283,4072.820512
66,4427.692307,4529.230769,4514.358974,4252.820512,4511.794871,4208.717948,4460.000000,4232.820512,4241.025641,4467.179487,4204.102564,4651.794871,3987.692308,4070.769230
67,4435.897435,4528.717948,4514.358974,4252.307692,4507.692307,4206.666666,4453.333333,4231.794871,4235.384615,4464.102564,4196.410256,4652.307692,3986.153847,4072.307692
68,4445.128205,4526.153846,4521.025641,4254.358974,4503.589743,4208.717948,4445.641025,4229.230769,4232.820512,4464.615384,4195.897435,4653.846153,3980.512821,4072.820512
69,4445.641025,4530.769230,4522.051282,4257.948717,4509.743589,4206.666666,4450.256410,4231.282051,4238.461538,4469.743589,4212.820512,4657.948717,3991.282052,4078.461538
70,4441.538461,4533.846153,4520.512820,4250.256410,4508.717948,4200.000000,4452.307692,4233.333333,4243.076923,4472.820512,4222.564102,4658.461538,4000.512820,4082.051282
71,4443.076923,4526.153846,4521.538461,4245.128205,4503.589743,4201.025641,4445.128205,4232.307692,4238.974358,4471.282051,4214.358974,4654.358974,3996.410257,4080.000000
72,4444.615384,4521.538461,4521.538461,4254.358974,4503.589743,4202.051282,4441.538461,4231.282051,4238.974358,4471.794871,4212.820512,4651.794871,3992.820513,4077.948717
73,4444.615384,4530.769230,4517.948717,4261.025641,4503.076923,4200.000000,4446.153846,4232.820512,4246.666666,4470.256410,4217.435897,4652.307692,3993.846154,4075.897435
74,4443.589743,4534.871794,4514.871794,4254.358974,4505.128205,4204.102564,4448.717948,4233.333333,4244.102564,4463.589743,4209.743589,4650.769230,3990.256411,4070.769230
75,4441.025641,4521.538461,4510.256410,4244.615384,4507.692307,4202.051282,4444.102564,4229.230769,4229.743589,4460.512820,4195.384615,4642.564102,3983.589744,4063.589743
76,4450.769230,4519.487179,4511.282051,4246.666666,4505.128205,4197.948717,4441.538461,4229.230769,4230.769230,4470.256410,4197.435897,4642.051282,3987.179488,4068.205128
77,4463.589743,4533.333333,4518.974358,4257.435897,4506.666666,4204.615384,4445.641025,4236.410256,4246.666666,4477.435897,4212.820512,4653.333333,3994.871795,4083.589743
78,4455.384615,4532.820512,4519.487179,4258.461538,4508.205128,4209.743589,4447.179487,4233.846153,4248.717948,4473.333333,4219.487179,4655.897435,3992.307693,4083.589743
79,4444.615384,4524.615384,4515.897435,4249.230769,4498.461538,4203.076923,4443.589743,4229.743589,4239.487179,4473.846153,4217.435897,4649.743589,3987.179488,4072.820512
80,4453.846153,4528.717948,4522.051282,4253.333333,4497.948717,4200.512820,4446.153846,4234.358974,4235.897435,4478.461538,4211.794871,4653.333333,3990.256411,4080.000000
81,4462.564102,4536.923076,4526.666666,4264.615384,4501.538461,4204.102564,4446.153846,4230.256410,4236.410256,4472.820512,4203.589743,4655.384615,3994.871795,4087.692307
82,4460.000000,4535.897435,4524.615384,4264.102564,4498.974358,4201.025641,4440.512820,4221.025641,4232.307692,4461.538461,4205.641025,4650.256410,3991.282052,4079.487179
83,4460.512820,4532.307692,4528.717948,4261.025641,4497.948717,4198.974358,4443.589743,4227.179487,4228.717948,4460.512820,4219.487179,4656.923076,3987.179488,4081.538461
84,4463.589743,4528.717948,4532.820512,4258.461538,4495.897435,4202.051282,4445.641025,4232.307692,4233.333333,4462.051282,4222.051282,4667.179487,3987.179488,4088.205128
85,4463.076923,4526.153846,4523.589743,4254.358974,4494.358974,4202.564102,4443.589743,4229.230769,4238.461538,4464.102564,4210.769230,4662.051282,3993.333334,4083.076923
86,4459.487179,4530.256410,4518.974358,4258.974358,4496.923076,4200.512820,4444.102564,4227.179487,4240.512820,4469.743589,4210.769230,4655.897435,3992.820513,4078.974358
87,4451.794871,4534.358974,4523.076923,4266.153846,4500.512820,4204.615384,4445.128205,4226.666666,4235.384615,4467.179487,4217.948717,4656.923076,3983.076924,4082.564102
88,4443.589743,4533.846153,4523.589743,4262.051282,4500.000000,4209.743589,4444.102564,4224.615384,4229.230769,4462.051282,4213.333333,4656.923076,3985.128206,4083.076923
89,4443.076923,4536.923076,4525.128205,4262.564102,4496.923076,4208.717948,4445.641025,4222.051282,4232.307692,4470.769230,4209.743589,4660.000000,3994.871795,4084.102564
90,4442.564102,4541.025641,4532.820512,4272.820512,4496.410256,4205.641025,4446.666666,4224.102564,4236.410256,4478.974358,4220.000000,4666.666666,3995.897436,4085.641025
91,4434.871794,4538.461538,4534.358974,4272.307692,4497.435897,4204.615384,4444.102564,4227.179487,4234.871794,4473.333333,4225.128205,4667.692307,3993.846154,4084.615384
92,4422.564102,4531.794871,4528.717948,4263.589743,4498.461538,4204.615384,4443.589743,4223.589743,4231.282051,4468.205128,4214.871794,4663.589743,3994.358975,4086.666666
93,4413.846153,4530.256410,4527.692307,4262.564102,4498.974358,4202.051282,4443.076923,4216.410256,4231.794871,4464.615384,4214.358974,4660.512820,3989.743590,4082.564102
94,4411.794871,4539.487179,4527.692307,4265.641025,4496.410256,4198.461538,4442.564102,4217.435897,4231.794871,4460.512820,4214.358974,4660.512820,3984.615385,4075.384615
95,4411.794871,4543.076923,4525.641025,4270.256410,4494.358974,4203.589743,4443.076923,4226.666666,4233.333333,4464.102564,4209.743589,4663.589743,3989.230770,4081.538461
96,4412.820512,4538.461538,4527.692307,4279.487179,4496.923076,4212.820512,4444.615384,4232.307692,4235.897435,4471.794871,4214.871794,4668.717948,3997.435898,4088.717948
97,4412.307692,4542.051282,4527.179487,4275.897435,4500.000000,4209.230769,4446.153846,4234.358974,4236.410256,4475.897435,4222.051282,4669.230769,4002.051282,4087.692307
98,4403.589743,4538.974358,4517.435897,4262.564102,4495.897435,4198.974358,4445.641025,4232.307692,4237.435897,4474.358974,4222.564102,4662.564102,3996.410257,4081.538461
99,4393.846153,4522.564102,4513.846153,4262.051282,4493.333333,4201.538461,4444.102564,4233.333333,4235.897435,4471.794871,4223.076923,4656.923076,3987.692308,4074.871794
100,4396.923076,4525.128205,4521.025641,4266.666666,4491.794871,4206.153846,4445.128205,4234.358974,4237.948717,4475.897435,4223.589743,4662.051282,3990.769231,4075.897435
101,4400.000000,4538.461538,4524.615384,4265.641025,4491.282051,4202.051282,4447.692307,4234.358974,4243.076923,4477.435897,4219.487179,4668.205128,3998.974359,4084.102564
102,4390.769230,4529.743589,4517.435897,4260.000000,4487.692307,4199.487179,4447.179487,4234.871794,4241.025641,4470.256410,4216.923076,4662.564102,3995.897436,4077.948717
103,4387.179487,4515.897435,4511.282051,4250.769230,4481.538461,4200.000000,4444.102564,4232.820512,4237.435897,4466.153846,4216.923076,4654.871794,3984.615385,4063.589743
104,4399.487179,4517.948717,4511.794871,4246.153846,4483.076923,4198.974358,4444.615384,4230.769230,4236.410256,4469.743589,4217.435897,4656.410256,3978.974359,4068.205128
105,4412.307692,4527.179487,4514.358974,4252.820512,4493.333333,4203.589743,4445.641025,4232.307692,4236.923076,4476.923076,4219.487179,4664.102564,3982.051283,4077.948717
106,4415.384615,4534.358974,4518.974358,4260.000000,4500.512820,4213.333333,4447.179487,4233.846153,4234.358974,4480.000000,4220.000000,4664.615384,3983.589744,4076.923076
107,4414.358974,4530.256410,4518.461538,4263.589743,4500.000000,4217.435897,4452.307692,4231.794871,4231.794871,4467.692307,4212.307692,4659.487179,3980.000000,4071.794871
108,4414.358974,4519.487179,4515.384615,4265.128205,4492.820512,4214.871794,4450.256410,4228.205128,4234.358974,4459.487179,4201.025641,4659.487179,3980.000000,4067.179487
109,4419.487179,4521.538461,4520.512820,4264.102564,4490.769230,4211.794871,4444.615384,4227.692307,4240.000000,4468.717948,4207.692307,4664.615384,3986.153847,4067.179487
110,4425.641025,4526.666666,4524.615384,4264.615384,4492.820512,4207.179487,4447.179487,4231.794871,4240.000000,4473.333333,4222.051282,4665.641025,3987.179488,4073.846153
111,4424.615384,4521.538461,4520.000000,4264.102564,4489.743589,4200.512820,4449.230769,4228.717948,4231.282051,4461.025641,4217.435897,4662.051282,3985.641026,4075.384615
112,4426.153846,4523.076923,4521.025641,4258.974358,4488.205128,4198.974358,4443.076923,4220.000000,4230.256410,4457.435897,4214.358974,4662.051282,3987.179488,4074.358974
113,4437.948717,4532.307692,4527.179487,4263.076923,4489.230769,4202.564102,4444.102564,4222.051282,4238.974358,4468.717948,4226.666666,4668.205128,3988.717949,4076.923076
114,4447.179487,4535.384615,4527.692307,4277.435897,4489.230769,4201.538461,4447.692307,4228.717948,4242.564102,4476.410256,4224.102564,4670.769230,3991.794872,4077.435897
115,4443.076923,4538.461538,4526.666666,4282.564102,4492.307692,4203.076923,4445.128205,4227.692307,4241.538461,4475.384615,4212.307692,4667.179487,3997.948718,4078.461538
116,4436.923076,4543.589743,4528.717948,4277.435897,4495.897435,4210.256410,4443.589743,4230.769230,4244.102564,4475.897435,4219.487179,4669.230769,3996.923077,4084.615384
117,4431.282051,4535.897435,4528.205128,4273.333333,4494.871794,4208.717948,4445.128205,4231.794871,4245.128205,4476.410256,4228.205128,4672.820512,3988.205129,4085.641025
118,4422.051282,4527.179487,4523.076923,4268.717948,4489.743589,4200.512820,4442.051282,4223.589743,4237.435897,4471.794871,4220.000000,4667.692307,3980.512821,4077.435897
119,4416.410256,4534.871794,4517.948717,4262.564102,4489.743589,4197.948717,4435.897435,4214.358974,4229.230769,4464.615384,4211.794871,4660.000000,3976.410257,4070.256410
120,4422.051282,4537.948717,4518.461538,4264.615384,4492.820512,4200.512820,4434.358974,4212.307692,4228.205128,4460.512820,4211.794871,4660.512820,3983.076924,4072.307692
121,4430.256410,4538.974358,4528.717948,4277.948717,4491.282051,4209.230769,4442.564102,4222.564102,4239.487179,4469.743589,4219.487179,4672.307692,4004.615384,4085.641025
122,4430.769230,4547.179487,4532.820512,4282.564102,4488.717948,4212.307692,4448.205128,4231.282051,4246.666666,4478.461538,4225.641025,4675.897435,4009.743589,4090.256410
123,4428.205128,4544.615384,4524.102564,4275.897435,4489.743589,4207.692307,4446.153846,4227.692307,4240.512820,4467.179487,4227.179487,4666.666666,3992.307693,4082.564102
124,4431.794871,4535.384615,4520.512820,4274.871794,4492.307692,4209.743589,4446.153846,4228.205128,4241.025641,4462.564102,4227.692307,4664.615384,3988.205129,4080.000000
125,4433.333333,4535.897435,4523.589743,4276.410256,4493.333333,4212.307692,4446.666666,4230.256410,4247.179487,4478.974358,4226.153846,4668.205128,3994.871795,4083.589743
126,4425.128205,4528.205128,4521.538461,4268.205128,4489.743589,4203.076923,4442.564102,4219.487179,4237.948717,4482.051282,4224.102564,4663.589743,3986.153847,4075.897435
127,4418.461538,4515.897435,4513.846153,4253.333333,4485.128205,4200.000000,4442.564102,4212.820512,4227.179487,4463.076923,4214.871794,4660.512820,3983.589744,4070.256410
128,4421.538461,4529.743589,4512.307692,4252.307692,4490.256410,4207.692307,4445.641025,4222.051282,4235.384615,4458.461538,4205.641025,4664.102564,3994.358975,4078.974358
129,4419.487179,4541.538461,4512.820512,4259.487179,4498.461538,4204.615384,4439.487179,4217.435897,4235.897435,4461.538461,4210.769230,4659.487179,3987.179488,4075.897435
130,4407.179487,4526.666666,4506.666666,4254.871794,4495.384615,4191.794871,4427.692307,4201.538461,4218.974358,4455.384615,4212.307692,4649.743589,3969.743590,4058.974358
131,4409.230769,4519.487179,4506.153846,4250.256410,4488.205128,4190.256410,4424.102564,4202.564102,4220.512820,4460.000000,4203.589743,4651.794871,3975.897436,4065.128205
132,4422.051282,4529.743589,4516.410256,4256.923076,4488.717948,4198.461538,4432.820512,4215.384615,4239.487179,4469.743589,4208.717948,4664.615384,3999.487180,4086.153846
133,4421.025641,4533.846153,4521.538461,4256.410256,4496.410256,4204.615384,4442.051282,4225.641025,4246.666666,4471.794871,4222.564102,4669.743589,4012.307692,4089.743589
134,4408.717948,4531.282051,4517.948717,4242.051282,4504.615384,4204.102564,4442.051282,4228.717948,4242.051282,4474.871794,4216.410256,4663.076923,4006.153846,4084.102564
135,4404.102564,4534.358974,4520.512820,4240.512820,4508.717948,4205.641025,4443.076923,4228.205128,4242.564102,4477.948717,4211.282051,4663.589743,4000.000000,4088.205128
136,4402.564102,4535.384615,4523.076923,4255.384615,4508.205128,4205.128205,4443.076923,4221.538461,4240.000000,4470.256410,4220.000000,4666.666666,4003.076923,4088.205128
137,4396.923076,4531.794871,4520.000000,4262.051282,4504.102564,4199.487179,4433.333333,4214.358974,4231.794871,4461.025641,4216.923076,4661.538461,3998.461539,4078.461538
138,4400.000000,4535.384615,4523.589743,4258.461538,4505.128205,4200.000000,4431.282051,4215.384615,4231.794871,4460.000000,4207.692307,4659.487179,3989.743590,4078.461538
139,4405.128205,4543.589743,4529.743589,4257.435897,4512.820512,4209.743589,4441.025641,4216.923076,4232.820512,4462.564102,4209.743589,4666.153846,3994.871795,4087.692307
140,4403.589743,4546.666666,4531.282051,4262.051282,4514.871794,4212.820512,4449.230769,4217.948717,4232.820512,4472.820512,4216.923076,4670.256410,4005.128205,4091.282051
141,4402.564102,4543.076923,4533.333333,4245.128205,4512.820512,4209.230769,4448.717948,4222.564102,4238.461538,4478.461538,4217.948717,4669.743589,4008.717948,4094.358974
142,4403.076923,4536.923076,4536.410256,4215.384615,4515.384615,4210.769230,4450.769230,4230.256410,4244.615384,4473.333333,4218.974358,4674.871794,4010.256410,4102.564102
143,4406.153846,4540.512820,4538.974358,4210.256410,4515.897435,4210.256410,4455.897435,4232.820512,4246.666666,4475.384615,4227.692307,4683.076923,4009.230769,4104.615384
144,4410.769230,4549.743589,4545.128205,4216.923076,4508.205128,4202.564102,4452.307692,4231.794871,4245.641025,4482.051282,4234.871794,4685.641025,4009.743589,4100.512820
145,4413.846153,4555.384615,4546.666666,4210.256410,4505.128205,4201.538461,4446.153846,4228.717948,4242.564102,4480.000000,4229.743589,4680.512820,4017.435897,4104.102564
146,4411.794871,4552.307692,4542.051282,4200.000000,4513.846153,4204.102564,4445.641025,4221.538461,4233.333333,4469.230769,4225.641025,4673.846153,4012.307692,4107.692307
147,4414.871794,4553.333333,4545.641025,4201.025641,4516.410256,4204.615384,4448.205128,4222.051282,4229.743589,4467.692307,4227.692307,4677.948717,4001.025641,4105.128205
148,4424.102564,4554.871794,4549.743589,4201.538461,4511.282051,4204.615384,4445.641025,4225.641025,4234.871794,4476.410256,4223.076923,4683.076923,4005.128205,4106.153846
149,4427.179487,4540.512820,4540.000000,4195.897435,4515.897435,4202.051282,4441.025641,4216.923076,4232.820512,4473.846153,4218.974358,4672.820512,4007.179487,4101.538461
150,4434.358974,4538.974358,4535.384615,4198.461538,4519.487179,4204.615384,4443.589743,4210.769230,4229.230769,4470.256410,4228.205128,4669.230769,4002.564102,4097.948717
151,4446.153846,4554.358974,4542.051282,4204.102564,4514.358974,4213.333333,4452.820512,4222.564102,4239.487179,4478.461538,4228.205128,4680.000000,4004.102564,4103.589743
152,4446.666666,4554.871794,4542.051282,4203.076923,4515.384615,4214.871794,4457.948717,4231.282051,4247.179487,4477.948717,4212.820512,4679.487179,4003.589743,4104.615384
153,4443.589743,4548.205128,4540.000000,4199.487179,4523.589743,4214.358974,4456.410256,4232.307692,4243.589743,4474.358974,4214.358974,4675.384615,4004.615384,4102.564102
154,4447.179487,4555.384615,4540.000000,4198.974358,4523.076923,4217.948717,4455.897435,4233.333333,4244.615384,4480.512820,4223.589743,4677.948717,4012.820512,4108.205128
155,4440.000000,4550.256410,4534.871794,4198.974358,4515.897435,4213.846153,4451.282051,4223.589743,4242.051282,4481.538461,4216.410256,4671.282051,4010.769230,4104.615384
156,4429.230769,4540.512820,4533.333333,4198.974358,4513.846153,4207.179487,4446.153846,4215.384615,4232.307692,4473.333333,4214.871794,4664.102564,4002.051282,4093.846153
157,4431.794871,4547.692307,4537.948717,4200.000000,4513.333333,4209.743589,4445.641025,4221.025641,4234.358974,4474.871794,4224.102564,4670.256410,4003.076923,4092.820512
158,4425.128205,4545.641025,4538.461538,4199.487179,4512.307692,4213.846153,4446.666666,4222.051282,4238.974358,4475.384615,4220.512820,4672.820512,4005.641025,4094.358974
159,4397.435897,4543.076923,4537.948717,4201.538461,4515.897435,4213.846153,4453.333333,4219.487179,4236.410256,4469.743589,4217.435897,4669.743589,4004.102564,4098.974358
160,4361.538461,4551.794871,4541.538461,4205.641025,4521.538461,4217.435897,4463.589743,4228.205128,4236.923076,4476.923076,4229.230769,4674.871794,4003.589743,4106.153846
161,4319.487179,4544.615384,4538.974358,4201.538461,4516.923076,4219.487179,4460.512820,4227.692307,4236.410256,4482.051282,4225.641025,4674.358974,4001.538461,4097.948717
162,4276.410256,4531.282051,4530.769230,4196.923076,4505.128205,4214.871794,4449.743589,4215.897435,4230.256410,4472.307692,4211.794871,4665.128205,4003.589743,4085.128205
163,4246.666666,4534.358974,4528.205128,4198.461538,4503.076923,4208.205128,4451.282051,4217.948717,4230.256410,4469.743589,4216.410256,4663.589743,4005.128205,4087.692307
164,4224.102564,4530.769230,4527.692307,4196.923076,4506.153846,4208.717948,4452.820512,4224.102564,4235.897435,4477.948717,4220.512820,4666.666666,3995.384616,4091.282051
165,4201.538461,4518.974358,4524.102564,4194.358974,4505.128205,4210.256410,4447.179487,4218.461538,4236.410256,4485.641025,4216.923076,4666.666666,3988.717949,4087.179487
166,4182.051282,4525.128205,4522.051282,4198.974358,4506.666666,4206.666666,4447.692307,4216.410256,4236.410256,4492.307692,4228.717948,4667.179487,3997.948718,4090.769230
167,4165.641025,4537.435897,4527.692307,4205.128205,4506.666666,4207.692307,4453.333333,4224.615384,4237.435897,4490.256410,4234.871794,4671.794871,4006.153846,4094.871794
168,4156.410256,4540.512820,4533.333333,4202.564102,4507.692307,4215.897435,4456.410256,4227.179487,4237.435897,4480.000000,4222.051282,4673.333333,4006.666666,4092.307692
169,4150.256410,4541.025641,4529.743589,4203.076923,4508.717948,4218.974358,4452.820512,4220.000000,4232.820512,4473.846153,4217.435897,4668.717948,4007.179487,4092.307692
170,4140.000000,4536.923076,4522.051282,4209.743589,4506.666666,4209.230769,4446.666666,4213.333333,4228.205128,4473.846153,4219.487179,4661.538461,3997.435898,4090.769230
171,4134.871794,4530.256410,4521.025641,4210.769230,4508.205128,4206.666666,4442.564102,4216.410256,4231.282051,4474.871794,4217.435897,4657.948717,3984.615385,4082.564102
172,4131.794871,4529.743589,4520.000000,4202.051282,4508.717948,4210.769230,4441.538461,4211.282051,4228.717948,4468.717948,4214.358974,4655.897435,3986.153847,4078.461538
173,4119.487179,4532.820512,4516.410256,4193.846153,4503.589743,4205.128205,4441.538461,4200.512820,4214.871794,4454.871794,4208.717948,4649.743589,3994.871795,4080.512820
174,4121.538461,4537.948717,4521.025641,4206.153846,4504.615384,4206.666666,4445.128205,4207.179487,4218.461538,4463.589743,4208.205128,4653.846153,3997.948718,4086.153846
175,4135.384615,4539.487179,4526.666666,4218.974358,4505.128205,4214.358974,4450.256410,4219.487179,4233.333333,4486.666666,4214.871794,4664.615384,3992.307693,4089.230769
176,4127.692307,4527.692307,4522.051282,4206.666666,4497.435897,4209.743589,4445.128205,4217.948717,4229.743589,4477.948717,4206.666666,4660.512820,3979.487180,4079.487179
177,4119.487179,4519.487179,4518.461538,4197.435897,4498.461538,4202.051282,4442.051282,4214.871794,4217.435897,4458.974358,4202.051282,4652.307692,3974.358975,4074.358974
178,4133.846153,4529.743589,4522.564102,4210.256410,4502.564102,4205.641025,4446.153846,4216.923076,4218.461538,4464.615384,4213.333333,4655.384615,3986.153847,4082.051282
179,4140.512820,4535.897435,4524.615384,4212.820512,4493.333333,4205.128205,4442.051282,4207.692307,4220.512820,4466.666666,4212.307692,4654.871794,3986.666667,4081.538461
180,4134.358974,4525.641025,4519.487179,4195.897435,4486.153846,4197.435897,4428.717948,4196.410256,4212.820512,4454.358974,4197.435897,4647.692307,3972.820513,4071.794871
181,4132.307692,4517.435897,4514.871794,4192.307692,4491.282051,4197.948717,4426.666666,4197.948717,4208.717948,4452.820512,4196.410256,4645.641025,3975.897436,4070.256410
182,4139.487179,4518.974358,4517.948717,4207.179487,4492.307692,4203.076923,4437.948717,4207.179487,4220.000000,4464.615384,4210.256410,4651.794871,3990.769231,4080.512820
183,4152.307692,4528.717948,4526.666666,4217.948717,4490.256410,4206.666666,4444.615384,4216.410256,4229.743589,4468.205128,4217.435897,4661.538461,3991.282052,4088.717948
184,4154.358974,4532.820512,4528.205128,4215.897435,4493.846153,4206.153846,4443.076923,4217.435897,4227.179487,4466.666666,4214.871794,4666.153846,3986.666667,4087.179487
185,4140.000000,4522.051282,4523.589743,4212.820512,4491.282051,4201.538461,4440.000000,4215.897435,4226.666666,4475.897435,4216.923076,4661.025641,3987.692308,4080.000000
186,4140.000000,4513.846153,4520.512820,4215.897435,4486.666666,4200.000000,4437.435897,4217.435897,4225.641025,4475.897435,4223.589743,4658.974358,3988.205129,4074.871794
187,4158.974358,4527.692307,4526.153846,4214.871794,4495.897435,4203.076923,4439.487179,4215.897435,4220.000000,4463.589743,4220.000000,4663.076923,3989.230770,4080.512820
188,4171.794871,4541.025641,4532.307692,4213.846153,4506.666666,4207.179487,4444.615384,4214.871794,4221.538461,4465.128205,4214.871794,4666.153846,3992.820513,4089.743589
189,4172.307692,4532.307692,4525.641025,4220.000000,4497.435897,4204.102564,4443.589743,4214.871794,4222.051282,4469.743589,4218.461538,4661.538461,3989.743590,4084.102564
190,4168.717948,4526.666666,4517.435897,4220.512820,4492.307692,4203.076923,4439.487179,4210.769230,4213.846153,4465.128205,4215.384615,4653.846153,3984.615385,4070.256410
191,4171.282051,4536.923076,4521.025641,4216.410256,4501.538461,4211.794871,4443.076923,4212.307692,4214.871794,4472.820512,4214.871794,4654.871794,3984.102565,4072.307692
192,4175.384615,4535.384615,4525.641025,4223.589743,4499.487179,4212.820512,4446.666666,4214.871794,4223.076923,4478.974358,4221.538461,4657.948717,3982.564103,4079.487179
193,4161.538461,4521.538461,4519.487179,4226.153846,4490.769230,4203.076923,4437.435897,4203.589743,4218.461538,4462.564102,4211.282051,4651.282051,3977.948718,4070.256410
194,4138.461538,4520.000000,4512.307692,4207.692307,4490.256410,4198.974358,4430.256410,4195.897435,4205.128205,4452.820512,4195.897435,4641.538461,3974.358975,4058.461538
195,4127.179487,4524.102564,4514.871794,4199.487179,4489.230769,4201.538461,4437.948717,4200.000000,4202.564102,4455.384615,4203.076923,4636.410256,3973.333334,4061.538461
196,4124.102564,4521.538461,4517.948717,4218.974358,4488.717948,4199.487179,4440.512820,4200.000000,4209.743589,4453.846153,4211.282051,4637.948717,3970.256411,4066.153846
197,4121.538461,4526.153846,4517.948717,4234.358974,4493.333333,4202.051282,4436.923076,4202.051282,4216.923076,4458.974358,4208.717948,4645.641025,3974.358975,4062.564102
198,4121.025641,4532.820512,4520.512820,4232.820512,4492.307692,4207.179487,4441.025641,4212.307692,4220.512820,4468.717948,4212.820512,4649.230769,3985.128206,4060.512820
199,4118.974358,4533.846153,4523.589743,4233.333333,4495.384615,4207.179487,4446.153846,4215.384615,4221.025641,4471.794871,4220.000000,4645.128205,3978.461539,4059.487179
200,4116.923076,4535.897435,4524.615384,4233.846153,4507.179487,4211.794871,4447.692307,4217.435897,4225.641025,4473.846153,4216.410256,4649.230769,3973.333334,4063.076923
201,4120.512820,4540.000000,4526.666666,4229.230769,4508.205128,4214.358974,4448.205128,4219.487179,4226.666666,4474.358974,4210.256410,4653.846153,3987.179488,4072.307692
202,4116.410256,4538.974358,4523.589743,4230.256410,4496.923076,4204.615384,4442.564102,4209.230769,4219.487179,4465.128205,4213.333333,4645.641025,3991.282052,4071.794871
203,4105.128205,4534.871794,4517.948717,4235.384615,4488.205128,4196.410256,4438.974358,4199.487179,4217.948717,4461.025641,4226.666666,4643.076923,3982.564103,4065.641025
204,4102.564102,4537.948717,4522.051282,4233.333333,4486.153846,4199.487179,4444.102564,4207.179487,4223.076923,4471.282051,4231.282051,4654.871794,3987.179488,4069.230769
205,4106.666666,4541.538461,4532.307692,4233.333333,4497.948717,4208.205128,4446.153846,4216.923076,4228.717948,4483.076923,4224.615384,4664.102564,3999.487180,4080.000000
206,4106.153846,4537.948717,4537.435897,4239.487179,4504.615384,4210.769230,4446.666666,4216.410256,4230.256410,4484.615384,4224.615384,4665.128205,4001.538461,4088.205128
207,4104.102564,4538.461538,4534.358974,4236.410256,4495.897435,4209.743589,4448.717948,4214.871794,4229.230769,4481.025641,4232.820512,4665.641025,3999.487180,4088.205128
208,4104.615384,4541.538461,4529.230769,4232.820512,4495.384615,4210.769230,4446.153846,4214.358974,4223.589743,4475.384615,4233.333333,4659.487179,3993.846154,4077.435897
209,4102.564102,4539.487179,4531.282051,4243.076923,4500.000000,4209.230769,4442.051282,4211.794871,4220.512820,4472.307692,4225.128205,4653.846153,3987.692308,4069.743589
210,4104.615384,4544.102564,4538.974358,4250.256410,4498.461538,4209.230769,4444.102564,4213.846153,4225.641025,4480.000000,4224.615384,4662.564102,3995.897436,4078.461538
211,4109.230769,4548.205128,4541.538461,4248.717948,4503.076923,4213.333333,4447.692307,4216.410256,4230.769230,4484.102564,4230.769230,4670.256410,4003.589743,4087.179487
212,4106.153846,4540.000000,4534.358974,4243.589743,4506.153846,4210.256410,4446.666666,4215.384615,4232.820512,4479.487179,4227.179487,4664.615384,3996.410257,4079.487179
213,4106.153846,4535.384615,4530.256410,4236.923076,4497.435897,4206.153846,4444.102564,4220.000000,4236.923076,4480.512820,4218.974358,4658.974358,3988.717949,4072.820512
214,4117.435897,4540.512820,4534.871794,4238.461538,4497.948717,4214.871794,4450.256410,4229.743589,4242.051282,4490.769230,4228.717948,4664.102564,3994.358975,4080.000000
215,4128.205128,4547.179487,4535.897435,4247.692307,4505.128205,4221.538461,4459.487179,4233.333333,4245.128205,4494.358974,4237.435897,4667.692307,3998.974359,4083.076923
216,4132.307692,4551.282051,4532.820512,4248.717948,4504.102564,4215.897435,4457.948717,4227.692307,4242.564102,4486.153846,4228.717948,4664.615384,4000.000000,4075.897435
217,4137.435897,4547.179487,4532.307692,4249.230769,4505.641025,4216.923076,4454.871794,4223.076923,4238.974358,4479.487179,4228.205128,4662.564102,4009.230769,4077.948717
218,4143.589743,4538.461538,4533.846153,4254.358974,4511.282051,4221.538461,4457.948717,4222.051282,4237.948717,4484.615384,4235.384615,4664.102564,4012.820512,4088.717948
219,4140.000000,4540.000000,4531.282051,4246.666666,4509.743589,4219.487179,4454.358974,4219.487179,4236.923076,4489.230769,4230.256410,4658.974358,3999.487180,4084.615384
220,4125.128205,4542.051282,4525.128205,4238.974358,4498.461538,4211.794871,4441.538461,4213.333333,4232.307692,4482.051282,4218.461538,4651.282051,3981.025642,4070.256410
221,4123.076923,4537.948717,4527.692307,4250.769230,4494.871794,4206.666666,4438.974358,4214.358974,4229.743589,4476.410256,4220.000000,4655.897435,3984.615385,4065.641025
222,4137.435897,4541.025641,4540.512820,4256.410256,4503.589743,4214.871794,4449.230769,4222.051282,4236.410256,4487.692307,4230.256410,4666.153846,4001.025641,4075.897435
223,4137.948717,4543.076923,4545.128205,4250.256410,4506.153846,4219.487179,4453.846153,4225.128205,4244.102564,4495.897435,4231.282051,4667.179487,3998.461539,4080.000000
224,4124.102564,4538.461538,4535.384615,4253.333333,4496.410256,4212.820512,4447.692307,4222.051282,4244.615384,4484.615384,4222.564102,4664.102564,3989.230770,4075.897435
225,4119.487179,4540.512820,4530.769230,4255.384615,4499.487179,4211.282051,4442.564102,4218.461538,4236.923076,4477.948717,4216.410256,4661.025641,3991.282052,4075.897435
226,4127.692307,4548.205128,4534.358974,4248.205128,4503.589743,4217.435897,4445.128205,4216.923076,4231.794871,4485.641025,4218.974358,4656.923076,3993.846154,4077.948717
227,4137.435897,4547.692307,4534.871794,4252.307692,4496.923076,4215.384615,4447.692307,4220.000000,4236.923076,4485.128205,4230.256410,4659.487179,3994.871795,4078.461538
228,4138.461538,4542.051282,4531.794871,4257.948717,4500.512820,4208.205128,4443.589743,4216.923076,4233.333333,4476.923076,4235.897435,4664.615384,3998.974359,4076.410256
229,4135.384615,4537.948717,4530.256410,4246.666666,4502.051282,4208.205128,4444.102564,4210.769230,4227.179487,4484.102564,4225.128205,4663.589743,3996.410257,4074.871794
230,4145.641025,4538.974358,4533.333333,4247.179487,4494.871794,4215.384615,4453.333333,4223.076923,4241.025641,4496.923076,4223.076923,4666.153846,3993.333334,4076.410256
231,4157.948717,4548.205128,4535.384615,4261.538461,4500.000000,4218.461538,4455.384615,4235.384615,4250.769230,4490.769230,4232.820512,4670.769230,3990.769231,4076.923076
232,4157.435897,4556.410256,4531.282051,4261.538461,4506.666666,4212.307692,4446.666666,4225.641025,4243.076923,4484.615384,4227.692307,4665.641025,3989.743590,4074.358974
233,4154.871794,4556.410256,4528.205128,4255.384615,4496.923076,4210.769230,4442.051282,4217.435897,4242.564102,4491.794871,4215.897435,4660.000000,3993.846154,4071.794871
234,4154.358974,4548.205128,4530.769230,4261.025641,4496.923076,4214.871794,4444.102564,4218.974358,4243.589743,4490.256410,4211.794871,4656.923076,3992.307693,4072.820512
235,4157.435897,4541.025641,4528.205128,4264.102564,4507.692307,4213.333333,4442.051282,4215.384615,4233.333333,4476.410256,4214.358974,4653.333333,3981.538462,4073.846153
236,4169.743589,4548.717948,4525.641025,4260.512820,4505.641025,4213.333333,4442.564102,4213.333333,4231.794871,4475.384615,4225.128205,4655.897435,3981.538462,4075.384615
237,4174.358974,4555.897435,4532.820512,4261.538461,4501.538461,4217.948717,4447.179487,4217.435897,4240.000000,4490.256410,4229.743589,4662.564102,3991.794872,4075.897435
238,4160.000000,4543.076923,4530.769230,4257.435897,4498.974358,4210.769230,4443.589743,4215.897435,4236.410256,4496.410256,4217.435897,4659.487179,3992.820513,4069.743589
239,4149.743589,4536.923076,4522.051282,4246.666666,4498.461538,4198.974358,4438.974358,4211.794871,4228.205128,4484.615384,4210.769230,4652.820512,3985.641026,4065.641025
240,4153.333333,4550.769230,4525.641025,4248.205128,4503.589743,4206.666666,4444.102564,4212.820512,4229.743589,4475.897435,4219.487179,4655.384615,3985.128206,4072.307692
241,4155.384615,4556.923076,4536.410256,4261.538461,4507.692307,4218.974358,4449.230769,4215.897435,4240.512820,4487.692307,4225.128205,4662.564102,3993.846154,4080.512820
242,4148.205128,4550.256410,4536.410256,4261.025641,4512.820512,4218.974358,4452.820512,4218.974358,4245.128205,4493.846153,4227.179487,4666.666666,3998.461539,4082.564102
243,4140.000000,4547.692307,4531.794871,4250.256410,4521.025641,4216.410256,4453.333333,4218.974358,4238.974358,4478.461538,4225.128205,4662.564102,3991.282052,4076.923076
244,4136.923076,4549.743589,4531.794871,4247.179487,4522.564102,4215.384615,4448.717948,4216.410256,4234.871794,4475.384615,4213.846153,4658.974358,3987.179488,4073.333333
245,4135.897435,4552.820512,4535.897435,4249.230769,4519.487179,4214.871794,4447.692307,4216.923076,4237.435897,4488.205128,4208.717948,4662.564102,4001.538461,4081.025641
246,4139.487179,4555.897435,4541.025641,4253.333333,4523.076923,4215.897435,4454.358974,4217.948717,4239.487179,4491.794871,4220.512820,4670.256410,4014.871794,4091.794871
247,4149.743589,4553.846153,4547.179487,4263.589743,4526.666666,4218.461538,4461.025641,4221.538461,4245.641025,4497.948717,4235.897435,4680.000000,4009.743589,4094.871794
248,4153.846153,4553.333333,4550.256410,4266.666666,4529.230769,4220.000000,4461.538461,4232.820512,4254.358974,4505.641025,4236.410256,4681.538461,4007.692307,4096.410256
249,4141.538461,4556.410256,4549.743589,4251.794871,4527.692307,4219.487179,4455.384615,4234.871794,4250.256410,4493.333333,4223.076923,4673.846153,4013.846153,4094.358974
250,4133.846153,4553.846153,4546.153846,4244.102564,4522.564102,4217.435897,4451.282051,4219.487179,4238.461538,4483.589743,4207.692307,4669.230769,4011.794871,4087.692307
251,4146.666666,4549.230769,4545.641025,4256.410256,4522.051282,4216.923076,4453.333333,4216.410256,4237.435897,4491.282051,4208.717948,4668.717948,4008.205128,4088.205128
252,4153.333333,4551.794871,4547.692307,4262.051282,4522.564102,4215.384615,4449.230769,4223.076923,4243.076923,4491.794871,4222.051282,4665.128205,4002.564102,4090.256410
253,4152.820512,4554.871794,4550.256410,4254.871794,4522.564102,4215.897435,4448.717948,4222.564102,4249.230769,4491.282051,4232.820512,4667.692307,4001.025641,4094.358974
254,4162.564102,4554.871794,4549.743589,4256.410256,4530.256410,4218.461538,4456.410256,4224.615384,4250.769230,4500.000000,4232.307692,4674.871794,4015.384615,4102.564102
255,4168.205128,4547.179487,4537.435897,4247.692307,4529.743589,4211.794871,4450.256410,4219.487179,4235.897435,4493.333333,4213.846153,4663.589743,4015.897435,4092.307692
256,4164.102564,4536.923076,4526.666666,4231.282051,4514.871794,4205.128205,4437.948717,4206.666666,4221.538461,4480.512820,4199.487179,4650.769230,3992.307693,4072.307692
257,4173.846153,4543.076923,4537.435897,4246.153846,4514.358974,4212.307692,4443.589743,4209.230769,4230.256410,4483.589743,4213.333333,4659.487179,3989.743590,4080.512820
258,4193.333333,4556.923076,4553.846153,4269.743589,4528.205128,4220.000000,4455.384615,4222.051282,4245.128205,4497.948717,4236.923076,4672.820512,4007.692307,4106.153846
259,4199.487179,4556.410256,4553.846153,4259.487179,4526.153846,4215.897435,4454.871794,4224.102564,4246.666666,4500.512820,4234.871794,4672.307692,4014.871794,4109.743589
