,AF3,F7,F3,FC5,T7,P7,O1,O2,P8,T8,FC6,F4,F8,AF4
0,4354.358974,4521.538461,4501.538461,4248.717948,4454.358974,4201.538461,4411.794871,4180.000000,4203.589743,4475.384615,4165.641025,4653.333333,3975.897436,4041.538461
1,4364.615384,4534.358974,4513.333333,4254.358974,4478.974358,4211.282051,4413.846153,4184.102564,4208.205128,4482.564102,4181.025641,4661.025641,3982.564103,4053.846153
2,4384.102564,4542.564102,4526.153846,4260.000000,4464.102564,4214.358974,4416.923076,4188.717948,4213.846153,4493.846153,4193.333333,4670.256410,4001.538461,4071.282051
3,4383.589743,4536.923076,4522.564102,4262.564102,4448.717948,4207.179487,4417.435897,4184.615384,4213.333333,4482.564102,4184.615384,4672.820512,4003.076923,4070.256410
4,4377.435897,4537.948717,4518.461538,4265.641025,4458.974358,4204.102564,4415.384615,4182.051282,4214.358974,4473.846153,4182.564102,4669.743589,3997.948718,4064.102564
5,4379.487179,4544.102564,4523.589743,4261.538461,4472.307692,4210.256410,4424.102564,4185.128205,4216.923076,4493.846153,4192.307692,4665.641025,4004.102564,4067.179487
6,4371.282051,4539.487179,4517.948717,4258.974358,4475.384615,4215.384615,4428.717948,4187.692307,4214.871794,4507.179487,4189.743589,4660.512820,4004.102564,4064.102564
7,4362.564102,4532.820512,4507.692307,4261.025641,4458.974358,4211.794871,4416.923076,4184.102564,4209.743589,4492.307692,4177.948717,4655.897435,3996.410257,4055.384615
8,4374.871794,4535.897435,4515.897435,4261.538461,4445.641025,4208.717948,4411.794871,4181.025641,4208.717948,4475.384615,4180.000000,4657.435897,3996.923077,4056.923076
9,4386.153846,4541.538461,4523.076923,4264.615384,4464.102564,4210.256410,4418.461538,4184.102564,4216.923076,4477.948717,4194.358974,4667.692307,4003.589743,4065.128205
10,4377.435897,4539.487179,4512.307692,4265.641025,4473.333333,4203.589743,4412.820512,4187.179487,4215.897435,4485.128205,4193.333333,4667.692307,3994.358975,4061.025641
11,4368.717948,4534.871794,4503.589743,4255.897435,4450.769230,4197.435897,4401.538461,4182.051282,4205.128205,4490.769230,4173.333333,4653.846153,3983.076924,4052.307692
12,4371.282051,4533.333333,4506.666666,4248.205128,4442.564102,4200.512820,4400.512820,4172.820512,4200.000000,4493.333333,4163.589743,4648.717948,3988.205129,4049.743589
13,4369.743589,4536.923076,4507.179487,4251.794871,4456.923076,4200.000000,4406.153846,4175.897435,4204.102564,4490.769230,4167.179487,4652.307692,3992.820513,4049.230769
14,4367.692307,4537.435897,4504.615384,4254.358974,4455.897435,4200.512820,4410.769230,4182.564102,4205.641025,4481.025641,4172.307692,4652.307692,3991.794872,4052.307692
15,4370.256410,4530.769230,4505.641025,4254.871794,4448.205128,4205.128205,4415.384615,4181.025641,4201.025641,4460.512820,4178.461538,4651.794871,3988.205129,4054.871794
16,4373.333333,4524.615384,4508.205128,4256.923076,4457.948717,4206.666666,4420.512820,4180.512820,4200.000000,4449.230769,4180.000000,4653.333333,3983.076924,4052.820512
17,4375.897435,4531.794871,4507.692307,4257.948717,4463.076923,4203.589743,4418.461538,4182.564102,4201.025641,4465.641025,4173.333333,4651.282051,3984.615385,4049.743589
18,4380.000000,4542.564102,4507.692307,4260.512820,4454.358974,4201.538461,4412.820512,4181.538461,4203.589743,4488.205128,4171.794871,4651.794871,3992.820513,4053.846153
19,4381.538461,4545.128205,4517.435897,4266.153846,4449.743589,4202.564102,4411.282051,4180.512820,4209.743589,4490.769230,4176.923076,4659.487179,3995.897436,4062.564102
20,4378.461538,4543.076923,4523.076923,4267.692307,4461.025641,4205.641025,4411.794871,4185.641025,4214.871794,4484.102564,4178.461538,4663.076923,3991.794872,4065.641025
21,4377.948717,4535.897435,4512.307692,4261.538461,4472.307692,4211.282051,4412.307692,4190.256410,4215.384615,4486.666666,4182.051282,4661.538461,3988.717949,4060.512820
22,4379.487179,4530.256410,4504.102564,4255.384615,4474.871794,4216.410256,4415.384615,4191.282051,4217.948717,4491.794871,4188.717948,4661.025641,3989.743590,4053.846153
23,4378.461538,4534.358974,4508.717948,4253.846153,4462.564102,4216.410256,4416.923076,4188.205128,4218.461538,4495.897435,4183.076923,4657.948717,3993.333334,4054.871794
24,4372.820512,4534.871794,4508.205128,4252.820512,4435.897435,4205.128205,4411.794871,4183.589743,4208.717948,4485.128205,4172.820512,4655.384615,3990.256411,4055.897435
25,4366.153846,4525.641025,4506.153846,4249.743589,4436.410256,4198.974358,4413.333333,4186.666666,4205.641025,4463.076923,4176.923076,4659.487179,3984.102565,4056.410256
26,4367.179487,4526.666666,4512.307692,4252.820512,4468.717948,4205.641025,4424.615384,4192.820512,4214.358974,4468.717948,4185.641025,4668.717948,3989.230770,4062.051282
27,4375.897435,4537.948717,4515.384615,4256.923076,4478.974358,4210.769230,4426.153846,4194.871794,4221.025641,4495.897435,4188.205128,4670.256410,4001.025641,4064.102564
28,4377.435897,4537.435897,4508.205128,4255.897435,4458.461538,4210.769230,4414.358974,4193.846153,4218.974358,4501.025641,4187.179487,4664.102564,3998.974359,4056.410256
29,4371.794871,4531.794871,4505.641025,4255.384615,4453.333333,4211.794871,4410.769230,4190.256410,4211.282051,4493.846153,4187.692307,4663.589743,3988.717949,4052.307692
30,4371.794871,4532.820512,4509.230769,4258.461538,4459.487179,4211.282051,4413.333333,4185.128205,4209.743589,4494.358974,4187.692307,4666.153846,3986.666667,4056.410256
31,4371.794871,4534.871794,4506.666666,4257.435897,4465.641025,4211.794871,4409.743589,4182.051282,4211.794871,4480.512820,4182.051282,4661.025641,3989.743590,4060.000000
32,4367.692307,4536.410256,4503.076923,4254.358974,4475.897435,4217.435897,4414.871794,4183.076923,4208.717948,4461.538461,4175.384615,4655.384615,3991.794872,4057.948717
33,4371.794871,4540.000000,4506.666666,4258.461538,4457.948717,4217.435897,4425.641025,4188.205128,4206.666666,4463.589743,4177.435897,4658.461538,3996.410257,4054.358974
34,4381.538461,4543.076923,4508.205128,4268.205128,4443.589743,4215.897435,4427.692307,4195.384615,4217.435897,4480.000000,4185.128205,4662.564102,3997.435898,4058.461538
35,4384.615384,4543.589743,4512.307692,4269.230769,4471.794871,4217.435897,4427.692307,4201.538461,4224.615384,4504.615384,4191.282051,4664.615384,3995.897436,4071.794871
36,4382.564102,4543.076923,4516.923076,4263.076923,4488.717948,4215.384615,4427.692307,4199.487179,4219.487179,4508.717948,4194.358974,4667.179487,3997.435898,4075.384615
37,4385.128205,4544.102564,4514.358974,4266.153846,4471.282051,4214.871794,4424.615384,4191.794871,4214.871794,4481.025641,4190.256410,4669.743589,3999.487180,4068.205128
38,4378.974358,4539.487179,4507.692307,4267.692307,4456.923076,4215.384615,4420.512820,4183.076923,4212.307692,4463.589743,4181.538461,4666.153846,3990.769231,4059.487179
39,4369.743589,4535.897435,4506.153846,4263.076923,4467.179487,4213.846153,4422.051282,4181.538461,4210.256410,4482.051282,4181.538461,4659.487179,3983.076924,4058.461538
40,4375.897435,4543.589743,4509.743589,4267.179487,4483.076923,4221.025641,4429.230769,4190.769230,4217.435897,4501.025641,4191.794871,4664.102564,3991.794872,4065.641025
41,4375.384615,4538.461538,4509.743589,4268.717948,4464.102564,4220.000000,4427.692307,4190.256410,4217.435897,4486.666666,4187.179487,4664.615384,3990.769231,4060.000000
42,4361.025641,4521.538461,4500.000000,4255.384615,4434.358974,4203.076923,4413.333333,4178.974358,4205.128205,4467.692307,4172.307692,4651.282051,3974.871795,4046.666666
43,4361.538461,4524.102564,4494.871794,4245.128205,4444.615384,4202.051282,4408.717948,4183.589743,4204.615384,4480.000000,4173.333333,4651.794871,3979.487180,4053.333333
44,4370.769230,4532.820512,4501.538461,4245.128205,4464.102564,4212.820512,4418.974358,4196.410256,4217.948717,4488.717948,4186.666666,4663.076923,3998.461539,4063.589743
45,4367.692307,4531.794871,4505.128205,4251.794871,4468.205128,4211.282051,4426.153846,4197.948717,4221.025641,4478.461538,4189.230769,4662.564102,3998.461539,4057.435897
46,4361.538461,4529.743589,4501.025641,4257.948717,4473.846153,4210.256410,4428.717948,4197.435897,4216.923076,4489.230769,4185.128205,4657.435897,3986.153847,4052.820512
47,4362.564102,4528.205128,4502.051282,4255.384615,4473.333333,4213.846153,4428.205128,4195.897435,4212.307692,4502.564102,4184.615384,4656.410256,3983.589744,4055.384615
48,4370.769230,4528.205128,4506.153846,4256.410256,4472.820512,4214.358974,4429.743589,4192.307692,4210.769230,4484.102564,4186.666666,4660.000000,3990.769231,4060.512820
49,4382.564102,4538.461538,4508.717948,4267.179487,4468.205128,4214.871794,4431.282051,4196.923076,4214.358974,4476.410256,4196.923076,4670.769230,4001.025641,4070.256410
50,4383.076923,4544.615384,4510.769230,4270.769230,4438.461538,4207.692307,4424.102564,4195.897435,4212.307692,4488.717948,4197.948717,4674.871794,3998.974359,4070.769230
51,4376.410256,4538.461538,4507.692307,4263.589743,4427.179487,4200.000000,4419.487179,4188.717948,4206.666666,4478.974358,4184.615384,4668.717948,3987.179488,4064.615384
52,4373.846153,4533.333333,4504.102564,4259.487179,4460.512820,4205.641025,4426.153846,4196.410256,4209.230769,4464.615384,4182.051282,4666.666666,3987.179488,4068.205128
53,4368.717948,4532.820512,4506.666666,4259.487179,4484.615384,4213.846153,4430.769230,4206.666666,4215.384615,4478.461538,4190.256410,4668.717948,3993.846154,4066.666666
54,4362.564102,4530.256410,4505.128205,4254.871794,4469.743589,4211.794871,4427.692307,4201.538461,4211.794871,4488.717948,4184.102564,4665.128205,3983.589744,4055.384615
55,4363.076923,4524.615384,4495.384615,4248.717948,4443.076923,4207.179487,4427.692307,4192.820512,4202.051282,4470.256410,4171.794871,4655.897435,3962.051283,4051.794871
56,4367.179487,4520.512820,4491.794871,4251.794871,4434.871794,4205.128205,4428.717948,4192.820512,4200.512820,4458.461538,4175.384615,4649.743589,3963.076924,4054.358974
57,4369.743589,4523.589743,4494.358974,4258.461538,4454.358974,4204.102564,4426.666666,4200.000000,4209.743589,4472.307692,4180.512820,4653.333333,3983.076924,4053.333333
58,4372.820512,4526.666666,4493.333333,4255.897435,4475.897435,4210.256410,4429.743589,4203.589743,4216.410256,4490.256410,4174.358974,4657.948717,3986.153847,4050.256410
59,4370.769230,4528.717948,4498.974358,4254.358974,4456.923076,4213.846153,4432.307692,4198.974358,4212.820512,4485.128205,4173.333333,4655.897435,3977.948718,4053.846153
60,4368.205128,4538.974358,4507.179487,4261.025641,4436.923076,4207.692307,4428.717948,4200.512820,4214.871794,4465.641025,4183.076923,4656.410256,3986.666667,4062.564102
61,4371.794871,4542.564102,4498.974358,4265.128205,4453.333333,4206.153846,4427.179487,4206.153846,4220.512820,4462.051282,4183.589743,4660.512820,3994.871795,4064.615384
62,4367.692307,4521.538461,4488.717948,4257.435897,4458.974358,4212.307692,4429.743589,4201.538461,4214.358974,4474.358974,4172.820512,4652.307692,3975.384616,4054.358974
63,4358.461538,4510.769230,4487.692307,4247.179487,4448.717948,4208.717948,4425.128205,4193.333333,4205.641025,4477.948717,4166.153846,4638.974358,3958.974359,4040.512820
64,4366.153846,4532.307692,4488.717948,4251.282051,4467.692307,4198.461538,4417.948717,4193.333333,4206.153846,4480.000000,4173.333333,4642.051282,3974.871795,4043.076923
65,4374.871794,4540.000000,4488.717948,4261.538461,4478.974358,4202.051282,4416.923076,4193.333333,4207.179487,4490.256410,4183.076923,4653.333333,3995.897436,4058.974358
66,4368.717948,4520.512820,4488.717948,4262.051282,4452.307692,4204.102564,4415.897435,4186.666666,4207.179487,4488.205128,4187.179487,4653.333333,3995.897436,4064.615384
67,4369.230769,4512.307692,4488.717948,4260.000000,4435.384615,4198.461538,4411.794871,4184.102564,4210.256410,4470.769230,4191.282051,4654.358974,3991.282052,4061.025641
68,4374.871794,4514.871794,4488.717948,4261.538461,4432.820512,4195.897435,4408.717948,4185.641025,4205.128205,4457.435897,4192.820512,4659.487179,3992.307693,4062.564102
69,4373.333333,4513.846153,4487.179487,4258.974358,4445.641025,4195.897435,4411.282051,4182.564102,4198.461538,4471.282051,4187.692307,4656.923076,3994.358975,4063.589743
70,4378.974358,4520.512820,4488.717948,4265.128205,4483.589743,4204.615384,4423.076923,4184.615384,4208.205128,4501.538461,4187.692307,4659.487179,3999.487180,4061.538461
71,4382.564102,4530.256410,4492.820512,4270.256410,4485.128205,4216.923076,4431.282051,4191.794871,4219.487179,4494.871794,4189.743589,4666.666666,3994.358975,4064.615384
72,4368.717948,4523.589743,4490.256410,4263.076923,4453.846153,4212.820512,4421.538461,4188.205128,4209.743589,4466.153846,4183.589743,4659.487179,3983.589744,4063.076923
73,4365.641025,4512.307692,4486.153846,4261.538461,4456.410256,4203.076923,4414.358974,4186.153846,4202.051282,4471.282051,4182.051282,4653.333333,3990.769231,4056.923076
74,4379.487179,4522.564102,4491.282051,4268.205128,4484.615384,4209.743589,4426.153846,4197.435897,4216.923076,4493.846153,4195.384615,4665.128205,4004.615384,4066.666666
75,4384.102564,4537.435897,4496.410256,4267.692307,4473.846153,4214.358974,4431.282051,4204.102564,4226.153846,4493.846153,4199.487179,4671.794871,4002.051282,4073.846153
76,4374.358974,4530.256410,4492.820512,4261.025641,4433.846153,4201.025641,4415.897435,4193.333333,4211.282051,4483.076923,4192.307692,4662.051282,3991.282052,4062.564102
77,4373.333333,4517.948717,4488.717948,4261.538461,4437.948717,4195.384615,4406.666666,4183.076923,4202.051282,4480.512820,4190.256410,4657.948717,3995.384616,4061.025641
78,4378.974358,4525.128205,4490.256410,4266.153846,4480.000000,4202.564102,4417.948717,4186.666666,4207.179487,4480.512820,4193.333333,4663.589743,4002.051282,4072.307692
79,4376.410256,4536.410256,4492.820512,4265.641025,4489.743589,4208.205128,4429.230769,4195.384615,4211.282051,4481.538461,4195.897435,4666.666666,4000.000000,4073.846153
80,4373.333333,4535.384615,4488.205128,4261.538461,4468.205128,4211.794871,4426.153846,4200.000000,4212.307692,4493.846153,4195.384615,4662.564102,3998.461539,4067.692307
81,4372.820512,4527.179487,4479.487179,4258.461538,4458.461538,4210.256410,4421.538461,4194.358974,4213.846153,4504.615384,4189.230769,4654.871794,3998.974359,4063.076923
82,4368.205128,4520.512820,4475.384615,4258.974358,4455.384615,4201.538461,4422.564102,4185.128205,4209.743589,4489.230769,4180.512820,4648.717948,3992.307693,4055.897435
83,4365.641025,4521.538461,4473.846153,4262.051282,4451.794871,4197.435897,4421.538461,4183.589743,4203.076923,4463.076923,4175.384615,4650.256410,3986.666667,4051.794871
84,4367.692307,4523.589743,4476.410256,4264.615384,4463.589743,4205.641025,4421.538461,4186.153846,4204.102564,4463.076923,4175.384615,4650.256410,3991.282052,4054.871794
85,4363.589743,4523.589743,4486.153846,4263.076923,4469.743589,4213.333333,4426.153846,4186.153846,4207.692307,4485.641025,4181.025641,4645.641025,4001.025641,4057.948717
86,4361.538461,4525.641025,4492.307692,4264.102564,4465.641025,4210.769230,4429.743589,4188.205128,4212.820512,4501.538461,4188.717948,4648.717948,4001.538461,4059.487179
87,4367.179487,4523.589743,4489.230769,4262.051282,4462.051282,4203.589743,4426.666666,4187.179487,4212.307692,4495.384615,4184.615384,4652.820512,3987.179488,4056.410256
88,4366.666666,4520.512820,4486.153846,4252.820512,4465.128205,4202.564102,4424.615384,4183.589743,4206.666666,4484.615384,4174.358974,4650.769230,3980.512821,4053.333333
89,4364.102564,4524.615384,4489.743589,4249.743589,4467.179487,4206.153846,4428.717948,4185.641025,4204.615384,4482.564102,4171.282051,4649.230769,3991.794872,4055.384615
90,4359.487179,4521.025641,4487.179487,4250.256410,4451.282051,4202.564102,4423.589743,4178.974358,4198.461538,4467.179487,4169.743589,4645.641025,3989.230770,4049.230769
91,4355.384615,4512.307692,4485.128205,4250.256410,4441.025641,4196.923076,4412.307692,4167.692307,4194.358974,4456.410256,4169.743589,4643.589743,3980.000000,4041.025641
92,4366.153846,4517.948717,4502.051282,4257.435897,4452.820512,4202.051282,4414.358974,4175.384615,4204.102564,4481.025641,4175.897435,4653.846153,3989.743590,4050.769230
93,4373.333333,4523.589743,4507.692307,4256.410256,4460.512820,4203.076923,4416.923076,4181.538461,4210.256410,4500.000000,4178.974358,4657.948717,3994.871795,4059.487179
94,4363.076923,4517.948717,4492.820512,4244.102564,4455.384615,4194.358974,4407.692307,4174.358974,4200.000000,4482.051282,4176.410256,4653.333333,3989.230770,4050.769230
95,4366.153846,4518.461538,4496.410256,4252.820512,4463.589743,4194.358974,4412.307692,4178.461538,4198.974358,4476.410256,4180.512820,4663.076923,3992.307693,4050.256410
96,4376.410256,4526.666666,4513.333333,4267.179487,4470.769230,4205.641025,4428.717948,4189.230769,4209.743589,4495.384615,4189.230769,4675.897435,3996.410257,4067.692307
97,4370.769230,4529.230769,4511.282051,4261.538461,4457.948717,4207.692307,4429.230769,4186.153846,4209.743589,4492.820512,4191.794871,4672.820512,3994.358975,4075.897435
98,4373.333333,4528.717948,4506.666666,4257.435897,4458.461538,4203.076923,4424.102564,4183.076923,4205.128205,4483.076923,4189.743589,4669.743589,4002.564102,4069.230769
99,4382.051282,4526.153846,4509.743589,4258.461538,4460.000000,4202.564102,4421.538461,4187.692307,4208.205128,4490.256410,4190.769230,4669.743589,4009.743589,4061.538461
100,4369.743589,4519.487179,4504.102564,4251.794871,4452.307692,4198.974358,4413.846153,4183.589743,4210.256410,4491.794871,4191.282051,4664.615384,3996.923077,4058.461538
101,4362.051282,4521.025641,4502.564102,4249.230769,4458.461538,4197.948717,4410.769230,4174.358974,4206.666666,4484.102564,4191.794871,4665.128205,3992.820513,4062.051282
102,4365.641025,4523.076923,4506.153846,4252.307692,4462.564102,4198.974358,4411.794871,4175.384615,4200.000000,4478.974358,4187.179487,4666.153846,3997.435898,4060.000000
103,4361.025641,4516.923076,4502.051282,4249.230769,4455.384615,4192.820512,4409.743589,4178.461538,4197.435897,4476.923076,4173.333333,4657.435897,3989.743590,4053.333333
104,4358.461538,4515.384615,4500.000000,4247.692307,4454.871794,4193.846153,4411.282051,4181.025641,4201.025641,4480.512820,4171.282051,4653.846153,3983.589744,4053.846153
105,4364.615384,4522.564102,4505.641025,4251.282051,4445.128205,4200.000000,4415.384615,4182.564102,4201.538461,4479.487179,4181.538461,4660.000000,3988.205129,4052.307692
106,4362.051282,4520.512820,4504.615384,4249.743589,4431.282051,4192.307692,4413.846153,4176.923076,4200.000000,4464.615384,4179.487179,4660.000000,3985.128206,4042.564102
107,4355.897435,4513.333333,4497.948717,4246.153846,4455.897435,4186.666666,4413.333333,4171.794871,4200.000000,4465.641025,4171.282051,4658.461538,3979.487180,4042.564102
108,4361.025641,4520.512820,4502.564102,4250.769230,4482.564102,4196.923076,4415.897435,4176.923076,4201.025641,4490.256410,4176.923076,4661.538461,3988.205129,4057.948717
109,4367.692307,4530.256410,4509.743589,4260.512820,4466.666666,4200.000000,4414.871794,4178.461538,4202.051282,4492.820512,4185.128205,4662.051282,3994.871795,4063.076923
110,4367.692307,4528.205128,4507.179487,4263.589743,4455.897435,4194.358974,4411.794871,4171.282051,4201.025641,4473.333333,4181.025641,4658.974358,3992.307693,4054.358974
111,4369.230769,4525.128205,4505.641025,4260.512820,4471.794871,4198.461538,4413.846153,4169.230769,4197.435897,4467.179487,4173.846153,4655.897435,3992.820513,4052.307692
112,4371.282051,4533.333333,4507.179487,4259.487179,4465.641025,4203.076923,4417.948717,4175.897435,4195.897435,4466.666666,4173.333333,4652.307692,3990.256411,4056.410256
113,4366.666666,4536.410256,4505.128205,4258.974358,4433.846153,4199.487179,4414.871794,4183.589743,4197.435897,4466.153846,4178.461538,4653.333333,3985.641026,4054.358974
114,4361.538461,4528.205128,4504.102564,4256.410256,4435.897435,4198.461538,4410.769230,4185.128205,4201.538461,4473.333333,4180.000000,4655.384615,3984.615385,4047.692307
115,4361.025641,4521.025641,4505.128205,4255.384615,4474.358974,4201.025641,4418.974358,4184.615384,4208.205128,4475.384615,4181.025641,4658.974358,3989.230770,4049.743589
116,4364.615384,4521.538461,4506.153846,4254.358974,4491.794871,4205.128205,4428.717948,4190.769230,4212.820512,4471.282051,4189.230769,4667.692307,3997.435898,4060.512820
117,4372.820512,4530.769230,4508.717948,4254.358974,4478.461538,4205.641025,4428.717948,4191.794871,4213.846153,4478.974358,4192.820512,4670.769230,4000.512820,4066.153846
118,4374.871794,4534.871794,4507.179487,4253.846153,4467.179487,4202.051282,4424.615384,4185.128205,4211.794871,4485.128205,4182.564102,4662.564102,3988.205129,4057.435897
119,4369.743589,4529.230769,4504.615384,4256.923076,4464.615384,4201.025641,4423.076923,4185.128205,4207.692307,4480.512820,4176.410256,4659.487179,3978.974359,4050.256410
120,4366.153846,4523.076923,4505.641025,4260.512820,4458.461538,4203.076923,4424.615384,4193.333333,4209.230769,4477.435897,4180.512820,4661.538461,3986.153847,4053.333333
121,4360.000000,4520.512820,4504.102564,4255.384615,4460.512820,4201.538461,4426.153846,4198.461538,4214.358974,4472.307692,4184.615384,4663.076923,3983.076924,4049.743589
122,4361.025641,4524.615384,4503.076923,4250.769230,4479.487179,4201.538461,4427.179487,4201.025641,4220.512820,4471.794871,4187.179487,4668.717948,3980.000000,4049.230769
123,4373.846153,4532.820512,4508.205128,4253.846153,4481.025641,4207.692307,4430.769230,4204.102564,4224.102564,4486.153846,4192.820512,4676.410256,3995.897436,4063.076923
124,4371.282051,4529.230769,4504.102564,4253.846153,4454.871794,4205.641025,4427.179487,4196.923076,4216.923076,4492.820512,4194.871794,4670.769230,4000.512820,4065.641025
125,4362.051282,4523.589743,4494.871794,4248.717948,4453.846153,4196.923076,4418.974358,4188.717948,4207.179487,4480.512820,4186.666666,4660.000000,3988.717949,4054.871794
126,4369.743589,4529.230769,4500.512820,4247.179487,4478.461538,4197.435897,4420.000000,4193.333333,4210.256410,4469.743589,4182.051282,4663.076923,3990.769231,4053.846153
127,4375.897435,4532.820512,4508.717948,4249.743589,4471.282051,4201.538461,4424.615384,4201.538461,4216.923076,4476.410256,4188.205128,4673.333333,4003.589743,4061.025641
128,4371.282051,4530.769230,4507.179487,4253.846153,4448.205128,4198.461538,4422.564102,4198.974358,4212.820512,4485.641025,4195.384615,4674.871794,3997.435898,4064.615384
129,4372.307692,4526.153846,4504.615384,4254.358974,4456.410256,4197.948717,4419.487179,4190.256410,4206.153846,4477.948717,4191.282051,4667.692307,3980.000000,4058.461538
130,4373.333333,4523.076923,4505.128205,4252.307692,4474.358974,4201.025641,4418.974358,4183.076923,4201.538461,4463.076923,4183.589743,4663.076923,3976.923077,4051.282051
131,4375.384615,4528.717948,4506.153846,4255.897435,4475.897435,4201.538461,4422.564102,4183.589743,4200.512820,4467.179487,4183.589743,4665.641025,3993.333334,4055.897435
132,4375.384615,4534.358974,4508.205128,4257.948717,4466.153846,4199.487179,4422.051282,4188.205128,4203.589743,4478.461538,4183.076923,4667.179487,3996.923077,4056.923076
133,4365.641025,4527.179487,4504.615384,4247.692307,4454.358974,4196.410256,4410.256410,4182.564102,4198.974358,4471.794871,4178.974358,4661.025641,3977.435898,4046.153846
134,4366.666666,4529.743589,4504.615384,4246.153846,4454.358974,4197.948717,4408.205128,4179.487179,4197.948717,4472.307692,4182.564102,4659.487179,3977.435898,4049.743589
135,4378.974358,4539.487179,4510.769230,4260.000000,4464.102564,4200.000000,4420.000000,4192.820512,4210.256410,4487.179487,4191.282051,4669.743589,3996.923077,4066.666666
136,4377.948717,4537.435897,4510.256410,4264.102564,4467.692307,4198.461538,4418.461538,4198.461538,4215.897435,4483.076923,4191.794871,4673.333333,4001.025641,4071.282051
137,4374.871794,4535.897435,4506.666666,4259.487179,4465.641025,4196.410256,4410.256410,4189.743589,4211.282051,4475.897435,4188.205128,4670.256410,3989.743590,4061.538461
138,4378.461538,4537.435897,4510.256410,4261.538461,4474.358974,4200.512820,4418.974358,4191.282051,4213.846153,4478.974358,4191.794871,4674.871794,3989.743590,4059.487179
139,4377.948717,4540.512820,4511.282051,4267.179487,4493.333333,4205.128205,4429.743589,4200.512820,4218.461538,4477.948717,4198.461538,4680.000000,4001.025641,4069.230769
140,4378.974358,4541.538461,4506.666666,4268.205128,4496.923076,4204.615384,4424.102564,4193.333333,4213.846153,4486.153846,4193.333333,4674.871794,4006.666666,4072.307692
141,4378.974358,4538.461538,4505.641025,4260.000000,4470.256410,4199.487179,4415.384615,4181.538461,4206.666666,4490.769230,4182.051282,4665.641025,4003.076923,4063.076923
142,4373.333333,4536.923076,4500.512820,4251.282051,4441.538461,4196.923076,4413.333333,4182.051282,4200.000000,4469.743589,4183.076923,4660.512820,3992.307693,4054.871794
143,4375.384615,4540.000000,4496.410256,4255.384615,4449.230769,4201.025641,4416.410256,4186.153846,4202.564102,4464.102564,4191.282051,4662.564102,3990.256411,4059.487179
144,4374.358974,4536.410256,4498.461538,4263.076923,4480.000000,4200.000000,4418.461538,4187.179487,4209.230769,4483.589743,4185.128205,4663.076923,3998.461539,4065.128205
145,4364.615384,4529.743589,4494.871794,4260.000000,4497.948717,4198.974358,4415.897435,4184.615384,4206.153846,4487.179487,4174.871794,4653.846153,3998.461539,4058.974358
146,4366.153846,4534.358974,4491.282051,4253.846153,4480.512820,4201.025641,4414.871794,4183.076923,4198.974358,4467.179487,4176.410256,4650.256410,3984.102565,4046.666666
147,4367.692307,4532.820512,4489.743589,4251.794871,4435.897435,4191.282051,4410.769230,4182.564102,4194.871794,4445.128205,4175.384615,4651.282051,3970.769231,4044.615384
148,4363.589743,4524.102564,4490.769230,4251.794871,4427.692307,4185.128205,4405.641025,4184.615384,4194.358974,4453.333333,4168.717948,4651.794871,3977.435898,4051.794871
149,4371.794871,4529.743589,4500.512820,4260.512820,4475.384615,4195.897435,4414.358974,4192.820512,4205.128205,4486.666666,4178.461538,4662.564102,3996.410257,4059.487179
150,4382.564102,4543.076923,4512.307692,4270.256410,4499.487179,4208.717948,4429.230769,4203.589743,4218.974358,4490.256410,4192.307692,4676.410256,4001.025641,4068.717948
151,4378.461538,4537.948717,4508.717948,4261.538461,4465.128205,4203.076923,4425.641025,4201.025641,4216.410256,4470.256410,4186.153846,4669.230769,3988.717949,4069.230769
152,4367.692307,4522.564102,4500.512820,4245.641025,4441.025641,4188.717948,4411.282051,4187.692307,4205.128205,4470.256410,4178.974358,4658.974358,3984.102565,4056.923076
153,4370.769230,4524.615384,4505.128205,4247.179487,4458.461538,4188.717948,4410.256410,4184.615384,4200.512820,4469.743589,4187.179487,4669.230769,3991.794872,4058.461538
154,4378.974358,4535.384615,4508.717948,4257.948717,4472.307692,4200.000000,4420.000000,4188.205128,4200.512820,4453.333333,4187.179487,4673.846153,3992.820513,4067.692307
155,4369.743589,4529.743589,4500.000000,4254.358974,4470.769230,4203.589743,4424.615384,4187.179487,4199.487179,4458.461538,4178.461538,4661.538461,3986.666667,4061.538461
156,4356.923076,4516.410256,4490.769230,4244.615384,4464.102564,4198.974358,4423.076923,4188.717948,4202.564102,4483.076923,4178.461538,4653.333333,3982.564103,4052.820512
157,4360.000000,4519.487179,4489.743589,4244.102564,4452.820512,4198.974358,4422.051282,4191.282051,4208.205128,4489.230769,4175.897435,4651.282051,3982.564103,4053.333333
158,4363.589743,4525.128205,4492.307692,4247.179487,4460.512820,4201.538461,4421.538461,4188.205128,4207.179487,4469.230769,4174.358974,4651.282051,3985.641026,4053.846153
159,4363.076923,4520.512820,4492.307692,4250.256410,4474.358974,4200.000000,4423.589743,4184.615384,4200.512820,4457.948717,4180.000000,4655.384615,3985.641026,4053.846153
160,4369.743589,4527.179487,4492.307692,4257.435897,4463.076923,4200.000000,4425.641025,4183.076923,4198.461538,4460.512820,4177.948717,4656.923076,3980.512821,4056.923076
161,4372.307692,4539.487179,4501.538461,4267.692307,4454.871794,4205.641025,4428.717948,4189.230769,4207.179487,4461.025641,4177.435897,4656.410256,3981.025642,4060.512820
162,4371.282051,4541.025641,4506.153846,4272.307692,4481.025641,4215.384615,4435.384615,4199.487179,4215.384615,4468.205128,4183.589743,4658.974358,3986.666667,4063.589743
163,4376.410256,4539.487179,4500.512820,4267.179487,4503.589743,4218.974358,4436.923076,4196.923076,4211.794871,4481.025641,4182.564102,4657.435897,3989.230770,4063.589743
164,4375.897435,4542.051282,4498.974358,4261.538461,4487.179487,4214.358974,4428.717948,4183.589743,4202.051282,4478.974358,4175.897435,4651.282051,3983.589744,4063.076923
165,4368.205128,4541.538461,4500.000000,4259.487179,4461.538461,4205.128205,4420.512820,4176.923076,4192.820512,4458.974358,4174.358974,4649.230769,3976.410257,4064.102564
166,4369.743589,4538.974358,4492.820512,4256.923076,4454.358974,4197.948717,4412.307692,4172.820512,4188.717948,4449.230769,4176.410256,4651.282051,3978.974359,4056.923076
167,4370.769230,4534.871794,4491.282051,4259.487179,4460.000000,4197.435897,4408.717948,4167.692307,4190.256410,4470.769230,4178.461538,4651.282051,3985.641026,4050.256410
168,4365.641025,4531.794871,4496.410256,4266.666666,4468.205128,4199.487179,4412.307692,4171.282051,4195.384615,4483.589743,4174.871794,4651.794871,3984.615385,4054.871794
169,4365.641025,4533.846153,4491.282051,4262.564102,4470.769230,4198.461538,4412.820512,4180.000000,4197.948717,4458.461538,4171.794871,4648.205128,3983.076924,4057.948717
170,4369.743589,4531.794871,4488.717948,4254.358974,4476.923076,4200.000000,4417.435897,4184.615384,4201.538461,4448.717948,4184.102564,4648.717948,3987.692308,4055.384615
171,4372.820512,4529.743589,4494.871794,4257.948717,4476.923076,4204.615384,4427.692307,4187.692307,4210.256410,4482.564102,4192.307692,4655.897435,3994.871795,4056.923076
172,4370.256410,4532.307692,4492.820512,4261.538461,4461.025641,4202.051282,4427.692307,4187.179487,4213.333333,4496.410256,4182.051282,4655.897435,3997.948718,4060.000000
173,4361.538461,4533.333333,4492.820512,4259.487179,4464.102564,4200.000000,4425.128205,4190.256410,4212.307692,4481.025641,4180.000000,4654.871794,3995.897436,4062.564102
174,4366.666666,4540.512820,4503.589743,4265.128205,4478.461538,4207.179487,4429.743589,4199.487179,4217.435897,4484.102564,4192.307692,4665.641025,3997.948718,4070.256410
175,4384.102564,4550.256410,4509.743589,4272.820512,4465.128205,4210.256410,4428.717948,4198.974358,4221.538461,4492.307692,4197.435897,4671.794871,4001.025641,4074.871794
176,4384.615384,4543.076923,4507.179487,4267.692307,4462.564102,4202.051282,4422.564102,4188.205128,4213.333333,4479.487179,4189.230769,4665.641025,3998.974359,4069.743589
177,4373.333333,4533.333333,4503.589743,4260.512820,4494.358974,4198.461538,4421.025641,4181.538461,4201.538461,4465.641025,4183.076923,4661.538461,3997.435898,4066.153846
178,4370.256410,4533.333333,4496.923076,4264.102564,4480.512820,4201.025641,4415.897435,4174.358974,4194.871794,4470.769230,4178.974358,4657.435897,3992.307693,4061.025641
179,4365.128205,4525.128205,4492.820512,4263.076923,4437.948717,4198.461538,4412.820512,4168.205128,4190.769230,4470.256410,4169.230769,4650.769230,3973.333334,4048.205128
180,4357.435897,4515.897435,4501.538461,4253.333333,4449.743589,4196.923076,4420.000000,4175.897435,4190.256410,4452.820512,4165.128205,4649.230769,3958.461539,4044.102564
181,4362.051282,4522.564102,4507.179487,4253.846153,4472.307692,4203.076923,4429.230769,4188.717948,4198.974358,4454.871794,4171.794871,4654.358974,3972.307693,4051.794871
182,4374.358974,4535.897435,4503.589743,4269.230769,4467.179487,4208.717948,4432.307692,4196.923076,4212.307692,4477.948717,4182.051282,4662.564102,3997.948718,4061.538461
183,4378.974358,4541.538461,4505.641025,4279.487179,4469.743589,4209.230769,4431.282051,4198.974358,4215.384615,4486.153846,4189.230769,4668.205128,4003.076923,4065.128205
184,4376.410256,4538.974358,4508.717948,4273.846153,4477.435897,4202.564102,4428.205128,4194.871794,4209.230769,4473.846153,4190.769230,4664.102564,3984.102565,4061.538461
185,4376.410256,4538.461538,4506.666666,4268.205128,4474.871794,4198.974358,4426.153846,4198.461538,4211.282051,4469.743589,4190.769230,4662.051282,3981.025642,4064.615384
186,4378.461538,4543.076923,4506.153846,4272.820512,4483.076923,4207.179487,4430.256410,4205.641025,4221.025641,4487.179487,4195.897435,4665.641025,4003.076923,4072.820512
187,4381.538461,4547.692307,4508.717948,4281.025641,4495.384615,4215.384615,4432.820512,4204.102564,4223.076923,4502.564102,4198.461538,4669.230769,4005.641025,4072.820512
188,4387.692307,4548.717948,4511.282051,4281.025641,4474.871794,4209.743589,4430.256410,4200.512820,4219.487179,4500.000000,4194.358974,4671.282051,3993.333334,4070.769230
189,4383.589743,4541.538461,4508.717948,4270.256410,4441.025641,4200.000000,4426.666666,4193.333333,4215.384615,4492.307692,4188.717948,4665.128205,3997.435898,4070.769230
190,4370.256410,4534.358974,4503.076923,4261.025641,4445.641025,4197.435897,4424.615384,4184.102564,4209.230769,4482.051282,4184.615384,4655.897435,4001.538461,4067.692307
191,4372.307692,4534.871794,4503.589743,4264.102564,4483.076923,4203.589743,4427.179487,4189.230769,4206.666666,4465.128205,4188.717948,4660.000000,3992.820513,4069.743589
192,4380.512820,4538.974358,4510.256410,4270.256410,4496.410256,4211.794871,4432.820512,4201.025641,4211.282051,4465.641025,4197.435897,4668.205128,3990.769231,4073.333333
193,4377.435897,4541.538461,4508.717948,4271.794871,4471.282051,4211.282051,4433.333333,4202.051282,4217.435897,4486.153846,4193.846153,4665.128205,3994.358975,4067.179487
194,4374.358974,4540.512820,4503.076923,4270.769230,4460.000000,4203.076923,4429.743589,4201.025641,4215.384615,4492.307692,4186.666666,4657.435897,3993.846154,4062.051282
195,4374.358974,4538.974358,4502.051282,4269.230769,4472.307692,4200.000000,4425.128205,4200.000000,4213.333333,4490.769230,4189.743589,4655.897435,3992.820513,4063.589743
196,4370.769230,4541.538461,4496.410256,4267.692307,4470.256410,4202.564102,4423.589743,4191.794871,4217.435897,4492.820512,4191.282051,4656.923076,3991.794872,4063.589743
197,4373.333333,4539.487179,4493.846153,4270.256410,4458.974358,4205.128205,4426.153846,4190.769230,4214.871794,4484.102564,4190.256410,4658.461538,3994.358975,4063.589743
198,4375.384615,4537.948717,4503.076923,4274.358974,4465.641025,4211.282051,4430.256410,4201.025641,4214.871794,4483.589743,4198.974358,4662.051282,4003.589743,4066.153846
199,4371.794871,4540.000000,4507.179487,4274.871794,4474.871794,4216.410256,4429.743589,4204.615384,4223.076923,4502.564102,4203.589743,4664.102564,4006.153846,4067.692307
200,4371.794871,4538.974358,4504.615384,4276.410256,4480.000000,4213.333333,4428.717948,4201.025641,4223.076923,4504.102564,4196.410256,4662.564102,4001.538461,4066.153846
201,4375.384615,4537.435897,4506.666666,4277.435897,4486.666666,4206.666666,4429.230769,4197.435897,4216.923076,4480.512820,4191.794871,4664.102564,3995.897436,4064.615384
202,4369.743589,4538.461538,4506.153846,4266.666666,4474.358974,4200.000000,4421.538461,4189.743589,4212.307692,4475.384615,4188.205128,4663.589743,3990.769231,4061.538461
203,4364.615384,4536.410256,4502.051282,4260.512820,4454.358974,4198.461538,4415.384615,4181.538461,4205.128205,4493.333333,4183.076923,4657.435897,3989.230770,4054.358974
204,4370.769230,4536.410256,4505.641025,4271.794871,4448.717948,4203.589743,4421.538461,4185.128205,4205.128205,4497.435897,4182.564102,4656.923076,3992.820513,4057.435897
205,4368.717948,4535.384615,4507.692307,4276.923076,4451.794871,4202.564102,4428.717948,4195.384615,4212.307692,4491.282051,4183.589743,4662.564102,3995.897436,4064.615384
206,4361.025641,4531.794871,4504.102564,4271.282051,4464.615384,4200.000000,4429.230769,4201.025641,4215.897435,4489.230769,4183.589743,4663.589743,3995.897436,4060.512820
207,4369.230769,4542.564102,4511.282051,4276.923076,4485.128205,4208.717948,4428.205128,4202.564102,4220.512820,4488.205128,4185.128205,4664.102564,4001.025641,4062.051282
208,4377.948717,4551.794871,4518.461538,4280.000000,4487.692307,4214.871794,4429.743589,4202.564102,4223.589743,4489.743589,4188.205128,4663.589743,4003.076923,4069.743589
209,4371.282051,4544.102564,4510.769230,4268.717948,4460.000000,4204.615384,4429.230769,4200.512820,4217.435897,4492.307692,4185.641025,4658.974358,3995.384616,4063.589743
210,4370.769230,4542.564102,4510.256410,4269.230769,4442.564102,4198.461538,4428.717948,4199.487179,4218.461538,4496.923076,4181.025641,4662.051282,3993.846154,4056.923076
211,4375.897435,4547.179487,4520.512820,4274.871794,4465.641025,4205.128205,4431.794871,4204.615384,4225.641025,4501.538461,4184.102564,4667.692307,4001.025641,4063.076923
212,4363.589743,4537.435897,4520.512820,4261.538461,4476.410256,4205.641025,4431.794871,4205.128205,4223.589743,4495.897435,4187.179487,4662.564102,3998.461539,4061.538461
213,4357.948717,4531.794871,4515.897435,4254.358974,4456.923076,4202.051282,4428.205128,4200.000000,4220.512820,4489.230769,4179.487179,4656.923076,3991.794872,4057.435897
214,4372.307692,4541.025641,4521.538461,4264.102564,4455.384615,4204.102564,4427.179487,4201.538461,4222.564102,4492.307692,4177.435897,4661.538461,3997.948718,4064.102564
215,4371.794871,4541.538461,4524.102564,4265.641025,4465.128205,4202.564102,4428.205128,4202.051282,4217.948717,4495.384615,4181.538461,4664.102564,4002.051282,4062.051282
216,4357.948717,4532.820512,4512.820512,4259.487179,4460.000000,4200.000000,4426.666666,4196.410256,4212.820512,4489.230769,4175.897435,4655.897435,3990.769231,4053.333333
217,4357.948717,4535.384615,4512.820512,4261.538461,4461.025641,4202.051282,4426.153846,4197.948717,4216.923076,4481.538461,4175.384615,4655.384615,3985.128206,4053.846153
218,4364.102564,4537.435897,4523.589743,4261.538461,4461.025641,4201.538461,4427.692307,4201.538461,4215.897435,4479.487179,4182.564102,4662.564102,3993.333334,4055.897435
219,4361.025641,4533.846153,4521.025641,4257.435897,4455.384615,4200.512820,4424.102564,4192.820512,4211.282051,4492.307692,4173.846153,4658.974358,3990.256411,4050.769230
220,4356.923076,4533.333333,4512.307692,4257.948717,4452.820512,4202.564102,4419.487179,4184.102564,4212.820512,4501.538461,4160.000000,4650.256410,3975.897436,4049.230769
221,4363.076923,4533.846153,4514.871794,4260.512820,4435.897435,4194.871794,4414.871794,4184.102564,4214.358974,4495.384615,4165.641025,4653.333333,3981.025642,4055.897435
222,4374.871794,4542.051282,4524.615384,4261.025641,4442.564102,4193.333333,4415.384615,4191.282051,4218.461538,4502.051282,4178.974358,4662.564102,4002.051282,4066.153846
223,4383.076923,4550.256410,4530.769230,4262.564102,4482.564102,4206.666666,4423.589743,4198.974358,4224.615384,4503.076923,4183.076923,4669.743589,4009.743589,4073.846153
224,4382.051282,4547.179487,4531.794871,4266.666666,4481.025641,4210.256410,4429.230769,4197.948717,4221.025641,4480.000000,4186.153846,4671.794871,4004.102564,4074.358974
225,4374.871794,4547.179487,4525.641025,4269.230769,4458.974358,4204.615384,4428.205128,4192.820512,4215.384615,4483.076923,4183.076923,4667.179487,3998.974359,4072.307692
226,4371.282051,4552.820512,4522.564102,4268.717948,4463.589743,4205.641025,4426.666666,4189.230769,4211.282051,4503.076923,4173.333333,4663.076923,3993.846154,4068.717948
227,4376.923076,4546.666666,4525.641025,4267.179487,4460.512820,4204.615384,4424.615384,4186.153846,4205.641025,4496.410256,4170.256410,4664.102564,3991.794872,4067.692307
228,4380.512820,4537.948717,4523.589743,4262.051282,4439.487179,4197.435897,4420.000000,4183.589743,4207.692307,4483.076923,4180.000000,4666.666666,3995.384616,4067.692307
229,4375.897435,4540.512820,4523.076923,4253.846153,4440.000000,4199.487179,4416.923076,4186.153846,4215.384615,4484.615384,4188.205128,4669.743589,4001.025641,4068.717948
230,4376.410256,4538.461538,4526.153846,4256.410256,4462.564102,4202.564102,4420.512820,4191.794871,4221.025641,4489.230769,4183.589743,4671.794871,4004.102564,4068.717948
231,4376.923076,4534.871794,4525.641025,4265.641025,4481.538461,4202.564102,4426.153846,4199.487179,4224.615384,4495.384615,4183.076923,4671.794871,4003.076923,4071.794871
232,4373.333333,4538.974358,4524.615384,4260.512820,4473.846153,4204.102564,4428.205128,4204.102564,4225.641025,4505.641025,4190.769230,4672.820512,4003.076923,4075.384615
233,4373.333333,4538.974358,4524.102564,4247.692307,4446.153846,4201.538461,4426.153846,4200.512820,4223.076923,4510.256410,4188.717948,4671.794871,3999.487180,4068.717948
234,4373.846153,4533.846153,4519.487179,4246.153846,4442.564102,4200.512820,4426.666666,4200.512820,4222.564102,4499.487179,4181.025641,4666.153846,3992.820513,4058.461538
235,4368.717948,4531.794871,4515.384615,4250.256410,4455.384615,4200.512820,4427.179487,4201.538461,4222.051282,4485.641025,4181.025641,4660.000000,3996.923077,4059.487179
236,4368.205128,4536.410256,4518.461538,4253.333333,4457.948717,4202.051282,4424.615384,4201.025641,4219.487179,4495.897435,4180.512820,4656.923076,4005.641025,4064.615384
237,4369.743589,4540.000000,4516.923076,4258.974358,4464.615384,4204.615384,4426.666666,4200.512820,4218.974358,4508.717948,4177.948717,4656.923076,4000.512820,4060.000000
238,4365.128205,4536.923076,4507.692307,4258.974358,4463.076923,4202.051282,4423.076923,4190.769230,4214.358974,4491.282051,4178.461538,4654.358974,3987.692308,4052.307692
239,4363.076923,4534.871794,4502.051282,4250.769230,4448.205128,4196.923076,4410.769230,4177.948717,4203.589743,4472.820512,4173.846153,4646.153846,3987.179488,4050.769230
240,4367.179487,4536.923076,4506.666666,4246.666666,4447.692307,4199.487179,4410.769230,4182.051282,4202.564102,4477.435897,4171.794871,4646.666666,3997.948718,4055.897435
241,4373.846153,4538.461538,4513.333333,4250.256410,4475.384615,4208.205128,4424.102564,4197.948717,4212.820512,4492.307692,4181.025641,4657.435897,4005.128205,4062.564102
242,4377.948717,4540.000000,4513.333333,4253.846153,4487.692307,4217.435897,4432.307692,4205.128205,4220.512820,4508.205128,4189.743589,4660.000000,4003.589743,4066.153846
243,4368.717948,4536.410256,4507.179487,4249.743589,4447.692307,4214.358974,4432.820512,4203.589743,4218.974358,4512.307692,4183.076923,4652.307692,3995.384616,4058.974358
244,4357.948717,4531.282051,4503.589743,4244.615384,4423.076923,4202.051282,4431.794871,4202.564102,4218.974358,4498.461538,4174.871794,4651.794871,3991.282052,4052.307692
245,4367.179487,4538.974358,4509.743589,4247.179487,4455.897435,4206.666666,4430.256410,4205.641025,4222.051282,4484.102564,4178.974358,4660.512820,3997.435898,4059.487179
246,4379.487179,4549.230769,4520.000000,4253.333333,4485.641025,4218.974358,4432.307692,4208.205128,4226.153846,4486.153846,4187.179487,4665.641025,4006.153846,4068.205128
247,4378.461538,4544.102564,4522.051282,4256.923076,4477.948717,4211.282051,4428.205128,4203.076923,4224.102564,4498.461538,4187.179487,4664.102564,4006.153846,4068.205128
248,4369.743589,4534.358974,4511.282051,4251.282051,4468.205128,4198.974358,4413.846153,4188.717948,4212.820512,4506.153846,4180.512820,4660.000000,3992.307693,4061.025641
249,4366.666666,4535.897435,4505.128205,4246.153846,4458.974358,4201.538461,4412.307692,4182.051282,4210.769230,4504.102564,4183.076923,4658.974358,3991.794872,4056.923076
250,4368.717948,4540.512820,4512.820512,4255.897435,4441.538461,4205.128205,4424.615384,4192.307692,4219.487179,4495.384615,4188.205128,4664.102564,4004.615384,4061.538461
251,4370.769230,4538.461538,4514.871794,4260.512820,4440.000000,4201.538461,4424.615384,4199.487179,4222.051282,4490.256410,4185.128205,4662.564102,4004.615384,4064.615384
