,AF3,F7,F3,FC5,T7,P7,O1,O2,P8,T8,FC6,F4,F8,AF4
0,4403.076923,4533.333333,4509.743589,4286.666666,4501.025641,4190.769230,4441.538461,4174.358974,4218.974358,4492.307692,4203.076923,4631.794871,4010.256410,4036.923076
1,4414.358974,4541.538461,4521.025641,4291.794871,4509.743589,4200.000000,4445.641025,4182.564102,4221.538461,4500.512820,4206.153846,4639.487179,4013.333333,4047.179487
2,4416.923076,4538.974358,4523.076923,4289.743589,4507.179487,4201.025641,4442.051282,4187.692307,4223.589743,4501.538461,4211.282051,4641.538461,4011.282051,4051.794871
3,4412.820512,4537.435897,4523.076923,4289.230769,4502.051282,4197.435897,4442.051282,4184.615384,4228.205128,4505.641025,4215.897435,4645.128205,4015.897435,4057.948717
4,4410.256410,4532.820512,4520.000000,4287.179487,4496.410256,4192.307692,4442.564102,4182.564102,4224.102564,4502.051282,4208.717948,4645.128205,4013.846153,4061.025641
5,4407.179487,4523.589743,4513.846153,4286.153846,4493.846153,4189.743589,4440.000000,4182.564102,4214.358974,4486.666666,4198.461538,4635.897435,4003.589743,4049.230769
6,4406.666666,4521.538461,4514.871794,4289.230769,4503.589743,4190.256410,4436.923076,4181.538461,4212.820512,4482.564102,4201.025641,4631.282051,4003.076923,4042.564102
7,4409.230769,4527.692307,4513.333333,4287.179487,4507.692307,4187.179487,4431.282051,4172.820512,4216.410256,4492.307692,4203.589743,4632.307692,4004.102564,4043.589743
8,4407.692307,4532.307692,4510.769230,4284.102564,4506.666666,4184.102564,4427.692307,4167.179487,4212.820512,4500.512820,4200.000000,4632.307692,4004.102564,4040.000000
9,4407.179487,4532.307692,4516.410256,4288.205128,4507.692307,4188.205128,4432.307692,4171.794871,4210.256410,4498.461538,4202.564102,4633.333333,4010.256410,4044.615384
10,4406.153846,4526.153846,4514.871794,4286.666666,4494.871794,4187.179487,4431.794871,4170.256410,4210.256410,4491.282051,4203.589743,4628.205128,4009.743589,4052.307692
11,4401.025641,4519.487179,4504.102564,4281.025641,4482.564102,4181.025641,4425.641025,4163.076923,4205.641025,4488.205128,4193.846153,4622.051282,3993.846154,4044.615384
12,4403.076923,4525.641025,4508.205128,4288.717948,4497.948717,4185.128205,4434.871794,4169.230769,4207.692307,4492.307692,4193.333333,4628.717948,3990.769231,4041.025641
13,4410.769230,4535.384615,4518.461538,4292.307692,4509.743589,4193.846153,4445.128205,4178.974358,4217.435897,4496.410256,4201.025641,4634.871794,4008.717948,4054.358974
14,4410.256410,4526.666666,4517.948717,4282.564102,4494.871794,4190.769230,4436.923076,4173.846153,4211.794871,4493.333333,4201.538461,4630.256410,4008.717948,4059.487179
15,4407.692307,4518.461538,4519.487179,4281.025641,4493.333333,4184.102564,4432.820512,4168.205128,4202.564102,4491.282051,4200.512820,4632.820512,3990.256411,4054.358974
16,4413.846153,4532.307692,4524.615384,4292.820512,4509.743589,4188.205128,4437.948717,4170.256410,4210.769230,4486.153846,4200.512820,4640.000000,3994.871795,4059.487179
17,4418.974358,4544.615384,4522.051282,4300.512820,4510.256410,4190.769230,4432.820512,4168.205128,4212.307692,4477.435897,4197.948717,4636.410256,4011.282051,4065.128205
18,4416.410256,4540.000000,4513.846153,4293.333333,4504.102564,4184.102564,4426.153846,4160.000000,4198.461538,4480.000000,4196.923076,4629.230769,4004.615384,4060.512820
19,4411.794871,4534.358974,4510.256410,4285.641025,4505.128205,4183.589743,4428.205128,4155.384615,4198.974358,4490.769230,4193.846153,4625.641025,3993.333334,4056.923076
20,4411.282051,4527.692307,4510.769230,4283.589743,4496.410256,4187.692307,4424.615384,4154.358974,4206.153846,4490.769230,4186.666666,4622.564102,3992.307693,4053.846153
21,4408.205128,4521.538461,4508.717948,4284.102564,4485.641025,4181.025641,4419.487179,4151.794871,4199.487179,4481.538461,4182.564102,4617.948717,3987.692308,4046.666666
22,4402.051282,4521.538461,4506.666666,4281.025641,4492.307692,4177.435897,4423.589743,4153.333333,4192.820512,4478.974358,4183.076923,4615.897435,3985.641026,4044.102564
23,4404.615384,4520.512820,4508.205128,4275.897435,4493.846153,4182.051282,4428.205128,4160.000000,4197.435897,4477.948717,4181.538461,4618.974358,3990.769231,4049.230769
24,4408.717948,4519.487179,4513.846153,4277.948717,4486.666666,4183.076923,4426.153846,4163.076923,4203.589743,4473.846153,4182.564102,4623.076923,3988.717949,4053.333333
25,4407.692307,4521.538461,4519.487179,4281.025641,4496.410256,4183.076923,4426.153846,4161.538461,4203.076923,4475.384615,4190.256410,4628.205128,3988.717949,4056.923076
26,4408.717948,4521.025641,4515.897435,4277.435897,4506.666666,4185.128205,4429.230769,4159.487179,4199.487179,4485.128205,4194.871794,4630.769230,3997.435898,4058.461538
27,4410.256410,4521.025641,4505.641025,4274.871794,4496.410256,4184.615384,4427.692307,4156.923076,4200.000000,4491.794871,4188.717948,4626.153846,3997.435898,4053.333333
28,4408.205128,4522.564102,4508.717948,4282.564102,4494.871794,4183.589743,4426.666666,4158.461538,4202.051282,4488.717948,4188.205128,4623.589743,3991.282052,4054.871794
29,4411.794871,4523.076923,4519.487179,4289.230769,4506.153846,4186.666666,4431.794871,4167.692307,4205.641025,4491.282051,4201.025641,4631.282051,3997.948718,4070.769230
30,4418.461538,4531.282051,4523.076923,4288.205128,4501.025641,4194.871794,4434.871794,4173.333333,4211.794871,4496.923076,4207.179487,4637.948717,4011.282051,4081.538461
31,4418.974358,4535.897435,4521.538461,4286.153846,4487.179487,4196.410256,4431.282051,4170.769230,4216.410256,4492.307692,4202.564102,4633.846153,4012.307692,4073.333333
32,4417.948717,4530.256410,4518.461538,4286.666666,4489.230769,4187.692307,4429.230769,4170.256410,4215.897435,4491.282051,4201.538461,4629.743589,4003.076923,4064.615384
33,4416.923076,4527.692307,4513.333333,4290.256410,4501.025641,4188.205128,4431.282051,4171.282051,4212.820512,4500.512820,4202.051282,4631.794871,4000.512820,4067.692307
34,4413.333333,4529.230769,4510.256410,4290.256410,4505.128205,4197.948717,4430.769230,4166.666666,4209.230769,4501.025641,4198.974358,4631.794871,4004.615384,4067.179487
35,4411.794871,4527.179487,4508.717948,4281.538461,4504.102564,4193.333333,4428.205128,4158.974358,4202.051282,4485.641025,4191.794871,4622.564102,4001.025641,4065.641025
36,4410.256410,4517.435897,4503.589743,4272.307692,4501.025641,4183.076923,4427.179487,4153.846153,4195.384615,4471.794871,4183.076923,4615.384615,3987.692308,4064.102564
37,4406.666666,4510.256410,4501.538461,4273.846153,4494.871794,4185.641025,4426.666666,4154.358974,4196.410256,4470.256410,4182.564102,4618.461538,3984.615385,4057.948717
38,4408.205128,4516.923076,4506.666666,4278.461538,4493.333333,4188.717948,4427.692307,4161.538461,4203.076923,4482.051282,4189.743589,4619.487179,3996.410257,4059.487179
39,4409.230769,4520.512820,4509.230769,4278.461538,4491.794871,4183.589743,4425.128205,4164.615384,4204.615384,4492.307692,4188.717948,4618.461538,4004.102564,4066.153846
40,4401.538461,4510.256410,4503.589743,4276.923076,4481.538461,4178.461538,4418.461538,4157.435897,4194.358974,4483.076923,4178.974358,4614.871794,3994.358975,4055.897435
41,4400.000000,4508.717948,4503.076923,4275.897435,4480.512820,4180.000000,4421.025641,4151.282051,4189.230769,4472.820512,4177.948717,4611.282051,3981.538462,4047.179487
42,4409.230769,4521.538461,4511.794871,4277.948717,4494.358974,4187.179487,4428.205128,4154.358974,4199.487179,4476.410256,4186.666666,4617.435897,3984.615385,4057.948717
43,4412.820512,4524.102564,4515.384615,4280.512820,4498.974358,4187.692307,4428.717948,4161.538461,4205.641025,4483.589743,4189.230769,4627.692307,3996.923077,4065.641025
44,4411.282051,4521.538461,4513.846153,4280.512820,4494.358974,4185.128205,4426.153846,4162.051282,4200.000000,4485.128205,4184.615384,4628.717948,4002.051282,4070.769230
45,4415.384615,4524.615384,4518.974358,4281.025641,4490.256410,4185.641025,4425.641025,4156.410256,4195.384615,4483.589743,4184.615384,4626.153846,3995.897436,4075.897435
46,4417.948717,4523.589743,4523.076923,4285.641025,4493.333333,4186.153846,4426.666666,4154.358974,4197.948717,4480.512820,4188.717948,4628.205128,3990.256411,4067.179487
47,4415.384615,4520.512820,4521.538461,4285.128205,4498.461538,4185.641025,4428.717948,4154.871794,4195.384615,4474.358974,4182.564102,4627.179487,3993.333334,4060.512820
48,4413.846153,4523.076923,4517.948717,4279.487179,4501.025641,4187.692307,4428.717948,4156.410256,4193.333333,4473.333333,4180.512820,4626.153846,3997.435898,4067.179487
49,4413.846153,4520.512820,4517.435897,4279.487179,4500.512820,4189.230769,4431.794871,4163.076923,4196.923076,4484.102564,4191.282051,4628.205128,3997.435898,4072.820512
50,4414.358974,4512.820512,4514.871794,4283.076923,4500.512820,4190.256410,4437.948717,4169.230769,4200.000000,4494.871794,4193.846153,4625.641025,3996.410257,4071.794871
51,4412.307692,4515.897435,4512.820512,4282.564102,4501.025641,4191.282051,4440.512820,4168.205128,4205.128205,4493.333333,4185.128205,4624.102564,3994.358975,4066.153846
52,4408.717948,4517.435897,4510.769230,4277.948717,4497.948717,4189.743589,4442.051282,4169.230769,4207.692307,4485.641025,4183.589743,4623.589743,3987.692308,4059.487179
53,4406.666666,4508.717948,4509.230769,4276.410256,4497.948717,4191.282051,4443.589743,4172.307692,4204.615384,4478.974358,4184.615384,4618.461538,3988.717949,4060.000000
54,4408.205128,4508.717948,4514.358974,4281.538461,4495.384615,4197.948717,4445.128205,4173.846153,4206.153846,4481.025641,4182.564102,4618.974358,3993.333334,4068.717948
55,4413.333333,4521.538461,4518.461538,4287.179487,4501.025641,4203.589743,4453.846153,4182.051282,4215.897435,4493.333333,4186.666666,4625.128205,3997.435898,4077.948717
56,4414.871794,4523.589743,4514.358974,4284.102564,4510.769230,4204.615384,4460.000000,4187.179487,4220.000000,4498.461538,4189.230769,4623.076923,4002.564102,4079.487179
57,4407.179487,4509.743589,4504.615384,4276.410256,4497.948717,4201.025641,4449.230769,4177.435897,4208.205128,4488.205128,4180.000000,4614.358974,3995.384616,4071.282051
58,4405.641025,4508.205128,4503.076923,4276.923076,4483.589743,4198.974358,4443.589743,4169.230769,4200.512820,4475.384615,4174.871794,4614.358974,3984.615385,4068.717948
59,4415.384615,4519.487179,4515.897435,4287.692307,4494.871794,4200.512820,4449.743589,4170.769230,4207.179487,4474.871794,4181.538461,4620.512820,3989.230770,4079.487179
60,4421.538461,4524.102564,4521.538461,4292.307692,4514.358974,4201.538461,4449.743589,4172.820512,4210.769230,4488.205128,4184.102564,4625.128205,3996.410257,4080.000000
61,4414.358974,4518.461538,4512.820512,4283.589743,4507.692307,4195.384615,4441.538461,4168.717948,4202.564102,4495.897435,4180.512820,4622.564102,3992.307693,4067.179487
62,4404.102564,4514.871794,4504.102564,4275.384615,4489.743589,4187.179487,4434.871794,4163.589743,4197.435897,4484.102564,4180.000000,4614.871794,3987.692308,4066.666666
63,4405.128205,4520.512820,4507.692307,4280.000000,4488.205128,4185.641025,4436.410256,4162.051282,4202.051282,4478.974358,4186.153846,4617.948717,3991.794872,4077.948717
64,4413.846153,4523.076923,4509.743589,4288.205128,4500.000000,4191.282051,4441.538461,4165.641025,4207.179487,4491.794871,4191.282051,4628.717948,4000.000000,4080.512820
65,4415.897435,4523.589743,4506.153846,4289.230769,4509.743589,4200.512820,4443.589743,4171.282051,4206.666666,4492.307692,4191.282051,4631.794871,4007.692307,4076.410256
66,4411.282051,4531.794871,4508.717948,4289.230769,4505.128205,4203.076923,4445.128205,4171.794871,4209.743589,4481.025641,4193.846153,4628.717948,4010.256410,4075.897435
67,4410.256410,4536.923076,4508.205128,4292.307692,4501.538461,4199.487179,4446.666666,4168.717948,4213.333333,4481.538461,4199.487179,4628.205128,4011.794871,4071.794871
68,4414.358974,4534.871794,4506.153846,4295.384615,4506.153846,4202.051282,4444.615384,4167.179487,4208.717948,4486.153846,4202.564102,4629.743589,4010.256410,4069.743589
69,4415.897435,4532.820512,4508.717948,4296.923076,4505.128205,4202.564102,4445.128205,4167.692307,4203.076923,4481.538461,4201.538461,4633.846153,4005.128205,4074.871794
70,4414.358974,4532.307692,4510.769230,4294.358974,4497.435897,4193.846153,4443.076923,4160.512820,4205.128205,4475.384615,4197.948717,4634.871794,4002.051282,4074.871794
71,4407.692307,4527.179487,4504.102564,4286.153846,4498.974358,4184.102564,4430.256410,4153.333333,4201.025641,4477.435897,4192.307692,4625.641025,3996.410257,4064.615384
72,4397.948717,4518.974358,4498.974358,4277.435897,4501.538461,4184.102564,4431.794871,4157.948717,4196.410256,4481.538461,4188.717948,4619.487179,3992.820513,4053.846153
73,4394.871794,4518.461538,4498.461538,4278.461538,4494.358974,4187.179487,4443.589743,4160.512820,4202.564102,4482.564102,4189.230769,4623.076923,3993.333334,4047.179487
74,4401.538461,4527.179487,4499.487179,4284.102564,4498.461538,4186.666666,4445.128205,4163.076923,4205.128205,4481.025641,4193.846153,4627.692307,3991.794872,4048.205128
75,4404.615384,4533.333333,4502.564102,4285.128205,4499.487179,4186.153846,4440.000000,4165.641025,4202.051282,4475.897435,4196.410256,4626.666666,3990.769231,4052.820512
76,4398.461538,4527.179487,4500.000000,4281.025641,4481.538461,4184.615384,4433.846153,4164.615384,4201.538461,4472.820512,4191.282051,4620.512820,3991.282052,4049.743589
77,4394.358974,4523.076923,4491.794871,4277.435897,4479.487179,4183.589743,4430.769230,4163.076923,4204.102564,4476.923076,4185.128205,4615.384615,3990.256411,4038.461538
78,4391.282051,4525.641025,4490.256410,4280.000000,4495.897435,4186.153846,4434.871794,4161.538461,4206.666666,4479.487179,4188.717948,4617.435897,3988.717949,4034.871794
79,4389.743589,4524.102564,4492.820512,4281.538461,4496.410256,4187.179487,4434.871794,4161.538461,4204.102564,4471.282051,4193.333333,4623.076923,3987.179488,4039.487179
80,4392.820512,4520.512820,4494.358974,4276.923076,4488.205128,4185.641025,4427.179487,4161.538461,4198.974358,4471.282051,4187.692307,4623.589743,3983.076924,4040.000000
81,4396.410256,4520.000000,4499.487179,4276.923076,4491.282051,4184.102564,4429.230769,4160.000000,4198.461538,4476.923076,4186.666666,4626.153846,3982.051283,4036.923076
82,4396.410256,4526.666666,4506.153846,4288.205128,4497.948717,4187.179487,4440.000000,4159.487179,4200.512820,4472.307692,4195.897435,4630.769230,3984.615385,4038.974358
83,4395.897435,4533.333333,4507.692307,4292.307692,4507.179487,4189.743589,4441.538461,4162.051282,4198.974358,4471.794871,4199.487179,4628.717948,3988.717949,4041.538461
84,4392.307692,4527.179487,4501.025641,4281.025641,4506.153846,4186.666666,4434.871794,4157.948717,4196.410256,4476.923076,4188.717948,4622.564102,3990.256411,4038.461538
85,4384.615384,4520.000000,4494.871794,4274.871794,4489.743589,4182.564102,4429.743589,4150.256410,4195.897435,4473.846153,4182.564102,4616.923076,3984.615385,4031.794871
86,4387.179487,4522.564102,4498.461538,4278.974358,4488.717948,4185.128205,4429.743589,4155.384615,4196.923076,4477.948717,4189.230769,4619.487179,3980.512821,4028.717948
87,4393.846153,4524.102564,4502.051282,4281.538461,4499.487179,4186.666666,4431.794871,4159.487179,4198.461538,4478.461538,4188.717948,4622.564102,3980.000000,4025.128205
88,4388.717948,4522.564102,4498.974358,4281.025641,4495.384615,4185.128205,4433.846153,4155.384615,4200.512820,4457.948717,4181.538461,4620.512820,3978.461539,4022.051282
89,4385.641025,4524.102564,4496.410256,4281.025641,4487.692307,4186.153846,4434.358974,4156.923076,4200.000000,4457.435897,4186.666666,4621.538461,3982.051283,4026.153846
90,4392.820512,4523.589743,4501.025641,4280.000000,4490.256410,4186.666666,4433.846153,4163.589743,4199.487179,4479.487179,4195.897435,4627.179487,3982.051283,4032.820512
91,4397.435897,4524.102564,4504.615384,4280.000000,4494.871794,4186.153846,4438.974358,4163.076923,4201.538461,4484.615384,4190.769230,4629.743589,3977.948718,4031.794871
92,4395.897435,4528.205128,4505.128205,4278.974358,4503.589743,4187.179487,4444.102564,4155.384615,4201.538461,4478.974358,4183.589743,4627.179487,3984.102565,4031.282051
93,4394.871794,4525.641025,4504.102564,4276.410256,4506.153846,4186.666666,4442.051282,4154.358974,4200.512820,4482.051282,4185.641025,4622.051282,3987.692308,4032.307692
94,4393.333333,4525.128205,4501.538461,4278.461538,4496.923076,4186.666666,4438.974358,4160.512820,4204.615384,4481.025641,4190.769230,4618.461538,3980.512821,4026.666666
95,4394.358974,4531.794871,4501.025641,4284.615384,4498.461538,4188.717948,4441.025641,4167.692307,4210.769230,4478.974358,4195.384615,4623.589743,3982.564103,4029.743589
96,4398.974358,4532.307692,4504.615384,4287.179487,4512.820512,4191.282051,4445.128205,4171.794871,4217.435897,4492.820512,4201.025641,4631.282051,3996.923077,4042.564102
97,4398.461538,4524.615384,4508.205128,4282.051282,4513.333333,4191.282051,4442.051282,4172.307692,4218.461538,4498.461538,4204.102564,4629.230769,3996.410257,4040.512820
98,4395.384615,4521.538461,4504.615384,4277.948717,4501.025641,4184.615384,4431.794871,4167.179487,4206.666666,4478.974358,4198.461538,4623.076923,3984.102565,4029.230769
99,4390.256410,4520.000000,4499.487179,4277.435897,4488.717948,4176.410256,4425.128205,4158.974358,4195.384615,4469.743589,4189.230769,4620.000000,3978.461539,4027.179487
100,4388.205128,4520.000000,4500.512820,4277.948717,4491.282051,4178.461538,4427.179487,4156.410256,4195.897435,4484.102564,4191.282051,4624.615384,3982.051283,4032.820512
101,4395.897435,4525.641025,4506.153846,4280.512820,4507.692307,4185.641025,4433.333333,4162.051282,4201.538461,4489.230769,4201.538461,4632.820512,3990.769231,4037.435897
102,4403.076923,4525.641025,4509.743589,4282.564102,4507.179487,4186.153846,4434.358974,4167.692307,4205.128205,4477.948717,4201.025641,4634.358974,3996.410257,4044.102564
103,4402.051282,4522.051282,4508.205128,4278.974358,4487.692307,4180.000000,4429.743589,4165.641025,4206.153846,4481.538461,4196.410256,4633.333333,3994.871795,4047.692307
104,4400.000000,4525.641025,4507.692307,4276.923076,4486.666666,4177.948717,4425.128205,4160.512820,4201.538461,4493.333333,4201.025641,4632.820512,3993.333334,4047.179487
105,4397.948717,4526.153846,4506.666666,4278.974358,4499.487179,4181.025641,4425.641025,4157.948717,4197.948717,4488.717948,4201.538461,4626.153846,3992.307693,4042.564102
106,4393.333333,4523.076923,4505.128205,4280.512820,4496.923076,4184.102564,4426.153846,4156.923076,4201.538461,4476.410256,4191.794871,4621.025641,3990.256411,4035.384615
107,4392.307692,4524.102564,4505.128205,4280.512820,4493.333333,4182.564102,4424.615384,4160.000000,4203.589743,4477.435897,4191.282051,4625.128205,3987.692308,4030.769230
108,4391.794871,4518.974358,4504.615384,4275.897435,4497.435897,4181.538461,4425.128205,4162.564102,4199.487179,4481.538461,4198.461538,4626.666666,3989.743590,4034.871794
109,4389.743589,4510.769230,4504.615384,4274.871794,4498.974358,4183.589743,4427.179487,4163.589743,4201.025641,4478.974358,4198.974358,4624.102564,3992.307693,4040.000000
110,4392.307692,4517.948717,4504.615384,4280.000000,4498.461538,4183.076923,4424.102564,4164.615384,4208.717948,4482.051282,4197.948717,4627.692307,3988.205129,4036.410256
111,4395.897435,4525.641025,4506.153846,4282.051282,4498.461538,4185.128205,4424.615384,4167.692307,4208.205128,4491.794871,4197.948717,4631.282051,3985.128206,4032.307692
112,4400.512820,4527.692307,4509.743589,4285.128205,4502.564102,4188.717948,4437.948717,4171.794871,4208.205128,4494.358974,4194.358974,4632.820512,3993.333334,4039.487179
113,4403.076923,4530.256410,4508.717948,4286.153846,4500.000000,4187.692307,4442.564102,4170.256410,4212.820512,4490.256410,4186.666666,4632.820512,3996.923077,4046.153846
114,4400.000000,4525.641025,4503.076923,4281.025641,4482.051282,4183.076923,4430.256410,4161.538461,4206.153846,4482.564102,4183.076923,4624.102564,3983.589744,4040.512820
115,4398.461538,4525.641025,4502.051282,4283.589743,4477.948717,4183.589743,4430.256410,4160.000000,4197.948717,4473.846153,4188.205128,4620.000000,3975.384616,4033.846153
116,4400.512820,4533.333333,4507.179487,4290.256410,4502.051282,4189.743589,4444.102564,4166.666666,4202.564102,4474.871794,4193.846153,4623.589743,3983.589744,4037.435897
117,4397.948717,4529.230769,4507.692307,4284.102564,4515.384615,4190.256410,4445.641025,4165.128205,4205.641025,4483.076923,4188.717948,4622.051282,3987.692308,4042.051282
118,4392.307692,4518.974358,4502.564102,4276.410256,4500.512820,4186.153846,4437.948717,4158.974358,4198.974358,4479.487179,4181.538461,4615.897435,3980.000000,4035.384615
119,4392.307692,4522.564102,4502.051282,4278.974358,4494.358974,4186.153846,4433.333333,4159.487179,4199.487179,4477.435897,4184.615384,4615.384615,3977.435898,4029.743589
120,4394.358974,4525.128205,4505.128205,4281.025641,4501.538461,4186.666666,4430.256410,4156.923076,4200.000000,4486.153846,4185.641025,4617.435897,3981.025642,4034.871794
121,4396.410256,4520.000000,4507.692307,4280.512820,4503.076923,4185.641025,4430.769230,4152.820512,4198.461538,4486.666666,4182.564102,4620.000000,3978.974359,4040.512820
122,4402.564102,4525.128205,4509.230769,4288.205128,4497.948717,4186.666666,4432.820512,4160.000000,4203.589743,4477.948717,4190.256410,4629.230769,3982.051283,4048.205128
123,4408.205128,4530.256410,4512.820512,4292.820512,4484.102564,4185.128205,4430.256410,4166.666666,4204.615384,4475.897435,4198.461538,4634.871794,3987.692308,4056.410256
124,4404.615384,4523.589743,4509.743589,4285.128205,4475.384615,4180.512820,4426.666666,4158.461538,4196.410256,4477.948717,4188.717948,4631.282051,3984.102565,4051.282051
125,4401.025641,4524.615384,4505.641025,4282.051282,4482.051282,4180.000000,4427.179487,4154.358974,4193.333333,4480.512820,4182.051282,4627.179487,3981.538462,4045.641025
126,4409.230769,4533.333333,4516.923076,4291.282051,4494.358974,4185.128205,4430.256410,4162.051282,4201.025641,4484.615384,4198.461538,4633.333333,3990.256411,4057.948717
127,4415.897435,4535.897435,4521.538461,4297.948717,4502.051282,4187.692307,4429.743589,4167.692307,4206.666666,4486.153846,4208.717948,4643.076923,3997.435898,4065.128205
128,4411.282051,4532.820512,4512.820512,4292.307692,4499.487179,4183.076923,4426.153846,4161.025641,4206.666666,4485.128205,4201.025641,4640.000000,3996.410257,4056.410256
129,4408.205128,4529.743589,4513.846153,4284.102564,4495.897435,4181.538461,4426.153846,4157.435897,4205.641025,4490.769230,4201.025641,4633.846153,3994.871795,4056.923076
130,4409.743589,4524.102564,4517.948717,4282.051282,4497.435897,4188.205128,4429.743589,4160.000000,4204.102564,4494.358974,4205.128205,4635.384615,3993.333334,4067.179487
131,4407.692307,4520.000000,4514.358974,4281.538461,4487.692307,4185.641025,4428.717948,4158.461538,4200.512820,4489.230769,4195.897435,4635.384615,3992.307693,4065.128205
132,4405.128205,4521.538461,4511.794871,4278.974358,4471.794871,4174.871794,4423.076923,4153.846153,4198.461538,4482.051282,4187.692307,4630.769230,3989.230770,4058.974358
133,4408.205128,4522.564102,4513.333333,4278.974358,4485.641025,4179.487179,4425.128205,4157.948717,4203.589743,4484.102564,4194.871794,4634.871794,3991.794872,4065.128205
134,4412.307692,4525.128205,4516.410256,4282.564102,4507.692307,4189.230769,4431.282051,4170.256410,4208.205128,4495.897435,4202.564102,4641.538461,4001.025641,4070.769230
135,4411.282051,4528.205128,4519.487179,4287.692307,4494.358974,4186.666666,4429.743589,4171.794871,4210.256410,4494.871794,4203.076923,4637.948717,3999.487180,4069.743589
136,4409.230769,4526.153846,4512.307692,4290.256410,4478.974358,4182.051282,4426.666666,4164.615384,4209.230769,4485.128205,4198.461538,4632.307692,3990.769231,4066.666666
137,4411.282051,4528.717948,4504.615384,4288.205128,4496.410256,4186.153846,4430.769230,4161.025641,4204.615384,4486.153846,4191.794871,4632.307692,3993.846154,4063.076923
138,4414.358974,4535.897435,4510.256410,4288.205128,4510.256410,4189.743589,4433.846153,4158.974358,4202.051282,4494.358974,4192.307692,4630.769230,3998.461539,4067.179487
139,4410.769230,4534.871794,4510.256410,4286.666666,4496.923076,4186.153846,4428.717948,4153.846153,4199.487179,4490.256410,4192.307692,4625.128205,3988.717949,4068.717948
140,4405.128205,4523.076923,4505.641025,4285.128205,4483.589743,4181.538461,4424.615384,4152.307692,4194.358974,4480.512820,4188.205128,4626.153846,3978.974359,4059.487179
141,4407.179487,4520.000000,4511.282051,4289.230769,4487.692307,4182.564102,4427.179487,4156.410256,4194.871794,4483.076923,4188.205128,4631.282051,3983.589744,4054.358974
142,4412.820512,4525.641025,4520.000000,4290.769230,4496.410256,4186.666666,4429.230769,4161.025641,4202.051282,4493.333333,4191.282051,4634.871794,3993.846154,4063.589743
143,4412.820512,4524.102564,4521.538461,4286.153846,4493.333333,4186.666666,4432.307692,4166.666666,4203.076923,4492.307692,4195.897435,4638.461538,3995.897436,4071.282051
144,4409.743589,4518.974358,4521.538461,4282.051282,4487.179487,4184.615384,4438.461538,4167.179487,4200.512820,4480.512820,4198.974358,4639.487179,3987.692308,4069.743589
145,4408.205128,4517.948717,4519.487179,4284.615384,4485.641025,4184.615384,4439.487179,4167.179487,4201.538461,4481.538461,4192.307692,4634.871794,3984.102565,4070.769230
146,4408.205128,4519.487179,4514.358974,4288.205128,4484.102564,4184.615384,4430.256410,4165.641025,4201.025641,4489.230769,4185.641025,4631.794871,3989.230770,4070.769230
147,4408.717948,4522.564102,4516.410256,4288.205128,4489.230769,4185.128205,4426.153846,4160.512820,4197.435897,4485.641025,4190.769230,4634.358974,3993.333334,4068.717948
148,4407.692307,4522.564102,4522.564102,4287.179487,4494.358974,4187.179487,4428.205128,4158.974358,4196.410256,4484.102564,4191.794871,4634.871794,3991.282052,4068.717948
149,4408.205128,4523.076923,4521.025641,4291.794871,4489.743589,4184.615384,4427.179487,4160.512820,4195.384615,4484.615384,4185.128205,4632.820512,3988.717949,4074.871794
150,4413.333333,4524.102564,4520.000000,4293.846153,4490.256410,4186.153846,4429.230769,4161.025641,4195.897435,4482.051282,4188.717948,4632.307692,3991.794872,4078.974358
151,4412.820512,4523.589743,4523.589743,4291.794871,4507.692307,4196.410256,4438.974358,4164.615384,4202.564102,4489.230769,4196.410256,4635.897435,3995.897436,4076.410256
152,4411.282051,4523.076923,4523.589743,4294.871794,4508.717948,4199.487179,4443.076923,4172.307692,4208.205128,4499.487179,4202.564102,4644.102564,4000.512820,4082.051282
153,4421.538461,4523.589743,4525.128205,4296.923076,4489.743589,4195.384615,4441.538461,4173.333333,4213.333333,4497.948717,4210.769230,4650.256410,4003.589743,4091.794871
154,4430.256410,4523.076923,4529.743589,4294.358974,4491.282051,4196.410256,4442.051282,4170.769230,4216.923076,4495.897435,4213.846153,4651.794871,4002.564102,4095.384615
155,4421.025641,4521.538461,4524.615384,4290.769230,4493.333333,4191.282051,4438.974358,4166.153846,4206.153846,4497.435897,4201.538461,4642.564102,3996.923077,4088.717948
156,4410.256410,4520.512820,4512.307692,4288.205128,4478.974358,4181.025641,4428.717948,4153.846153,4190.256410,4490.256410,4184.615384,4625.641025,3988.205129,4074.871794
157,4409.743589,4516.923076,4506.153846,4289.230769,4482.051282,4183.589743,4426.153846,4150.769230,4186.666666,4482.564102,4178.461538,4615.384615,3981.025642,4068.717948
158,4410.256410,4514.871794,4505.641025,4288.205128,4497.435897,4191.794871,4431.282051,4156.923076,4194.358974,4474.871794,4178.974358,4616.410256,3978.974359,4071.282051
159,4407.179487,4512.820512,4503.076923,4281.538461,4494.358974,4183.589743,4429.230769,4156.410256,4194.871794,4472.820512,4181.025641,4616.410256,3982.051283,4066.666666
160,4405.641025,4511.282051,4503.076923,4278.461538,4487.692307,4173.846153,4420.000000,4151.282051,4190.769230,4474.871794,4184.102564,4614.358974,3986.666667,4061.025641
161,4408.717948,4517.948717,4505.641025,4285.641025,4488.717948,4178.461538,4421.025641,4151.794871,4189.743589,4470.769230,4184.102564,4617.435897,3990.256411,4070.256410
162,4412.307692,4519.487179,4510.769230,4288.717948,4490.256410,4187.179487,4428.717948,4154.871794,4189.743589,4474.871794,4183.076923,4620.000000,3989.743590,4078.461538
163,4412.820512,4514.871794,4518.974358,4285.641025,4492.820512,4186.666666,4428.717948,4154.358974,4192.820512,4485.641025,4184.615384,4619.487179,3986.666667,4077.948717
164,4412.820512,4512.820512,4523.589743,4286.153846,4482.564102,4181.025641,4423.076923,4151.282051,4193.846153,4480.000000,4186.153846,4625.641025,3988.205129,4082.051282
165,4418.974358,4517.435897,4523.589743,4293.333333,4475.384615,4183.589743,4423.589743,4155.384615,4193.333333,4474.358974,4190.769230,4633.846153,3996.410257,4093.846153
166,4426.153846,4522.564102,4525.128205,4295.897435,4482.051282,4186.666666,4425.128205,4163.076923,4193.846153,4488.205128,4196.923076,4636.923076,4001.538461,4095.897435
167,4422.051282,4520.000000,4525.128205,4293.333333,4477.948717,4178.974358,4419.487179,4158.461538,4194.358974,4490.769230,4193.333333,4634.358974,4000.512820,4084.615384
168,4420.000000,4517.435897,4523.076923,4294.358974,4478.974358,4177.435897,4419.487179,4154.871794,4194.871794,4482.051282,4189.743589,4632.820512,4002.051282,4088.717948
169,4425.128205,4521.025641,4525.641025,4297.435897,4495.384615,4186.153846,4426.666666,4166.153846,4197.435897,4479.487179,4196.410256,4636.923076,4005.641025,4101.538461
170,4425.128205,4522.051282,4528.717948,4297.948717,4501.025641,4191.282051,4434.871794,4172.820512,4201.025641,4479.487179,4204.102564,4641.538461,4007.179487,4100.000000
171,4423.589743,4517.948717,4526.666666,4296.923076,4498.974358,4192.820512,4436.410256,4169.743589,4206.666666,4488.717948,4204.615384,4642.564102,4006.153846,4099.487179
172,4423.076923,4518.461538,4525.128205,4292.307692,4493.846153,4193.333333,4432.820512,4172.820512,4211.794871,4502.051282,4205.128205,4640.512820,4008.717948,4107.692307
173,4417.948717,4513.333333,4524.102564,4286.153846,4477.948717,4186.666666,4426.666666,4176.923076,4209.743589,4503.589743,4203.076923,4637.948717,4010.769230,4100.512820
174,4413.846153,4502.564102,4522.051282,4281.025641,4474.358974,4182.564102,4426.666666,4172.307692,4206.153846,4497.948717,4197.435897,4634.358974,4009.230769,4091.794871
175,4416.410256,4505.128205,4522.051282,4279.487179,4492.820512,4189.230769,4434.871794,4171.282051,4210.256410,4497.435897,4198.974358,4631.794871,4004.102564,4100.000000
176,4414.871794,4510.769230,4518.461538,4282.564102,4497.435897,4190.769230,4436.410256,4174.358974,4206.666666,4496.923076,4200.000000,4631.794871,3996.923077,4106.153846
177,4410.256410,4506.666666,4514.871794,4284.615384,4482.051282,4185.641025,4428.717948,4169.230769,4200.000000,4485.128205,4189.743589,4625.641025,3992.820513,4100.512820
178,4411.282051,4504.615384,4513.846153,4283.076923,4475.384615,4183.076923,4424.102564,4162.564102,4200.512820,4472.307692,4181.538461,4618.461538,3992.820513,4091.794871
179,4414.358974,4514.871794,4517.435897,4287.179487,4487.692307,4186.153846,4426.666666,4166.666666,4202.051282,4477.948717,4187.692307,4622.564102,3994.871795,4090.256410
180,4417.435897,4523.589743,4522.564102,4291.282051,4502.564102,4191.282051,4430.769230,4168.717948,4197.948717,4492.307692,4191.282051,4629.230769,3992.820513,4093.846153
181,4411.282051,4514.871794,4514.871794,4285.128205,4495.897435,4189.743589,4427.692307,4158.461538,4189.230769,4478.974358,4178.461538,4621.025641,3982.564103,4086.666666
182,4395.384615,4504.102564,4496.410256,4275.897435,4474.871794,4181.025641,4415.897435,4145.641025,4176.923076,4456.410256,4163.076923,4603.076923,3971.282052,4072.307692
183,4389.743589,4506.153846,4489.230769,4270.769230,4470.256410,4176.410256,4411.282051,4144.615384,4174.871794,4457.435897,4160.512820,4601.538461,3971.282052,4067.692307
184,4398.974358,4508.717948,4497.435897,4267.179487,4482.564102,4181.538461,4421.538461,4150.256410,4181.538461,4464.615384,4170.256410,4613.846153,3977.435898,4069.743589
185,4404.615384,4507.692307,4506.153846,4265.128205,4489.230769,4185.128205,4427.692307,4152.820512,4185.128205,4470.769230,4180.000000,4619.487179,3983.076924,4073.846153
186,4400.512820,4513.333333,4502.564102,4267.179487,4489.230769,4186.666666,4425.641025,4155.897435,4187.692307,4477.435897,4181.025641,4618.974358,3985.641026,4078.974358
187,4396.923076,4520.000000,4496.923076,4268.205128,4495.384615,4195.384615,4429.230769,4166.153846,4196.410256,4476.923076,4182.564102,4622.564102,3987.179488,4074.871794
188,4398.461538,4520.512820,4500.512820,4269.230769,4500.512820,4200.512820,4435.384615,4173.846153,4202.564102,4475.897435,4188.717948,4627.692307,3991.282052,4071.794871
189,4399.487179,4522.051282,4502.051282,4271.794871,4491.282051,4195.897435,4433.333333,4171.794871,4201.538461,4479.487179,4188.205128,4627.179487,3990.256411,4075.384615
190,4395.384615,4524.615384,4494.358974,4272.820512,4487.179487,4194.358974,4430.256410,4166.666666,4196.923076,4473.333333,4185.128205,4624.102564,3988.205129,4072.820512
191,4386.153846,4521.025641,4490.256410,4267.692307,4494.358974,4192.307692,4429.743589,4164.615384,4190.769230,4464.615384,4186.153846,4619.487179,3989.743590,4067.692307
192,4382.051282,4518.974358,4490.769230,4260.000000,4491.282051,4184.615384,4424.615384,4162.564102,4188.717948,4469.230769,4185.641025,4616.410256,3988.205129,4064.102564
193,4383.589743,4520.000000,4487.692307,4261.025641,4476.923076,4181.538461,4419.487179,4156.923076,4188.717948,4472.820512,4184.615384,4617.948717,3984.102565,4056.410256
194,4380.000000,4517.948717,4488.205128,4264.102564,4475.897435,4183.589743,4421.538461,4154.871794,4188.205128,4469.743589,4182.051282,4615.384615,3983.589744,4050.256410
195,4375.897435,4512.307692,4490.256410,4259.487179,4483.076923,4182.051282,4426.666666,4162.564102,4193.333333,4468.717948,4182.051282,4613.846153,3987.179488,4056.410256
196,4386.666666,4512.307692,4491.282051,4253.846153,4490.769230,4186.153846,4428.717948,4171.794871,4202.051282,4479.487179,4190.769230,4621.025641,3990.256411,4065.641025
197,4395.897435,4521.025641,4496.923076,4255.897435,4500.000000,4193.846153,4430.256410,4177.948717,4208.717948,4491.282051,4200.512820,4631.282051,3994.358975,4065.641025
198,4388.717948,4523.076923,4494.871794,4262.051282,4496.410256,4192.307692,4429.230769,4177.948717,4206.153846,4486.666666,4201.538461,4631.794871,3996.410257,4060.512820
199,4386.153846,4523.589743,4490.769230,4265.128205,4486.153846,4184.102564,4424.615384,4171.794871,4203.076923,4472.820512,4198.461538,4627.692307,3998.461539,4060.000000
200,4395.897435,4531.282051,4500.512820,4267.692307,4493.846153,4184.102564,4424.615384,4170.769230,4208.717948,4476.923076,4203.076923,4631.282051,4001.538461,4064.102564
201,4398.461538,4532.307692,4508.717948,4269.743589,4500.512820,4188.717948,4426.153846,4172.820512,4210.256410,4492.307692,4205.641025,4635.897435,4000.000000,4065.128205
202,4393.333333,4524.102564,4500.000000,4266.153846,4486.666666,4186.153846,4419.487179,4166.666666,4201.025641,4492.820512,4201.025641,4633.333333,3996.923077,4060.512820
203,4388.717948,4521.538461,4490.256410,4262.051282,4484.615384,4184.102564,4411.282051,4164.102564,4199.487179,4488.205128,4197.435897,4625.128205,3997.435898,4054.358974
204,4388.205128,4526.666666,4490.769230,4261.025641,4498.461538,4187.179487,4417.435897,4169.230769,4204.615384,4491.794871,4201.538461,4623.589743,4003.589743,4053.846153
205,4391.794871,4528.205128,4497.435897,4261.538461,4490.256410,4187.179487,4426.666666,4170.256410,4203.589743,4491.282051,4202.051282,4628.717948,4003.076923,4062.564102
206,4394.358974,4526.666666,4503.589743,4264.102564,4477.435897,4186.153846,4425.128205,4169.230769,4202.564102,4482.051282,4192.820512,4627.692307,3994.871795,4063.076923
207,4392.820512,4524.102564,4501.025641,4266.666666,4488.717948,4187.179487,4425.641025,4171.794871,4203.589743,4481.025641,4191.794871,4623.076923,3990.769231,4051.794871
208,4388.205128,4524.102564,4491.794871,4262.051282,4500.512820,4188.205128,4427.692307,4170.256410,4201.025641,4477.948717,4193.846153,4622.564102,3985.641026,4048.205128
209,4381.025641,4525.128205,4490.769230,4258.974358,4497.435897,4185.641025,4423.076923,4157.948717,4191.282051,4468.205128,4187.179487,4621.025641,3980.000000,4049.230769
210,4377.435897,4521.538461,4492.820512,4261.025641,4484.102564,4183.076923,4417.948717,4149.743589,4183.589743,4463.589743,4181.025641,4615.897435,3979.487180,4046.153846
211,4378.974358,4520.512820,4490.769230,4259.487179,4472.820512,4183.076923,4415.897435,4148.717948,4181.538461,4462.564102,4182.051282,4615.384615,3981.025642,4038.974358
212,4379.487179,4520.512820,4489.743589,4257.435897,4481.025641,4182.564102,4412.820512,4149.230769,4183.589743,4464.102564,4183.076923,4618.974358,3980.512821,4035.384615
213,4377.435897,4517.948717,4490.256410,4253.846153,4493.846153,4182.564102,4410.256410,4156.410256,4189.743589,4470.256410,4184.615384,4618.974358,3982.051283,4038.974358
214,4381.025641,4519.487179,4490.769230,4252.307692,4484.102564,4183.076923,4414.358974,4169.230769,4198.461538,4480.512820,4193.846153,4623.589743,3988.205129,4049.230769
215,4387.692307,4523.589743,4495.897435,4256.923076,4475.384615,4183.076923,4421.025641,4173.846153,4208.717948,4491.794871,4201.538461,4631.794871,3993.846154,4055.384615
216,4391.794871,4526.153846,4503.589743,4260.512820,4490.769230,4184.102564,4422.051282,4171.282051,4210.769230,4489.230769,4201.538461,4636.410256,3997.948718,4055.897435
217,4390.769230,4523.076923,4506.153846,4258.974358,4498.461538,4185.128205,4416.410256,4171.282051,4202.051282,4472.307692,4200.512820,4633.846153,3991.282052,4058.461538
218,4388.717948,4521.538461,4505.641025,4259.487179,4487.179487,4185.641025,4417.948717,4166.666666,4196.410256,4465.641025,4198.461538,4630.256410,3980.512821,4057.948717
219,4389.230769,4523.076923,4505.128205,4264.615384,4480.512820,4186.153846,4424.102564,4163.076923,4201.025641,4476.410256,4195.897435,4633.333333,3984.102565,4050.769230
220,4388.205128,4523.076923,4498.974358,4258.974358,4484.615384,4185.128205,4417.948717,4162.564102,4200.000000,4482.564102,4193.846153,4629.743589,3984.615385,4042.051282
221,4383.589743,4520.512820,4489.743589,4248.717948,4491.282051,4183.589743,4410.256410,4156.923076,4195.897435,4478.974358,4187.179487,4617.948717,3975.384616,4040.000000
222,4383.589743,4521.538461,4488.205128,4247.179487,4492.820512,4183.589743,4410.769230,4156.923076,4198.974358,4469.743589,4185.641025,4616.410256,3977.948718,4046.153846
223,4390.256410,4522.051282,4495.897435,4251.794871,4484.102564,4183.076923,4411.282051,4164.102564,4200.000000,4466.666666,4193.846153,4626.666666,3993.846154,4053.333333
224,4397.948717,4522.051282,4503.076923,4255.384615,4477.948717,4183.589743,4414.871794,4169.230769,4204.615384,4483.076923,4202.051282,4634.871794,4003.589743,4061.538461
225,4404.102564,4532.820512,4509.743589,4259.487179,4491.794871,4192.820512,4425.128205,4174.358974,4216.410256,4498.461538,4210.256410,4643.589743,4006.666666,4070.769230
226,4408.717948,4537.435897,4518.461538,4267.692307,4505.128205,4197.435897,4429.230769,4179.487179,4219.487179,4499.487179,4213.333333,4650.256410,4011.282051,4074.358974
227,4408.205128,4533.846153,4520.000000,4267.692307,4497.948717,4197.948717,4427.692307,4174.871794,4213.333333,4495.384615,4206.666666,4642.564102,4009.230769,4069.230769
228,4398.974358,4530.769230,4512.307692,4263.589743,4491.282051,4195.897435,4429.230769,4169.743589,4212.307692,4482.564102,4202.051282,4633.333333,4000.000000,4063.076923
229,4389.743589,4528.205128,4508.205128,4265.128205,4491.794871,4190.256410,4428.717948,4172.307692,4209.230769,4480.000000,4203.076923,4631.794871,3992.307693,4058.461538
230,4389.230769,4527.692307,4509.743589,4264.615384,4492.820512,4189.230769,4426.666666,4171.282051,4202.564102,4489.743589,4199.487179,4630.256410,3990.256411,4054.358974
231,4395.384615,4527.692307,4507.179487,4261.025641,4496.410256,4190.769230,4425.641025,4165.128205,4199.487179,4484.102564,4195.897435,4628.205128,3991.282052,4052.307692
232,4396.923076,4525.641025,4504.102564,4261.025641,4494.358974,4188.205128,4425.128205,4164.102564,4202.051282,4474.871794,4195.897435,4626.153846,3991.282052,4054.358974
233,4394.358974,4529.230769,4507.692307,4264.102564,4490.256410,4186.666666,4426.153846,4165.128205,4207.692307,4485.128205,4197.435897,4627.692307,3995.384616,4060.000000
234,4398.461538,4534.358974,4509.743589,4264.615384,4486.666666,4189.743589,4422.564102,4161.538461,4208.205128,4487.179487,4202.051282,4630.769230,3995.897436,4061.538461
235,4398.461538,4526.666666,4506.666666,4261.025641,4480.512820,4186.153846,4416.410256,4153.333333,4200.000000,4471.794871,4201.025641,4631.794871,3992.307693,4057.435897
236,4393.846153,4519.487179,4509.230769,4260.512820,4480.512820,4181.025641,4420.000000,4151.282051,4195.384615,4470.769230,4197.435897,4632.307692,3995.384616,4058.974358
237,4400.000000,4528.205128,4516.923076,4263.076923,4496.410256,4191.794871,4429.743589,4160.000000,4202.051282,4483.589743,4202.051282,4634.871794,4004.615384,4070.769230
238,4408.205128,4537.948717,4514.871794,4263.076923,4503.589743,4198.974358,4431.794871,4168.717948,4209.230769,4493.846153,4207.179487,4633.846153,4006.666666,4075.384615
239,4402.051282,4536.923076,4508.205128,4262.564102,4495.897435,4194.358974,4429.230769,4171.282051,4207.179487,4491.282051,4204.615384,4631.794871,3998.461539,4067.692307
240,4392.820512,4527.179487,4507.179487,4265.128205,4492.820512,4192.307692,4431.282051,4171.282051,4208.205128,4483.589743,4203.076923,4632.307692,3992.820513,4063.589743
241,4388.717948,4517.948717,4505.641025,4260.000000,4490.256410,4191.282051,4431.282051,4168.205128,4209.743589,4480.512820,4197.948717,4624.102564,3991.794872,4062.051282
242,4388.717948,4517.948717,4503.589743,4252.820512,4488.205128,4187.692307,4427.692307,4163.589743,4204.102564,4478.974358,4190.769230,4615.897435,3991.282052,4061.538461
243,4391.794871,4521.025641,4507.179487,4257.435897,4496.923076,4192.820512,4430.769230,4165.128205,4205.128205,4484.102564,4194.358974,4623.076923,3992.307693,4064.615384
244,4395.897435,4523.589743,4513.846153,4264.102564,4503.076923,4203.589743,4440.000000,4169.230769,4213.333333,4491.282051,4201.538461,4637.948717,3998.461539,4069.230769
245,4404.102564,4531.794871,4521.538461,4267.692307,4501.538461,4204.615384,4443.589743,4175.384615,4212.820512,4486.153846,4206.153846,4645.128205,4008.717948,4076.923076
246,4410.256410,4537.435897,4525.128205,4269.230769,4500.000000,4200.512820,4443.076923,4182.051282,4211.282051,4485.641025,4210.256410,4641.025641,4007.179487,4083.076923
247,4406.153846,4524.615384,4521.538461,4258.974358,4493.333333,4201.538461,4441.538461,4176.923076,4216.923076,4496.410256,4207.692307,4634.358974,3995.384616,4077.948717
248,4403.076923,4507.692307,4519.487179,4251.282051,4483.589743,4198.461538,4432.820512,4168.717948,4214.871794,4497.948717,4202.564102,4632.307692,3994.871795,4070.256410
249,4407.179487,4503.589743,4522.564102,4260.000000,4488.205128,4191.282051,4426.666666,4171.794871,4209.743589,4490.256410,4197.948717,4632.820512,4003.589743,4072.820512
250,4404.615384,4500.000000,4522.564102,4266.666666,4492.820512,4186.666666,4426.666666,4173.846153,4206.153846,4486.666666,4192.820512,4633.333333,3998.974359,4076.410256
251,4396.923076,4492.307692,4514.871794,4262.051282,4489.743589,4185.128205,4428.205128,4167.179487,4200.512820,4481.538461,4191.282051,4630.769230,3985.641026,4071.794871
252,4391.282051,4489.743589,4508.717948,4259.487179,4492.307692,4187.179487,4430.256410,4167.692307,4200.000000,4474.358974,4190.769230,4621.538461,3979.487180,4062.051282
253,4386.666666,4488.717948,4505.641025,4258.461538,4490.769230,4191.794871,4432.307692,4171.282051,4201.538461,4477.435897,4184.615384,4616.410256,3981.025642,4050.769230
254,4391.282051,4487.179487,4508.717948,4258.461538,4486.666666,4189.743589,4430.256410,4168.717948,4198.974358,4487.179487,4188.717948,4621.538461,3984.102565,4055.897435
255,4403.589743,4492.307692,4516.410256,4262.564102,4493.846153,4188.717948,4430.256410,4171.794871,4206.666666,4488.717948,4202.051282,4630.769230,3989.743590,4075.897435
256,4404.102564,4496.410256,4516.410256,4264.615384,4490.769230,4191.282051,4431.794871,4176.923076,4216.923076,4483.589743,4203.076923,4632.820512,3995.897436,4079.487179
257,4393.333333,4491.794871,4508.205128,4258.461538,4479.487179,4189.743589,4427.692307,4174.358974,4210.769230,4486.666666,4200.000000,4624.102564,4001.025641,4072.307692
258,4392.307692,4490.256410,4507.692307,4250.769230,4484.615384,4188.205128,4428.205128,4170.769230,4207.692307,4493.333333,4203.076923,4619.487179,4004.102564,4073.333333
259,4395.897435,4485.641025,4509.743589,4246.153846,4485.641025,4190.769230,4431.282051,4170.769230,4211.794871,4489.743589,4200.000000,4619.487179,3991.794872,4074.358974
