,AF3,F7,F3,FC5,T7,P7,O1,O2,P8,T8,FC6,F4,F8,AF4
0,4415.897435,4543.076923,4552.820512,4185.128205,4455.897435,4189.230769,4459.487179,4215.384615,4260.000000,4516.410256,4234.871794,4662.564102,4030.256410,4069.230769
1,4414.871794,4541.538461,4548.205128,4175.384615,4461.025641,4194.358974,4460.000000,4218.461538,4264.102564,4509.230769,4237.948717,4658.974358,4021.025641,4073.846153
2,4423.076923,4548.717948,4547.179487,4179.487179,4457.948717,4195.897435,4454.358974,4217.948717,4260.512820,4513.333333,4231.282051,4660.000000,4020.000000,4073.846153
3,4429.230769,4553.846153,4554.871794,4195.384615,4448.717948,4191.794871,4459.487179,4218.974358,4262.051282,4530.256410,4233.333333,4664.102564,4032.307692,4071.794871
4,4426.666666,4550.256410,4552.820512,4194.358974,4431.282051,4182.564102,4457.948717,4217.435897,4260.000000,4523.076923,4232.307692,4660.512820,4035.897435,4068.205128
5,4416.410256,4543.589743,4545.128205,4182.564102,4423.589743,4178.461538,4446.153846,4214.871794,4250.256410,4506.666666,4226.666666,4652.820512,4022.564102,4062.564102
6,4410.769230,4540.512820,4546.153846,4181.025641,4435.897435,4187.179487,4448.205128,4215.897435,4253.846153,4515.897435,4230.256410,4654.871794,4016.410256,4069.230769
7,4415.384615,4538.974358,4547.692307,4189.743589,4439.487179,4194.871794,4458.461538,4215.384615,4259.487179,4517.435897,4232.820512,4663.589743,4014.358974,4073.846153
8,4421.025641,4543.589743,4547.692307,4196.410256,4429.230769,4193.846153,4461.538461,4215.384615,4250.769230,4503.076923,4222.051282,4666.666666,4007.179487,4061.538461
9,4422.564102,4549.743589,4551.794871,4199.487179,4424.102564,4189.230769,4457.948717,4217.948717,4250.769230,4505.128205,4216.923076,4664.615384,4013.846153,4060.000000
10,4426.153846,4556.410256,4558.461538,4200.512820,4429.230769,4190.256410,4457.435897,4215.384615,4258.461538,4520.512820,4227.179487,4667.692307,4030.769230,4076.410256
11,4429.743589,4556.923076,4562.051282,4203.076923,4431.282051,4190.256410,4458.461538,4219.487179,4261.538461,4529.743589,4244.102564,4673.846153,4030.256410,4081.538461
12,4427.179487,4546.153846,4559.487179,4205.128205,4420.000000,4187.179487,4458.461538,4229.230769,4264.102564,4525.128205,4246.153846,4676.410256,4017.948717,4071.282051
13,4421.538461,4541.025641,4552.820512,4201.538461,4410.256410,4185.128205,4455.897435,4223.589743,4259.487179,4509.743589,4229.743589,4670.256410,4013.846153,4067.692307
14,4416.410256,4551.794871,4549.230769,4201.025641,4421.538461,4190.769230,4461.025641,4216.923076,4251.282051,4507.692307,4221.538461,4665.128205,4023.076923,4072.307692
15,4419.487179,4559.487179,4551.282051,4201.538461,4428.717948,4198.461538,4474.871794,4228.205128,4260.000000,4521.025641,4231.282051,4667.179487,4029.230769,4070.256410
16,4421.538461,4547.692307,4550.256410,4202.564102,4403.589743,4196.410256,4476.923076,4237.435897,4272.307692,4524.615384,4241.025641,4668.205128,4025.641025,4063.589743
17,4414.871794,4533.333333,4546.666666,4204.615384,4368.717948,4184.615384,4463.589743,4227.692307,4265.128205,4516.410256,4235.897435,4661.538461,4024.615384,4065.641025
18,4412.307692,4534.871794,4542.051282,4197.435897,4341.025641,4173.846153,4449.743589,4215.897435,4251.282051,4501.025641,4224.102564,4655.384615,4022.564102,4075.384615
19,4414.358974,4550.769230,4540.000000,4193.333333,4320.512820,4174.358974,4451.794871,4216.410256,4254.358974,4495.384615,4224.615384,4660.512820,4023.589743,4071.794871
20,4412.820512,4555.897435,4545.128205,4202.564102,4309.743589,4180.512820,4456.923076,4219.487179,4260.512820,4506.666666,4232.307692,4663.589743,4022.051282,4054.871794
21,4409.230769,4541.025641,4544.102564,4202.051282,4296.410256,4174.358974,4450.256410,4214.871794,4252.820512,4509.230769,4225.128205,4654.871794,4011.794871,4053.846153
22,4410.769230,4533.333333,4541.538461,4196.410256,4278.974358,4164.615384,4449.230769,4212.307692,4245.641025,4499.487179,4217.948717,4651.794871,4011.794871,4069.743589
23,4415.384615,4541.025641,4550.256410,4203.076923,4273.333333,4170.256410,4460.000000,4217.435897,4252.307692,4499.487179,4231.794871,4664.102564,4025.641025,4076.923076
24,4412.820512,4546.666666,4551.794871,4204.615384,4269.743589,4175.384615,4462.564102,4219.487179,4256.923076,4504.102564,4235.897435,4671.282051,4020.512820,4066.666666
25,4413.333333,4549.743589,4545.128205,4199.487179,4259.487179,4170.769230,4457.948717,4222.051282,4258.461538,4504.102564,4227.179487,4669.230769,4008.717948,4062.051282
26,4424.615384,4555.384615,4553.333333,4213.846153,4257.948717,4172.307692,4464.102564,4232.307692,4267.692307,4508.205128,4234.871794,4672.820512,4022.051282,4074.358974
27,4426.666666,4547.692307,4564.102564,4232.307692,4250.769230,4173.846153,4466.153846,4233.846153,4268.205128,4510.769230,4240.000000,4676.410256,4027.692307,4077.435897
28,4413.333333,4538.461538,4556.923076,4220.512820,4227.179487,4165.128205,4459.487179,4220.512820,4254.871794,4505.128205,4227.179487,4667.179487,4010.769230,4064.102564
29,4407.692307,4544.615384,4546.666666,4203.589743,4215.897435,4161.025641,4456.923076,4215.897435,4245.128205,4496.923076,4226.666666,4658.974358,4004.615384,4059.487179
30,4412.820512,4548.717948,4547.179487,4209.743589,4204.102564,4162.564102,4457.948717,4223.589743,4249.743589,4496.923076,4229.743589,4661.025641,4014.358974,4064.615384
31,4413.333333,4540.512820,4550.256410,4219.487179,4175.384615,4160.512820,4460.512820,4222.564102,4258.974358,4508.717948,4226.153846,4664.102564,4022.051282,4067.179487
32,4412.820512,4536.410256,4551.282051,4221.538461,4154.871794,4157.435897,4461.538461,4215.897435,4258.461538,4511.794871,4227.179487,4662.564102,4017.435897,4067.179487
33,4413.333333,4541.025641,4550.256410,4217.435897,4150.256410,4155.897435,4460.000000,4214.871794,4252.307692,4495.384615,4226.153846,4654.871794,4004.615384,4055.384615
34,4406.666666,4542.051282,4547.692307,4206.153846,4140.512820,4153.333333,4457.948717,4217.948717,4249.230769,4483.076923,4216.923076,4647.179487,3999.487180,4045.128205
35,4400.512820,4537.435897,4545.128205,4202.051282,4129.230769,4150.769230,4457.435897,4218.974358,4247.692307,4485.128205,4213.333333,4647.692307,4004.102564,4053.846153
36,4405.641025,4532.820512,4545.641025,4217.948717,4131.794871,4153.333333,4458.974358,4221.025641,4250.256410,4497.435897,4218.974358,4652.820512,4009.230769,4062.051282
37,4413.846153,4537.948717,4549.230769,4231.282051,4143.076923,4157.948717,4463.076923,4226.666666,4257.948717,4505.641025,4226.153846,4654.871794,4016.923076,4057.948717
38,4408.205128,4538.974358,4543.589743,4217.948717,4145.641025,4156.923076,4461.025641,4225.128205,4253.846153,4498.461538,4224.615384,4649.743589,4017.948717,4050.256410
39,4400.512820,4530.256410,4533.846153,4205.128205,4130.256410,4150.256410,4454.871794,4215.384615,4248.717948,4492.820512,4216.410256,4646.666666,4008.717948,4050.256410
40,4402.564102,4533.333333,4540.000000,4219.487179,4144.102564,4154.358974,4455.384615,4211.794871,4254.871794,4492.307692,4220.512820,4653.333333,4003.076923,4059.487179
41,4404.102564,4539.487179,4552.307692,4236.410256,4203.589743,4167.179487,4457.435897,4216.923076,4257.948717,4489.743589,4232.307692,4663.076923,4012.820512,4064.102564
42,4405.128205,4542.051282,4550.256410,4227.692307,4227.692307,4167.692307,4455.897435,4224.102564,4257.435897,4499.487179,4227.692307,4666.666666,4029.743589,4058.974358
43,4410.256410,4548.205128,4545.641025,4214.358974,4190.769230,4158.461538,4456.410256,4225.641025,4264.102564,4517.948717,4226.666666,4665.641025,4030.769230,4062.051282
44,4414.871794,4545.128205,4548.717948,4215.897435,4153.846153,4156.410256,4461.538461,4223.589743,4268.717948,4514.871794,4236.410256,4666.666666,4015.384615,4067.692307
45,4410.769230,4536.923076,4548.717948,4224.102564,4138.461538,4157.948717,4464.102564,4222.051282,4258.974358,4494.358974,4230.769230,4667.179487,4011.282051,4062.564102
46,4398.461538,4533.333333,4538.974358,4217.948717,4115.384615,4147.179487,4457.435897,4218.461538,4246.153846,4487.179487,4214.358974,4663.076923,4014.358974,4051.282051
47,4396.410256,4528.717948,4533.846153,4191.794871,4091.282051,4140.000000,4452.307692,4214.358974,4246.666666,4489.230769,4211.794871,4656.410256,3999.487180,4045.128205
48,4410.256410,4527.692307,4541.025641,4182.051282,4117.948717,4149.743589,4458.461538,4220.512820,4257.435897,4490.769230,4212.307692,4658.974358,3989.743590,4053.846153
49,4411.794871,4536.923076,4545.128205,4201.025641,4180.000000,4158.974358,4463.076923,4226.153846,4264.102564,4492.307692,4207.692307,4666.153846,4005.641025,4064.102564
50,4405.128205,4542.051282,4540.000000,4207.179487,4195.384615,4160.512820,4455.897435,4220.000000,4262.051282,4491.794871,4213.333333,4669.743589,4019.487179,4060.512820
51,4413.333333,4543.589743,4540.512820,4187.179487,4176.410256,4163.589743,4453.846153,4218.461538,4258.461538,4489.743589,4225.128205,4675.897435,4021.538461,4061.025641
52,4420.000000,4549.230769,4549.230769,4174.871794,4210.256410,4168.717948,4458.974358,4221.025641,4252.307692,4492.820512,4220.512820,4678.461538,4021.538461,4066.153846
53,4414.358974,4551.282051,4547.692307,4172.820512,4274.871794,4172.307692,4458.461538,4216.410256,4249.743589,4498.461538,4211.282051,4670.256410,4020.000000,4061.538461
54,4413.333333,4549.743589,4537.948717,4163.589743,4301.538461,4178.974358,4457.948717,4216.923076,4251.794871,4496.410256,4215.384615,4665.641025,4013.846153,4062.051282
55,4413.846153,4541.025641,4535.384615,4152.820512,4312.820512,4180.512820,4458.461538,4218.461538,4246.666666,4488.205128,4217.435897,4667.179487,4007.179487,4068.717948
56,4409.743589,4536.923076,4541.538461,4144.102564,4330.769230,4179.487179,4457.435897,4215.384615,4243.076923,4481.538461,4213.333333,4666.666666,4014.358974,4065.128205
57,4419.487179,4548.717948,4546.153846,4143.076923,4345.128205,4183.589743,4457.948717,4217.948717,4247.692307,4480.000000,4218.461538,4670.769230,4025.128205,4060.000000
58,4426.153846,4556.410256,4548.205128,4136.923076,4356.410256,4186.666666,4462.051282,4224.102564,4250.769230,4485.641025,4225.641025,4675.897435,4021.538461,4062.051282
59,4409.230769,4545.128205,4547.692307,4113.333333,4367.692307,4186.666666,4464.102564,4221.538461,4250.769230,4489.743589,4221.538461,4668.717948,4009.230769,4065.128205
60,4398.461538,4532.820512,4539.487179,4094.358974,4371.282051,4186.666666,4462.051282,4216.923076,4249.743589,4490.256410,4215.897435,4658.461538,4004.615384,4063.076923
61,4407.179487,4536.410256,4530.769230,4092.820512,4371.794871,4185.641025,4458.461538,4217.435897,4248.205128,4483.589743,4216.410256,4657.948717,4009.230769,4053.333333
62,4409.230769,4540.000000,4530.769230,4088.205128,4375.384615,4187.179487,4460.000000,4218.461538,4247.179487,4476.410256,4215.384615,4656.923076,4015.897435,4046.666666
63,4408.205128,4541.538461,4541.025641,4075.897435,4376.923076,4190.256410,4468.717948,4225.128205,4254.871794,4484.615384,4220.512820,4657.435897,4019.487179,4053.846153
64,4413.846153,4546.153846,4549.743589,4072.307692,4382.564102,4192.820512,4471.282051,4233.333333,4266.666666,4498.974358,4228.717948,4664.615384,4013.333333,4064.102564
65,4409.743589,4540.512820,4544.615384,4066.153846,4390.769230,4190.769230,4462.564102,4225.641025,4264.102564,4493.333333,4223.589743,4664.615384,4002.051282,4061.538461
66,4406.666666,4533.333333,4543.076923,4058.461538,4392.820512,4186.153846,4456.923076,4212.820512,4248.205128,4486.666666,4215.897435,4660.000000,4004.615384,4054.358974
67,4414.358974,4538.974358,4548.717948,4061.025641,4394.871794,4191.282051,4463.589743,4221.538461,4245.641025,4490.769230,4218.974358,4657.948717,4015.897435,4060.512820
68,4415.897435,4541.538461,4548.717948,4062.051282,4397.948717,4200.000000,4473.333333,4233.333333,4256.410256,4481.538461,4217.948717,4655.897435,4015.384615,4068.717948
69,4404.615384,4535.384615,4538.461538,4053.333333,4400.000000,4195.384615,4470.769230,4225.641025,4257.435897,4471.282051,4212.820512,4653.333333,4004.615384,4062.564102
70,4395.897435,4533.846153,4534.358974,4045.641025,4405.641025,4192.820512,4460.512820,4216.410256,4249.743589,4480.000000,4217.948717,4650.769230,3999.487180,4043.076923
71,4399.487179,4535.384615,4541.025641,4046.153846,4412.307692,4195.384615,4455.384615,4214.871794,4245.641025,4490.256410,4216.923076,4649.743589,4001.538461,4039.487179
72,4410.769230,4536.923076,4547.179487,4052.820512,4413.846153,4194.871794,4461.025641,4214.871794,4247.692307,4491.794871,4210.256410,4651.794871,4005.641025,4060.000000
73,4416.410256,4540.512820,4546.153846,4060.512820,4419.487179,4196.923076,4467.179487,4222.564102,4255.384615,4493.333333,4214.358974,4655.384615,4012.820512,4070.256410
74,4410.256410,4538.974358,4537.948717,4056.923076,4417.948717,4199.487179,4465.641025,4228.717948,4257.435897,4489.743589,4213.333333,4650.769230,4016.923076,4060.512820
75,4400.000000,4531.794871,4534.871794,4040.512820,4387.692307,4190.769230,4462.051282,4222.564102,4251.794871,4484.102564,4204.102564,4644.615384,4007.692307,4047.692307
76,4397.948717,4529.230769,4541.538461,4032.307692,4351.794871,4182.051282,4460.000000,4217.948717,4248.205128,4481.538461,4206.666666,4645.641025,3998.461539,4043.076923
77,4405.128205,4536.923076,4548.717948,4043.076923,4340.000000,4186.666666,4460.512820,4220.000000,4249.230769,4483.589743,4215.897435,4647.692307,4002.564102,4050.769230
78,4410.256410,4543.589743,4548.205128,4049.743589,4336.410256,4189.230769,4466.666666,4224.102564,4252.307692,4494.358974,4222.564102,4647.179487,4011.794871,4060.000000
79,4409.230769,4535.384615,4544.615384,4040.512820,4327.179487,4186.153846,4467.179487,4227.179487,4256.923076,4494.871794,4219.487179,4647.179487,4010.256410,4060.512820
80,4409.743589,4535.384615,4548.717948,4040.000000,4322.051282,4185.641025,4465.128205,4235.384615,4266.153846,4488.717948,4209.743589,4651.282051,4011.282051,4058.974358
81,4412.307692,4550.256410,4553.333333,4044.102564,4322.051282,4186.153846,4468.717948,4242.564102,4273.846153,4499.487179,4215.384615,4653.333333,4022.051282,4061.025641
82,4412.307692,4549.230769,4552.820512,4038.461538,4326.666666,4186.666666,4467.692307,4238.974358,4270.769230,4504.615384,4235.384615,4652.307692,4019.487179,4061.025641
83,4412.307692,4533.846153,4551.794871,4043.076923,4336.410256,4190.769230,4462.564102,4231.794871,4260.512820,4494.358974,4237.948717,4652.820512,4010.256410,4066.153846
84,4416.410256,4534.871794,4556.923076,4060.000000,4340.000000,4197.435897,4468.205128,4231.794871,4259.487179,4492.307692,4221.025641,4654.871794,4015.384615,4075.384615
85,4425.128205,4548.205128,4562.051282,4062.564102,4337.948717,4201.025641,4477.435897,4236.923076,4266.153846,4498.461538,4214.358974,4659.487179,4026.153846,4073.846153
86,4429.230769,4556.923076,4564.102564,4050.769230,4351.794871,4200.512820,4474.358974,4239.487179,4271.282051,4498.461538,4221.538461,4665.641025,4030.256410,4075.897435
87,4418.461538,4556.923076,4561.025641,4041.025641,4368.205128,4192.820512,4463.589743,4236.410256,4267.692307,4496.410256,4222.564102,4662.051282,4025.641025,4074.871794
88,4414.358974,4540.000000,4554.358974,4042.051282,4371.282051,4187.692307,4460.000000,4230.256410,4261.025641,4495.897435,4223.076923,4652.307692,4015.897435,4064.615384
89,4423.076923,4530.256410,4556.923076,4055.384615,4380.000000,4197.435897,4468.717948,4234.871794,4267.692307,4499.487179,4230.769230,4658.461538,4012.307692,4066.666666
90,4420.512820,4550.769230,4563.589743,4056.923076,4384.102564,4204.102564,4470.769230,4241.538461,4275.384615,4499.487179,4226.666666,4665.128205,4026.153846,4075.897435
91,4414.358974,4563.076923,4560.512820,4044.102564,4368.205128,4198.461538,4466.666666,4236.923076,4268.205128,4493.333333,4219.487179,4657.948717,4035.897435,4076.410256
92,4421.025641,4546.666666,4557.435897,4048.205128,4355.384615,4193.846153,4470.256410,4237.435897,4264.615384,4502.051282,4227.692307,4659.487179,4030.256410,4079.487179
93,4424.102564,4541.538461,4560.512820,4057.948717,4354.358974,4196.410256,4470.769230,4240.512820,4268.205128,4512.820512,4232.307692,4665.641025,4021.025641,4080.000000
94,4416.410256,4552.307692,4558.461538,4052.820512,4345.128205,4192.820512,4460.512820,4232.307692,4263.076923,4508.205128,4224.102564,4658.974358,4020.000000,4068.205128
95,4412.307692,4550.256410,4551.794871,4046.153846,4336.410256,4188.205128,4458.974358,4228.205128,4260.512820,4505.641025,4217.948717,4652.307692,4023.589743,4066.666666
96,4411.282051,4550.256410,4554.871794,4046.666666,4338.974358,4190.256410,4468.205128,4234.871794,4267.692307,4503.589743,4213.333333,4652.820512,4017.948717,4074.871794
97,4412.307692,4560.000000,4558.974358,4056.410256,4336.923076,4192.307692,4470.769230,4237.948717,4267.179487,4500.000000,4213.846153,4654.871794,4013.333333,4076.410256
98,4419.487179,4561.025641,4558.461538,4065.128205,4345.641025,4189.230769,4464.102564,4237.435897,4264.615384,4509.230769,4221.538461,4661.538461,4021.025641,4077.435897
99,4415.384615,4548.717948,4552.820512,4051.794871,4365.128205,4186.666666,4458.974358,4234.871794,4265.128205,4510.769230,4216.923076,4660.000000,4018.974358,4066.153846
100,4406.153846,4538.974358,4547.692307,4033.333333,4345.641025,4187.179487,4456.410256,4227.179487,4257.435897,4495.897435,4207.179487,4650.256410,4004.615384,4051.282051
101,4414.871794,4549.743589,4551.794871,4045.641025,4284.102564,4184.615384,4459.487179,4224.102564,4253.333333,4498.461538,4215.384615,4650.256410,4008.717948,4067.179487
102,4427.179487,4563.076923,4558.461538,4065.641025,4243.589743,4178.461538,4468.205128,4231.282051,4260.512820,4508.205128,4229.743589,4661.025641,4024.102564,4093.333333
103,4421.025641,4552.820512,4555.897435,4064.102564,4232.307692,4173.846153,4468.205128,4236.410256,4264.615384,4498.974358,4222.051282,4662.051282,4021.025641,4083.076923
104,4408.205128,4535.897435,4547.692307,4051.282051,4206.153846,4163.589743,4455.897435,4227.179487,4257.948717,4495.384615,4201.025641,4652.307692,4004.615384,4052.820512
105,4409.743589,4540.000000,4548.205128,4047.692307,4183.589743,4157.435897,4453.846153,4217.948717,4251.794871,4504.102564,4199.487179,4648.205128,4000.000000,4049.230769
106,4414.358974,4549.230769,4554.358974,4055.384615,4182.051282,4161.538461,4462.051282,4221.538461,4252.307692,4506.153846,4207.179487,4655.384615,4010.769230,4068.717948
107,4413.333333,4547.692307,4555.897435,4062.564102,4169.743589,4166.153846,4463.076923,4231.794871,4258.461538,4503.076923,4211.794871,4657.948717,4017.948717,4077.435897
108,4415.384615,4550.769230,4555.384615,4067.179487,4151.794871,4168.205128,4463.589743,4235.384615,4267.692307,4505.641025,4219.487179,4657.948717,4013.846153,4071.282051
109,4415.897435,4552.820512,4556.923076,4060.000000,4146.666666,4168.205128,4470.256410,4231.794871,4267.179487,4504.102564,4217.435897,4658.461538,4004.102564,4065.641025
110,4411.282051,4546.153846,4553.333333,4043.076923,4138.461538,4158.974358,4470.256410,4231.282051,4263.589743,4505.128205,4210.256410,4656.410256,4006.153846,4060.512820
111,4412.820512,4545.641025,4551.794871,4047.179487,4124.102564,4154.871794,4469.743589,4236.923076,4267.179487,4515.897435,4217.948717,4658.461538,4018.461538,4064.615384
112,4417.948717,4550.256410,4557.435897,4069.743589,4121.538461,4162.051282,4469.230769,4234.871794,4265.641025,4519.487179,4221.538461,4661.538461,4021.538461,4077.435897
113,4418.461538,4544.615384,4555.897435,4074.358974,4116.410256,4158.974358,4463.589743,4223.076923,4253.846153,4513.846153,4212.820512,4657.948717,4010.256410,4074.871794
114,4414.358974,4542.051282,4549.743589,4060.512820,4098.974358,4150.256410,4465.641025,4217.435897,4248.717948,4503.589743,4211.794871,4654.871794,4001.025641,4058.974358
115,4400.000000,4541.025641,4547.692307,4052.820512,4090.769230,4156.410256,4470.256410,4220.512820,4252.307692,4492.820512,4205.641025,4652.820512,3993.333334,4053.333333
116,4387.179487,4526.153846,4542.051282,4047.179487,4091.282051,4156.410256,4464.615384,4215.897435,4250.256410,4494.358974,4191.794871,4646.153846,3986.666667,4054.871794
117,4397.948717,4524.102564,4538.461538,4050.256410,4087.692307,4150.256410,4460.000000,4211.794871,4248.205128,4501.025641,4193.846153,4646.153846,3990.769231,4051.794871
118,4411.794871,4543.076923,4547.179487,4065.641025,4082.564102,4153.333333,4464.102564,4222.051282,4257.948717,4497.948717,4201.025641,4652.307692,3999.487180,4048.717948
119,4411.794871,4550.256410,4550.256410,4068.717948,4080.512820,4157.435897,4462.051282,4230.256410,4265.641025,4494.871794,4204.615384,4654.871794,4003.589743,4058.974358
120,4411.282051,4545.128205,4548.205128,4060.512820,4072.820512,4151.794871,4455.897435,4222.564102,4257.435897,4505.128205,4208.717948,4652.820512,4003.589743,4073.846153
121,4406.153846,4539.487179,4548.205128,4058.974358,4065.641025,4143.589743,4447.692307,4212.820512,4246.666666,4508.717948,4197.435897,4646.153846,3996.923077,4065.641025
122,4399.487179,4534.358974,4543.076923,4059.487179,4066.153846,4141.025641,4446.666666,4214.358974,4250.256410,4500.000000,4184.615384,4641.538461,3994.871795,4046.666666
123,4401.025641,4533.846153,4536.410256,4053.333333,4062.051282,4142.564102,4458.461538,4218.974358,4254.871794,4495.897435,4196.410256,4644.615384,3996.410257,4044.102564
124,4402.564102,4538.974358,4538.974358,4048.717948,4054.871794,4142.051282,4462.564102,4217.948717,4256.410256,4492.307692,4211.282051,4645.641025,3991.282052,4052.820512
125,4402.051282,4538.974358,4542.051282,4054.871794,4054.871794,4140.000000,4452.307692,4217.435897,4258.974358,4482.051282,4207.692307,4645.641025,3987.692308,4060.512820
126,4401.025641,4530.769230,4536.410256,4060.512820,4056.410256,4138.974358,4446.153846,4217.435897,4253.846153,4478.974358,4195.384615,4648.717948,3995.897436,4056.923076
127,4401.538461,4526.153846,4538.461538,4064.102564,4050.256410,4135.897435,4450.769230,4215.897435,4248.717948,4491.282051,4191.794871,4649.743589,3997.948718,4048.717948
128,4409.230769,4536.923076,4550.769230,4067.692307,4046.666666,4134.871794,4458.974358,4220.000000,4256.923076,4510.256410,4210.256410,4658.461538,3994.358975,4056.410256
129,4414.358974,4543.076923,4552.820512,4063.076923,4050.256410,4137.948717,4459.487179,4228.717948,4262.564102,4510.769230,4224.102564,4668.205128,3999.487180,4067.692307
130,4408.717948,4536.410256,4546.666666,4064.102564,4049.230769,4134.871794,4454.871794,4223.076923,4255.897435,4495.897435,4207.179487,4663.076923,4002.564102,4063.589743
131,4410.256410,4537.948717,4549.230769,4079.487179,4048.205128,4133.333333,4458.461538,4218.461538,4257.948717,4489.230769,4198.461538,4660.512820,4004.102564,4057.948717
132,4418.461538,4543.076923,4558.461538,4085.128205,4049.743589,4138.461538,4464.615384,4226.153846,4264.615384,4491.794871,4211.794871,4670.256410,4011.282051,4061.025641
133,4413.333333,4538.974358,4554.871794,4070.769230,4045.641025,4136.410256,4463.076923,4224.615384,4260.000000,4495.897435,4217.948717,4668.717948,4009.743589,4062.051282
134,4403.076923,4536.410256,4546.666666,4060.512820,4039.487179,4124.615384,4456.923076,4218.461538,4256.923076,4499.487179,4215.897435,4659.487179,4000.512820,4060.512820
135,4405.641025,4538.974358,4550.256410,4069.743589,4042.051282,4122.564102,4454.871794,4225.128205,4262.051282,4504.615384,4218.461538,4662.051282,4002.564102,4060.512820
136,4412.820512,4537.948717,4556.410256,4078.974358,4047.692307,4127.692307,4455.384615,4227.692307,4268.205128,4509.230769,4218.974358,4662.564102,4011.282051,4058.974358
137,4413.333333,4539.487179,4548.205128,4074.871794,4042.564102,4126.666666,4454.358974,4216.923076,4264.615384,4502.051282,4215.384615,4654.871794,4011.794871,4058.461538
138,4409.230769,4540.512820,4536.923076,4060.000000,4028.717948,4124.102564,4457.435897,4216.410256,4259.487179,4489.743589,4211.282051,4653.333333,4004.615384,4061.538461
139,4399.487179,4526.666666,4535.897435,4053.333333,4013.846153,4123.589743,4460.512820,4219.487179,4258.461538,4492.307692,4206.153846,4650.256410,3994.871795,4058.461538
140,4395.384615,4520.512820,4534.358974,4061.025641,4005.641025,4120.000000,4457.435897,4214.871794,4258.974358,4497.435897,4207.692307,4643.076923,3995.384616,4049.230769
141,4405.641025,4536.410256,4532.820512,4071.282051,4006.666666,4120.000000,4457.435897,4217.948717,4264.615384,4496.923076,4217.435897,4646.666666,4008.205128,4051.282051
142,4416.410256,4548.205128,4538.974358,4075.384615,4010.256410,4124.615384,4463.076923,4225.641025,4266.153846,4509.743589,4224.615384,4656.923076,4013.846153,4060.000000
143,4408.205128,4534.358974,4542.051282,4066.153846,4014.358974,4118.461538,4458.461538,4221.538461,4257.435897,4514.871794,4210.769230,4653.846153,4003.076923,4057.948717
144,4392.820512,4523.589743,4536.410256,4060.000000,4014.871794,4110.256410,4448.205128,4206.666666,4245.641025,4491.794871,4189.743589,4642.564102,3992.820513,4051.282051
145,4390.769230,4530.769230,4535.897435,4067.179487,4010.769230,4110.769230,4450.256410,4198.461538,4241.538461,4485.641025,4187.692307,4639.487179,3992.307693,4046.666666
146,4406.666666,4542.051282,4543.076923,4072.820512,4010.256410,4111.282051,4454.871794,4203.589743,4246.153846,4505.128205,4202.564102,4647.179487,3993.333334,4049.743589
147,4416.923076,4545.128205,4545.641025,4073.846153,4018.461538,4114.358974,4456.410256,4211.794871,4249.230769,4515.384615,4211.794871,4653.846153,3994.871795,4056.410256
148,4404.615384,4530.769230,4542.564102,4072.307692,4020.512820,4117.435897,4455.897435,4212.820512,4246.666666,4517.948717,4205.641025,4649.230769,3996.923077,4051.282051
149,4401.538461,4527.179487,4547.692307,4074.871794,4017.948717,4116.410256,4458.461538,4215.897435,4248.205128,4527.179487,4200.512820,4649.743589,4002.564102,4051.282051
150,4420.512820,4549.743589,4560.512820,4086.666666,4025.641025,4120.000000,4468.205128,4227.692307,4257.435897,4523.076923,4214.871794,4664.615384,4009.230769,4069.230769
151,4426.153846,4561.025641,4558.461538,4089.743589,4031.794871,4125.128205,4468.717948,4228.205128,4254.358974,4507.692307,4224.615384,4666.666666,4006.666666,4073.846153
152,4408.205128,4536.410256,4539.487179,4071.794871,4026.153846,4115.897435,4453.846153,4207.179487,4242.051282,4507.179487,4206.153846,4648.717948,3992.820513,4055.384615
153,4392.820512,4513.846153,4532.820512,4063.076923,4023.076923,4103.589743,4449.230769,4193.846153,4237.435897,4514.358974,4192.307692,4640.000000,3989.230770,4041.538461
154,4397.948717,4524.615384,4542.051282,4077.948717,4028.717948,4110.256410,4459.487179,4203.076923,4240.000000,4513.846153,4200.512820,4647.692307,3999.487180,4042.051282
155,4410.769230,4540.512820,4545.128205,4079.487179,4032.820512,4119.487179,4461.538461,4215.897435,4250.256410,4516.410256,4205.641025,4652.820512,4000.000000,4052.307692
156,4415.384615,4537.435897,4542.051282,4067.692307,4036.410256,4115.384615,4458.974358,4220.000000,4257.948717,4521.538461,4213.846153,4650.769230,3995.897436,4060.512820
157,4405.128205,4528.205128,4541.538461,4071.282051,4041.025641,4109.743589,4457.948717,4220.000000,4252.307692,4513.333333,4220.512820,4647.692307,4001.025641,4056.410256
158,4397.435897,4528.717948,4543.076923,4077.435897,4041.538461,4110.256410,4456.410256,4214.358974,4245.641025,4502.564102,4206.666666,4644.102564,3999.487180,4046.153846
159,4407.692307,4533.333333,4544.102564,4076.923076,4043.589743,4110.256410,4456.923076,4211.282051,4248.205128,4511.794871,4203.076923,4646.666666,3992.307693,4046.666666
160,4414.871794,4536.410256,4542.051282,4075.897435,4051.282051,4107.179487,4456.923076,4213.333333,4248.205128,4523.076923,4220.000000,4652.820512,3996.410257,4056.410256
161,4410.769230,4534.358974,4542.051282,4072.820512,4057.948717,4106.666666,4455.897435,4214.871794,4248.205128,4517.948717,4214.358974,4651.794871,4001.025641,4063.589743
162,4411.794871,4533.333333,4545.128205,4073.333333,4065.641025,4111.282051,4458.461538,4213.333333,4249.230769,4509.230769,4194.871794,4647.692307,4000.000000,4060.000000
163,4412.307692,4535.384615,4545.128205,4081.538461,4073.333333,4115.384615,4458.974358,4212.820512,4246.153846,4515.384615,4202.564102,4649.230769,4004.615384,4051.794871
164,4404.102564,4531.794871,4542.564102,4088.205128,4075.897435,4115.384615,4455.897435,4212.820512,4244.615384,4527.179487,4217.435897,4651.282051,4004.615384,4049.230769
165,4405.641025,4531.794871,4544.615384,4089.230769,4078.461538,4115.897435,4461.538461,4221.538461,4254.358974,4524.615384,4212.820512,4651.794871,3998.461539,4053.846153
166,4422.564102,4543.076923,4551.794871,4090.769230,4091.282051,4121.025641,4467.179487,4233.333333,4265.128205,4516.923076,4208.717948,4660.000000,4008.205128,4070.256410
167,4428.205128,4555.897435,4555.897435,4089.743589,4105.128205,4124.615384,4468.205128,4229.230769,4259.487179,4526.666666,4225.641025,4666.153846,4024.102564,4079.487179
168,4412.820512,4548.205128,4548.205128,4079.487179,4109.743589,4123.589743,4468.717948,4216.410256,4248.205128,4540.512820,4232.307692,4660.000000,4016.410256,4061.538461
169,4396.410256,4527.692307,4535.384615,4073.333333,4122.051282,4121.025641,4462.051282,4212.820512,4245.128205,4528.205128,4213.846153,4647.692307,3995.897436,4041.538461
170,4401.538461,4531.282051,4535.897435,4082.051282,4146.153846,4120.000000,4455.897435,4214.871794,4249.230769,4511.282051,4201.025641,4645.128205,3995.384616,4052.307692
171,4418.461538,4552.307692,4546.666666,4093.846153,4158.974358,4124.102564,4458.974358,4216.410256,4253.333333,4517.435897,4204.615384,4653.333333,4011.282051,4069.743589
172,4420.512820,4548.717948,4548.717948,4087.692307,4162.564102,4124.102564,4455.384615,4218.461538,4253.846153,4530.256410,4209.743589,4655.897435,4012.820512,4065.128205
173,4409.230769,4531.794871,4542.051282,4072.820512,4165.641025,4118.461538,4443.076923,4215.897435,4248.205128,4533.846153,4211.282051,4652.820512,4001.538461,4053.846153
174,4408.717948,4535.897435,4542.564102,4075.384615,4160.000000,4118.974358,4443.589743,4213.846153,4245.641025,4535.897435,4214.871794,4655.384615,4002.564102,4054.871794
175,4420.000000,4545.128205,4552.307692,4091.794871,4156.410256,4122.564102,4452.820512,4223.589743,4255.897435,4540.512820,4220.000000,4661.025641,4010.769230,4068.205128
176,4427.179487,4548.717948,4557.435897,4107.179487,4168.717948,4122.051282,4456.923076,4230.769230,4263.589743,4533.333333,4224.615384,4664.102564,4009.230769,4073.333333
177,4428.717948,4553.333333,4554.871794,4101.538461,4176.923076,4122.564102,4460.512820,4226.153846,4260.000000,4523.589743,4221.538461,4663.076923,4008.717948,4060.512820
178,4422.564102,4548.205128,4547.692307,4080.000000,4169.230769,4124.615384,4460.512820,4216.410256,4253.846153,4530.256410,4210.256410,4656.410256,4009.743589,4053.333333
179,4408.205128,4537.435897,4537.435897,4074.358974,4156.410256,4117.435897,4448.717948,4206.666666,4246.153846,4533.846153,4208.717948,4647.179487,4002.564102,4058.461538
180,4404.615384,4535.384615,4534.358974,4090.256410,4149.230769,4110.256410,4442.564102,4205.128205,4244.615384,4527.179487,4216.410256,4649.230769,4003.589743,4061.538461
181,4419.487179,4545.128205,4545.128205,4098.461538,4148.717948,4115.897435,4452.820512,4214.871794,4251.794871,4531.794871,4221.538461,4658.461538,4012.307692,4061.538461
182,4423.589743,4557.435897,4554.358974,4089.230769,4137.948717,4120.000000,4460.512820,4223.589743,4256.923076,4535.384615,4220.000000,4661.025641,4013.333333,4064.615384
183,4409.230769,4552.820512,4545.128205,4078.974358,4114.871794,4111.282051,4455.897435,4218.461538,4254.871794,4528.205128,4220.512820,4654.358974,4010.256410,4060.512820
184,4412.307692,4539.487179,4539.487179,4081.538461,4102.051282,4104.102564,4456.410256,4214.358974,4252.307692,4532.307692,4222.051282,4652.307692,4009.230769,4056.410256
185,4428.205128,4536.410256,4546.666666,4092.307692,4100.000000,4111.282051,4463.076923,4224.102564,4258.461538,4542.051282,4222.564102,4655.897435,4010.256410,4063.589743
186,4427.179487,4537.948717,4551.282051,4095.897435,4095.384615,4116.410256,4463.076923,4227.692307,4264.615384,4539.487179,4226.666666,4652.820512,4013.333333,4066.666666
187,4415.384615,4541.025641,4547.179487,4085.641025,4086.666666,4110.256410,4460.000000,4219.487179,4260.512820,4537.948717,4228.205128,4648.717948,4016.923076,4062.051282
188,4413.333333,4543.076923,4543.589743,4076.923076,4077.435897,4104.615384,4458.974358,4219.487179,4254.871794,4537.948717,4221.538461,4652.307692,4018.974358,4058.974358
189,4413.333333,4537.435897,4546.153846,4077.948717,4070.256410,4105.128205,4458.461538,4224.615384,4260.512820,4535.897435,4214.358974,4652.307692,4016.410256,4061.025641
190,4413.846153,4536.923076,4547.179487,4087.692307,4068.717948,4107.692307,4458.461538,4225.128205,4267.692307,4537.948717,4215.897435,4645.641025,4010.769230,4061.025641
191,4421.025641,4546.153846,4546.666666,4094.871794,4069.230769,4108.717948,4458.974358,4224.102564,4257.948717,4539.487179,4218.974358,4647.179487,4010.769230,4058.974358
192,4420.512820,4546.153846,4547.179487,4086.153846,4066.153846,4107.692307,4461.538461,4222.564102,4250.256410,4533.846153,4213.333333,4647.692307,4011.282051,4062.051282
193,4408.717948,4535.897435,4546.153846,4077.948717,4062.051282,4105.128205,4462.564102,4219.487179,4256.410256,4522.564102,4202.051282,4638.974358,4006.153846,4060.000000
194,4406.153846,4534.871794,4545.128205,4084.102564,4058.461538,4105.128205,4461.538461,4220.512820,4259.487179,4523.076923,4207.692307,4638.461538,4009.743589,4055.897435
195,4420.512820,4543.076923,4553.333333,4092.307692,4055.384615,4105.128205,4464.615384,4225.128205,4257.435897,4537.948717,4225.128205,4647.179487,4011.794871,4066.666666
196,4429.743589,4544.102564,4561.538461,4094.358974,4057.435897,4105.641025,4471.794871,4229.230769,4261.025641,4546.153846,4220.000000,4648.717948,4004.102564,4074.358974
197,4420.000000,4539.487179,4553.846153,4090.256410,4059.487179,4107.692307,4475.897435,4234.871794,4266.153846,4545.641025,4208.717948,4646.666666,4000.000000,4058.461538
198,4410.769230,4537.435897,4548.717948,4084.102564,4057.948717,4109.230769,4475.897435,4234.358974,4261.025641,4541.025641,4215.897435,4648.717948,4001.025641,4052.307692
199,4417.435897,4539.487179,4555.384615,4085.641025,4052.820512,4108.717948,4471.282051,4229.743589,4256.410256,4526.666666,4220.512820,4651.794871,4007.692307,4071.794871
200,4421.538461,4538.974358,4559.487179,4095.897435,4044.102564,4104.615384,4462.564102,4229.230769,4260.512820,4525.641025,4214.358974,4652.820512,4010.256410,4075.384615
201,4412.307692,4534.871794,4557.435897,4094.358974,4036.923076,4101.538461,4456.923076,4228.717948,4264.102564,4547.692307,4216.410256,4653.333333,4001.538461,4064.615384
202,4409.230769,4537.948717,4554.358974,4077.435897,4037.948717,4101.538461,4458.461538,4230.256410,4267.179487,4556.410256,4222.564102,4653.846153,4007.179487,4065.128205
203,4414.358974,4543.589743,4551.282051,4076.410256,4040.000000,4099.487179,4458.461538,4233.333333,4266.153846,4543.076923,4221.538461,4653.846153,4021.538461,4063.589743
204,4411.794871,4533.333333,4546.153846,4088.205128,4032.307692,4093.333333,4454.871794,4227.692307,4258.974358,4534.871794,4214.358974,4650.256410,4009.743589,4056.410256
205,4407.179487,4522.051282,4545.641025,4089.743589,4023.076923,4091.794871,4455.384615,4222.564102,4257.435897,4538.461538,4212.820512,4646.666666,3997.435898,4061.025641
206,4418.974358,4535.384615,4553.333333,4087.179487,4026.666666,4100.512820,4459.487179,4230.769230,4268.717948,4543.589743,4230.769230,4654.358974,4014.358974,4072.820512
207,4425.128205,4553.333333,4558.974358,4090.769230,4036.410256,4107.179487,4462.564102,4238.461538,4275.897435,4545.128205,4241.025641,4662.564102,4029.230769,4075.384615
208,4417.435897,4543.589743,4556.410256,4091.282051,4032.307692,4103.589743,4463.076923,4233.333333,4268.205128,4547.179487,4227.179487,4654.871794,4023.076923,4069.743589
209,4417.948717,4532.307692,4555.897435,4092.307692,4024.615384,4098.974358,4459.487179,4229.230769,4260.000000,4543.589743,4222.564102,4646.666666,4013.333333,4066.666666
210,4427.179487,4541.538461,4560.000000,4095.897435,4027.179487,4103.589743,4461.538461,4231.282051,4264.102564,4542.564102,4233.333333,4653.846153,4014.871794,4066.666666
211,4431.282051,4546.153846,4561.538461,4090.769230,4034.358974,4110.256410,4473.846153,4234.871794,4271.794871,4553.846153,4234.871794,4665.128205,4023.076923,4070.256410
212,4422.051282,4538.974358,4557.948717,4088.717948,4034.871794,4107.692307,4474.871794,4233.333333,4266.153846,4552.307692,4232.307692,4660.000000,4019.487179,4073.333333
213,4413.333333,4538.974358,4555.384615,4095.897435,4028.717948,4103.589743,4462.564102,4225.641025,4255.897435,4536.410256,4229.743589,4647.692307,4008.717948,4069.230769
214,4414.871794,4535.897435,4553.846153,4091.794871,4025.128205,4098.974358,4457.948717,4222.564102,4254.358974,4529.230769,4213.846153,4645.641025,4005.128205,4060.000000
215,4420.000000,4528.717948,4552.820512,4084.102564,4022.051282,4092.820512,4457.948717,4228.717948,4256.410256,4526.666666,4204.615384,4647.692307,4006.153846,4057.435897
216,4418.974358,4534.871794,4555.384615,4087.179487,4018.974358,4095.897435,4463.076923,4234.871794,4256.923076,4529.230769,4219.487179,4651.282051,4007.179487,4061.538461
217,4413.333333,4541.538461,4556.410256,4087.692307,4022.051282,4102.051282,4467.179487,4234.358974,4260.000000,4543.076923,4227.692307,4651.794871,4005.128205,4061.025641
218,4410.256410,4537.435897,4552.820512,4085.641025,4031.282051,4100.512820,4464.615384,4230.256410,4263.076923,4546.666666,4217.948717,4647.179487,3994.358975,4060.512820
219,4415.897435,4535.384615,4554.358974,4092.820512,4032.307692,4101.025641,4465.641025,4230.769230,4260.512820,4533.846153,4215.897435,4646.153846,3997.435898,4061.025641
220,4429.230769,4535.897435,4556.923076,4096.923076,4029.230769,4107.179487,4470.769230,4235.897435,4261.538461,4528.717948,4225.128205,4653.846153,4015.897435,4062.564102
221,4424.102564,4541.538461,4552.307692,4087.179487,4031.794871,4104.615384,4464.615384,4234.871794,4259.487179,4529.230769,4229.230769,4653.333333,4015.897435,4064.102564
222,4410.769230,4551.794871,4548.205128,4079.487179,4031.282051,4098.974358,4455.897435,4229.230769,4251.282051,4530.769230,4221.025641,4645.641025,4000.512820,4063.589743
223,4416.923076,4549.230769,4550.769230,4093.846153,4031.794871,4103.589743,4459.487179,4229.743589,4253.333333,4540.000000,4213.846153,4648.205128,4004.102564,4060.512820
224,4422.564102,4539.487179,4554.871794,4109.743589,4042.051282,4108.717948,4465.641025,4235.384615,4262.051282,4548.205128,4222.564102,4654.358974,4014.358974,4058.461538
225,4414.358974,4541.025641,4554.871794,4096.410256,4040.512820,4105.641025,4465.128205,4232.820512,4264.102564,4545.641025,4232.307692,4651.282051,4010.256410,4061.538461
226,4413.846153,4551.794871,4547.692307,4082.564102,4028.205128,4100.000000,4460.000000,4226.153846,4260.000000,4535.897435,4223.076923,4645.641025,4009.230769,4067.179487
227,4418.974358,4550.769230,4544.615384,4094.358974,4026.153846,4099.487179,4458.461538,4227.179487,4261.538461,4539.487179,4210.769230,4648.205128,4013.846153,4068.205128
228,4414.871794,4538.974358,4546.153846,4097.435897,4017.435897,4102.051282,4462.564102,4231.794871,4267.692307,4545.641025,4212.820512,4649.230769,4009.230769,4060.000000
229,4418.461538,4540.512820,4544.615384,4089.743589,3992.820513,4098.461538,4461.538461,4232.820512,4266.666666,4536.923076,4225.128205,4649.230769,4009.230769,4057.435897
230,4425.641025,4548.717948,4547.179487,4098.461538,3979.487180,4093.846153,4458.974358,4227.179487,4254.871794,4529.743589,4227.179487,4652.307692,4013.846153,4066.666666
231,4414.358974,4541.538461,4547.692307,4103.076923,3980.000000,4091.794871,4459.487179,4220.512820,4247.692307,4542.051282,4208.205128,4645.128205,4008.717948,4066.153846
232,4405.641025,4533.846153,4544.615384,4094.871794,3983.076924,4091.794871,4458.461538,4220.512820,4254.358974,4550.256410,4199.487179,4637.435897,4006.666666,4057.948717
233,4418.461538,4543.076923,4547.179487,4094.871794,3988.717949,4094.358974,4460.000000,4223.589743,4260.000000,4534.358974,4216.923076,4645.128205,4010.769230,4059.487179
234,4424.102564,4546.666666,4547.692307,4093.333333,3988.717949,4093.846153,4460.512820,4219.487179,4255.897435,4524.102564,4224.102564,4646.153846,4004.102564,4065.128205
235,4409.743589,4529.230769,4541.538461,4088.205128,3980.512821,4087.692307,4452.820512,4214.358974,4251.794871,4524.615384,4210.769230,4636.410256,3995.897436,4060.512820
236,4401.025641,4523.589743,4541.025641,4087.692307,3982.051283,4084.615384,4445.128205,4217.948717,4251.282051,4514.358974,4203.076923,4634.871794,4004.102564,4053.846153
237,4408.205128,4534.358974,4544.615384,4084.615384,3988.205129,4086.666666,4447.692307,4216.410256,4244.615384,4510.769230,4205.641025,4636.923076,4010.256410,4049.230769
238,4414.358974,4532.820512,4539.487179,4076.410256,3987.692308,4086.153846,4446.153846,4209.230769,4234.871794,4526.153846,4215.384615,4635.384615,4000.512820,4048.205128
239,4409.743589,4525.128205,4535.897435,4072.820512,3984.615385,4084.102564,4441.025641,4209.230769,4236.923076,4529.743589,4220.512820,4635.384615,3991.282052,4055.897435
240,4407.179487,4533.846153,4540.512820,4083.589743,3985.641026,4086.153846,4449.230769,4214.358974,4245.128205,4517.948717,4216.410256,4639.487179,3995.897436,4058.974358
241,4412.820512,4541.025641,4549.743589,4100.512820,3992.820513,4091.794871,4460.512820,4215.897435,4249.743589,4525.128205,4220.512820,4646.153846,4009.230769,4063.076923
242,4419.487179,4537.435897,4557.435897,4098.974358,4000.000000,4097.435897,4459.487179,4222.051282,4256.923076,4538.974358,4225.128205,4650.769230,4014.358974,4069.230769
243,4418.974358,4538.974358,4556.410256,4087.179487,4006.666666,4097.948717,4458.974358,4229.743589,4262.564102,4532.820512,4222.051282,4651.282051,4009.743589,4066.666666
244,4414.871794,4542.564102,4550.769230,4088.717948,4007.692307,4095.897435,4463.076923,4231.794871,4261.538461,4529.743589,4227.179487,4647.179487,4005.128205,4057.948717
245,4409.230769,4534.358974,4550.256410,4093.333333,4002.051282,4092.307692,4456.923076,4227.179487,4260.512820,4540.000000,4232.307692,4637.948717,4001.538461,4056.410256
246,4406.153846,4528.205128,4549.230769,4091.794871,4004.102564,4087.179487,4448.205128,4224.615384,4257.435897,4537.435897,4225.128205,4633.333333,4001.538461,4061.538461
247,4409.230769,4536.923076,4544.615384,4087.692307,4008.717948,4087.692307,4452.307692,4224.615384,4252.307692,4520.512820,4213.846153,4635.384615,4004.102564,4062.564102
248,4412.307692,4538.461538,4546.153846,4084.615384,4007.179487,4091.794871,4458.461538,4221.538461,4248.717948,4515.897435,4212.820512,4634.871794,4001.538461,4058.461538
249,4413.846153,4528.717948,4548.717948,4086.666666,4009.230769,4092.307692,4457.948717,4217.948717,4250.769230,4529.743589,4224.102564,4638.974358,4004.102564,4053.846153
250,4410.256410,4530.256410,4545.128205,4090.256410,4014.871794,4094.358974,4456.410256,4217.948717,4254.358974,4537.948717,4227.179487,4645.128205,4015.384615,4056.410256
251,4410.256410,4540.000000,4541.538461,4089.230769,4021.025641,4101.538461,4458.461538,4218.461538,4253.846153,4527.179487,4216.923076,4643.076923,4015.384615,4065.641025
252,4419.487179,4546.153846,4543.589743,4090.769230,4028.717948,4104.102564,4459.487179,4222.051282,4252.820512,4520.512820,4218.461538,4643.076923,4010.769230,4066.666666
253,4423.589743,4549.230769,4550.256410,4099.487179,4032.820512,4103.589743,4461.025641,4232.307692,4258.461538,4538.974358,4229.230769,4649.230769,4015.897435,4065.128205
254,4420.512820,4547.179487,4553.333333,4106.666666,4033.846153,4104.615384,4460.512820,4235.897435,4266.666666,4549.743589,4224.615384,4648.205128,4017.435897,4071.282051
255,4419.487179,4546.666666,4549.743589,4109.230769,4039.487179,4105.128205,4456.923076,4225.641025,4263.076923,4532.820512,4221.025641,4648.205128,4013.846153,4077.435897
256,4422.051282,4554.871794,4547.179487,4101.025641,4044.615384,4106.153846,4456.410256,4217.948717,4253.333333,4528.205128,4224.615384,4652.307692,4022.564102,4070.256410
257,4423.589743,4557.435897,4551.794871,4092.307692,4049.230769,4108.205128,4459.487179,4222.564102,4254.871794,4538.461538,4221.025641,4654.871794,4026.153846,4064.615384
258,4428.205128,4551.794871,4556.410256,4101.025641,4058.461538,4107.692307,4464.615384,4231.794871,4263.076923,4534.358974,4229.230769,4658.461538,4015.897435,4071.794871
259,4426.153846,4545.128205,4549.743589,4103.589743,4061.538461,4105.128205,4463.589743,4232.307692,4258.974358,4529.743589,4238.461538,4657.435897,4008.205128,4073.846153
