,AF3,F7,F3,FC5,T7,P7,O1,O2,P8,T8,FC6,F4,F8,AF4
0,4417.435897,4524.102564,4519.487179,4266.666666,4503.589743,4183.076923,4425.641025,4168.717948,4204.615384,4490.769230,4192.307692,4632.307692,3961.538462,4054.358974
1,4423.589743,4532.307692,4524.102564,4271.794871,4503.076923,4181.538461,4426.153846,4175.897435,4211.282051,4485.128205,4195.897435,4633.333333,3963.589744,4055.897435
2,4426.153846,4534.871794,4523.076923,4275.897435,4506.666666,4186.153846,4426.153846,4180.000000,4219.487179,4489.230769,4200.000000,4634.358974,3973.846154,4056.410256
3,4418.461538,4525.641025,4515.897435,4270.769230,4506.153846,4185.641025,4425.128205,4176.410256,4216.410256,4496.923076,4201.538461,4631.794871,3960.000000,4050.256410
4,4409.230769,4513.846153,4511.794871,4264.615384,4502.564102,4173.846153,4420.000000,4170.256410,4206.153846,4497.435897,4192.307692,4627.179487,3944.615385,4044.102564
5,4413.846153,4516.923076,4517.948717,4264.615384,4497.948717,4170.769230,4420.512820,4171.282051,4204.615384,4493.333333,4189.230769,4629.230769,3957.435898,4050.256410
6,4421.538461,4523.589743,4526.666666,4271.282051,4501.538461,4179.487179,4427.692307,4180.000000,4214.358974,4492.820512,4199.487179,4637.435897,3973.333334,4057.948717
7,4417.435897,4517.435897,4519.487179,4270.769230,4509.230769,4176.923076,4427.692307,4185.128205,4219.487179,4493.333333,4197.948717,4638.461538,3965.128206,4052.307692
8,4408.717948,4508.205128,4510.769230,4261.538461,4504.615384,4170.769230,4423.589743,4184.615384,4214.871794,4493.846153,4187.692307,4630.769230,3950.256411,4043.589743
9,4410.256410,4516.410256,4518.461538,4261.025641,4501.538461,4176.410256,4428.717948,4187.692307,4216.410256,4488.717948,4190.769230,4632.307692,3949.230770,4043.589743
10,4413.846153,4528.717948,4521.025641,4265.641025,4510.769230,4177.948717,4428.717948,4190.256410,4221.025641,4482.051282,4193.333333,4633.333333,3957.948718,4044.102564
11,4408.205128,4519.487179,4509.743589,4262.564102,4504.102564,4166.666666,4418.974358,4178.461538,4210.256410,4481.538461,4180.512820,4621.025641,3954.358975,4037.435897
12,4408.717948,4511.794871,4508.205128,4260.512820,4489.743589,4170.256410,4422.051282,4169.743589,4200.000000,4482.564102,4178.974358,4620.512820,3944.102565,4035.897435
13,4414.871794,4521.538461,4516.410256,4265.641025,4500.512820,4184.615384,4428.205128,4173.846153,4208.205128,4483.589743,4194.871794,4634.871794,3945.641026,4043.076923
14,4412.307692,4521.025641,4513.333333,4265.641025,4509.230769,4181.025641,4418.461538,4173.333333,4211.282051,4485.641025,4198.461538,4635.897435,3955.384616,4044.615384
15,4410.769230,4511.794871,4509.743589,4254.358974,4500.512820,4169.230769,4414.871794,4168.717948,4203.589743,4490.256410,4193.846153,4629.230769,3961.538462,4038.974358
16,4413.846153,4514.358974,4511.282051,4252.307692,4500.512820,4169.743589,4423.589743,4169.743589,4205.641025,4487.692307,4195.897435,4633.333333,3955.897436,4040.000000
17,4412.307692,4514.358974,4506.666666,4260.000000,4501.538461,4173.846153,4418.974358,4168.717948,4203.589743,4478.974358,4197.948717,4634.358974,3948.205129,4044.102564
18,4409.230769,4508.205128,4505.641025,4261.025641,4494.871794,4169.230769,4409.230769,4167.692307,4195.384615,4481.538461,4191.282051,4630.256410,3949.230770,4040.512820
19,4409.230769,4515.384615,4509.743589,4252.820512,4500.512820,4168.717948,4413.846153,4168.717948,4196.410256,4487.692307,4182.051282,4630.256410,3954.358975,4034.358974
20,4404.615384,4516.923076,4505.641025,4251.794871,4503.076923,4169.743589,4410.769230,4163.589743,4197.435897,4482.051282,4171.794871,4623.589743,3945.641026,4028.717948
21,4396.410256,4501.538461,4497.948717,4259.487179,4490.256410,4165.128205,4403.589743,4158.974358,4191.282051,4469.230769,4169.230769,4613.846153,3933.846154,4023.589743
22,4398.461538,4503.589743,4501.025641,4258.461538,4486.666666,4165.641025,4409.230769,4166.153846,4195.384615,4464.615384,4182.051282,4617.435897,3938.974359,4031.282051
23,4409.743589,4520.000000,4510.769230,4251.282051,4498.974358,4172.820512,4417.435897,4171.794871,4203.076923,4465.641025,4189.743589,4629.230769,3944.102565,4038.461538
24,4408.205128,4515.897435,4509.230769,4244.102564,4500.512820,4171.794871,4412.820512,4167.692307,4197.948717,4469.743589,4183.589743,4630.769230,3938.461539,4028.205128
25,4401.025641,4507.179487,4504.615384,4249.230769,4495.897435,4167.179487,4408.205128,4166.666666,4197.435897,4479.487179,4182.051282,4630.256410,3942.051283,4028.717948
26,4408.205128,4515.384615,4509.230769,4262.051282,4500.512820,4174.358974,4418.461538,4174.358974,4208.205128,4490.769230,4193.846153,4636.923076,3954.871795,4047.179487
27,4414.358974,4516.923076,4514.358974,4270.256410,4507.179487,4183.589743,4428.205128,4183.589743,4215.897435,4497.948717,4202.051282,4641.025641,3958.461539,4050.769230
28,4409.230769,4511.794871,4510.769230,4266.153846,4510.256410,4179.487179,4423.076923,4188.205128,4216.410256,4492.820512,4199.487179,4637.435897,3956.923077,4038.461538
29,4404.102564,4512.307692,4504.102564,4252.307692,4503.589743,4169.743589,4412.820512,4178.461538,4208.205128,4480.512820,4191.282051,4628.205128,3954.871795,4029.743589
30,4401.538461,4511.794871,4501.538461,4245.641025,4489.230769,4165.641025,4408.717948,4169.230769,4203.076923,4474.871794,4185.641025,4622.564102,3945.641026,4027.692307
31,4404.102564,4512.820512,4503.589743,4254.358974,4490.256410,4171.282051,4414.871794,4178.974358,4212.307692,4486.666666,4188.717948,4630.769230,3945.128206,4037.948717
32,4413.846153,4518.461538,4512.820512,4261.538461,4507.692307,4182.051282,4425.128205,4186.666666,4219.487179,4503.589743,4201.025641,4643.589743,3957.948718,4051.282051
33,4417.435897,4517.948717,4516.410256,4257.435897,4510.769230,4184.615384,4428.205128,4180.512820,4213.333333,4499.487179,4207.692307,4645.128205,3968.205129,4050.769230
34,4414.358974,4509.230769,4510.769230,4256.410256,4505.128205,4180.000000,4424.102564,4176.923076,4209.743589,4484.615384,4200.512820,4641.025641,3967.179488,4044.615384
35,4414.871794,4509.743589,4510.769230,4256.923076,4505.641025,4181.025641,4424.615384,4175.897435,4210.769230,4488.205128,4198.974358,4638.461538,3960.000000,4043.076923
36,4420.512820,4516.923076,4517.948717,4256.923076,4506.666666,4184.102564,4427.692307,4172.307692,4210.769230,4497.435897,4205.128205,4638.974358,3964.615385,4047.692307
37,4422.051282,4519.487179,4522.564102,4263.076923,4513.333333,4184.102564,4427.179487,4171.282051,4211.794871,4496.923076,4200.000000,4644.102564,3972.820513,4051.282051
38,4418.974358,4517.435897,4518.461538,4266.666666,4516.410256,4184.615384,4426.666666,4175.897435,4212.820512,4496.410256,4192.307692,4642.051282,3964.615385,4043.589743
39,4418.974358,4518.461538,4513.333333,4261.025641,4505.641025,4183.076923,4425.128205,4177.948717,4209.230769,4495.384615,4194.871794,4634.871794,3958.974359,4037.948717
40,4422.051282,4523.076923,4515.897435,4262.564102,4505.128205,4183.076923,4428.205128,4178.461538,4208.205128,4495.384615,4195.384615,4638.974358,3974.358975,4047.692307
41,4418.974358,4517.435897,4514.871794,4266.666666,4513.333333,4185.128205,4428.205128,4178.461538,4207.692307,4495.384615,4192.820512,4643.076923,3980.512821,4053.846153
42,4414.358974,4507.692307,4512.820512,4258.461538,4503.076923,4178.974358,4422.051282,4174.358974,4201.538461,4486.666666,4195.897435,4639.487179,3965.128206,4047.692307
43,4416.410256,4510.256410,4516.410256,4252.307692,4494.358974,4176.923076,4423.076923,4176.410256,4202.051282,4483.076923,4198.974358,4641.025641,3961.538462,4047.692307
44,4412.820512,4511.794871,4513.333333,4253.846153,4503.589743,4182.051282,4423.589743,4179.487179,4206.153846,4487.692307,4194.871794,4639.487179,3966.153847,4046.666666
45,4410.256410,4509.743589,4502.051282,4252.820512,4503.076923,4179.487179,4418.974358,4174.871794,4207.692307,4491.282051,4187.692307,4632.307692,3965.128206,4038.461538
46,4414.358974,4514.871794,4504.615384,4253.333333,4500.512820,4176.923076,4420.000000,4173.846153,4208.717948,4498.461538,4189.230769,4631.794871,3966.666667,4043.076923
47,4412.820512,4515.384615,4509.743589,4256.923076,4503.076923,4176.923076,4422.051282,4177.435897,4207.692307,4500.000000,4190.769230,4632.307692,3969.230770,4047.692307
48,4410.256410,4509.230769,4503.589743,4252.820512,4496.923076,4170.769230,4421.538461,4173.846153,4203.076923,4488.205128,4189.743589,4629.743589,3965.641026,4038.974358
49,4414.871794,4515.384615,4505.641025,4248.205128,4492.820512,4174.358974,4424.102564,4174.871794,4203.589743,4482.564102,4193.333333,4634.871794,3964.615385,4041.538461
50,4417.948717,4524.615384,4520.000000,4253.846153,4506.153846,4183.589743,4428.205128,4183.589743,4207.692307,4492.820512,4195.384615,4645.128205,3972.820513,4055.384615
51,4413.846153,4516.923076,4521.025641,4258.974358,4511.282051,4180.000000,4424.615384,4179.487179,4203.589743,4494.358974,4188.717948,4644.102564,3973.846154,4052.820512
52,4418.461538,4515.384615,4511.794871,4260.512820,4505.128205,4176.410256,4425.641025,4177.435897,4205.128205,4490.769230,4189.743589,4642.051282,3967.692308,4047.179487
53,4424.615384,4525.128205,4515.897435,4264.615384,4506.153846,4183.589743,4427.179487,4184.102564,4210.256410,4491.282051,4202.051282,4644.615384,3969.743590,4055.897435
54,4424.615384,4523.076923,4524.615384,4263.589743,4506.153846,4183.076923,4427.179487,4187.179487,4209.230769,4488.205128,4202.564102,4644.102564,3975.897436,4059.487179
55,4421.538461,4520.000000,4523.589743,4262.564102,4507.692307,4181.538461,4436.410256,4195.897435,4215.384615,4493.333333,4191.794871,4641.538461,3976.923077,4056.410256
56,4422.051282,4525.128205,4517.435897,4264.615384,4511.282051,4192.307692,4444.615384,4206.153846,4226.666666,4506.666666,4191.794871,4642.564102,3972.307693,4056.923076
57,4424.615384,4525.128205,4513.333333,4262.051282,4508.205128,4199.487179,4445.641025,4204.102564,4230.256410,4506.666666,4204.102564,4647.179487,3976.410257,4060.000000
58,4421.025641,4521.025641,4509.230769,4263.076923,4506.153846,4192.820512,4442.564102,4194.358974,4225.128205,4495.384615,4205.641025,4645.641025,3980.512821,4054.871794
59,4411.794871,4520.512820,4508.205128,4264.615384,4512.820512,4185.641025,4440.512820,4192.820512,4217.435897,4498.461538,4194.871794,4637.435897,3975.384616,4048.717948
60,4409.230769,4516.923076,4507.179487,4255.897435,4513.846153,4186.666666,4440.512820,4192.307692,4215.384615,4502.564102,4189.743589,4630.769230,3971.282052,4046.153846
61,4415.384615,4512.820512,4505.641025,4251.282051,4504.102564,4187.692307,4441.025641,4191.282051,4216.410256,4497.948717,4191.282051,4632.307692,3972.307693,4044.615384
62,4416.410256,4517.948717,4510.256410,4261.538461,4504.615384,4188.717948,4443.076923,4193.333333,4215.897435,4499.487179,4195.897435,4636.923076,3972.820513,4047.692307
63,4415.384615,4523.589743,4518.461538,4265.641025,4509.230769,4190.256410,4440.512820,4193.846153,4216.923076,4500.512820,4203.589743,4638.974358,3972.820513,4052.820512
64,4417.948717,4523.589743,4522.564102,4262.564102,4512.307692,4186.153846,4433.846153,4187.692307,4217.948717,4498.974358,4203.589743,4639.487179,3977.435898,4050.256410
65,4418.461538,4518.461538,4519.487179,4262.564102,4516.410256,4182.051282,4426.666666,4183.076923,4214.358974,4500.000000,4193.333333,4639.487179,3975.897436,4046.666666
66,4413.846153,4512.307692,4517.948717,4262.051282,4512.820512,4183.589743,4424.102564,4184.102564,4213.333333,4500.000000,4190.256410,4638.461538,3965.641026,4046.153846
67,4412.307692,4512.307692,4522.051282,4262.564102,4501.025641,4184.615384,4429.230769,4188.717948,4220.000000,4501.025641,4197.435897,4642.564102,3968.205129,4047.179487
68,4420.000000,4521.025641,4524.102564,4268.205128,4505.128205,4185.641025,4440.000000,4200.512820,4226.666666,4509.230769,4205.128205,4650.769230,3982.051283,4055.384615
69,4427.692307,4532.820512,4522.564102,4275.384615,4521.025641,4191.794871,4444.102564,4203.589743,4221.538461,4509.743589,4203.076923,4652.307692,3983.076924,4063.589743
70,4426.666666,4532.820512,4527.179487,4273.846153,4521.538461,4196.410256,4438.974358,4195.897435,4212.820512,4504.102564,4199.487179,4649.230769,3973.846154,4057.948717
71,4426.666666,4526.666666,4532.820512,4267.692307,4521.025641,4192.820512,4435.384615,4201.538461,4217.948717,4506.153846,4204.102564,4655.384615,3975.897436,4057.948717
72,4424.615384,4523.589743,4527.692307,4265.641025,4528.717948,4185.641025,4431.282051,4200.512820,4219.487179,4506.153846,4206.666666,4655.384615,3977.948718,4061.025641
73,4414.871794,4522.564102,4518.974358,4267.179487,4516.923076,4182.564102,4425.128205,4183.076923,4207.179487,4503.589743,4200.000000,4645.641025,3967.692308,4051.282051
74,4412.820512,4519.487179,4517.435897,4267.692307,4500.000000,4187.179487,4426.666666,4184.615384,4206.666666,4502.564102,4203.076923,4647.179487,3970.769231,4049.743589
75,4420.000000,4521.025641,4517.948717,4268.717948,4511.282051,4192.307692,4429.743589,4196.410256,4217.435897,4498.974358,4212.307692,4652.820512,3983.589744,4059.487179
76,4416.923076,4525.641025,4516.410256,4268.205128,4526.666666,4189.743589,4426.666666,4190.256410,4217.948717,4501.025641,4206.666666,4646.153846,3980.512821,4056.410256
77,4411.282051,4523.076923,4522.051282,4264.615384,4519.487179,4184.615384,4427.692307,4186.666666,4215.384615,4511.282051,4200.512820,4642.564102,3970.256411,4045.641025
78,4413.333333,4518.461538,4523.076923,4262.564102,4512.820512,4184.615384,4431.794871,4191.794871,4215.384615,4506.666666,4195.384615,4645.128205,3967.179488,4044.102564
79,4406.666666,4510.769230,4509.230769,4254.871794,4510.769230,4182.051282,4427.179487,4187.179487,4209.743589,4492.820512,4185.641025,4636.923076,3961.025642,4040.000000
80,4398.974358,4503.589743,4504.615384,4245.641025,4496.923076,4178.974358,4424.102564,4186.666666,4209.230769,4497.948717,4195.384615,4632.307692,3959.487180,4039.487179
81,4408.717948,4509.743589,4516.923076,4247.179487,4494.871794,4184.102564,4432.820512,4200.512820,4220.000000,4513.846153,4213.846153,4642.564102,3971.282052,4051.282051
82,4415.384615,4513.846153,4516.410256,4254.358974,4507.179487,4186.666666,4434.871794,4203.589743,4221.025641,4509.743589,4206.666666,4645.128205,3976.923077,4049.743589
83,4411.282051,4507.179487,4510.769230,4260.000000,4508.205128,4184.102564,4427.179487,4191.794871,4210.769230,4494.358974,4191.794871,4640.000000,3968.205129,4041.538461
84,4410.769230,4508.717948,4514.871794,4263.076923,4508.717948,4185.128205,4430.256410,4190.256410,4209.230769,4498.974358,4189.230769,4643.589743,3964.102565,4047.692307
85,4414.871794,4521.025641,4517.435897,4265.128205,4515.384615,4184.615384,4436.410256,4196.923076,4215.384615,4508.717948,4188.205128,4645.128205,3966.666667,4053.333333
86,4413.846153,4524.615384,4516.410256,4261.538461,4510.256410,4182.564102,4432.307692,4194.358974,4211.794871,4503.589743,4197.435897,4642.564102,3964.102565,4046.666666
87,4410.256410,4521.025641,4516.923076,4251.282051,4500.512820,4185.128205,4427.692307,4184.102564,4203.076923,4493.333333,4204.102564,4642.051282,3955.897436,4041.025641
88,4405.641025,4515.897435,4510.256410,4243.589743,4503.589743,4181.025641,4426.666666,4182.564102,4200.000000,4489.743589,4188.205128,4637.435897,3951.794872,4041.538461
89,4403.589743,4510.256410,4506.153846,4250.256410,4502.051282,4173.846153,4424.615384,4185.128205,4201.538461,4486.666666,4180.000000,4632.307692,3960.000000,4041.025641
90,4408.717948,4514.358974,4509.743589,4258.461538,4497.435897,4177.948717,4426.666666,4182.564102,4204.615384,4484.102564,4192.820512,4633.846153,3968.717949,4044.615384
91,4409.743589,4518.461538,4506.153846,4252.820512,4505.128205,4176.923076,4431.282051,4181.538461,4204.102564,4490.256410,4192.820512,4633.333333,3962.564103,4045.128205
92,4407.179487,4515.897435,4502.051282,4250.256410,4509.743589,4169.743589,4427.179487,4182.564102,4206.153846,4502.051282,4185.641025,4634.358974,3956.923077,4040.000000
93,4410.256410,4518.461538,4507.692307,4260.512820,4499.487179,4174.871794,4421.538461,4183.076923,4210.769230,4509.230769,4191.794871,4640.000000,3964.615385,4040.000000
94,4416.923076,4523.589743,4507.692307,4268.717948,4493.846153,4178.461538,4422.051282,4185.128205,4209.230769,4509.230769,4196.410256,4642.051282,3970.256411,4046.666666
95,4415.384615,4522.564102,4506.666666,4263.589743,4498.974358,4173.333333,4422.564102,4184.102564,4207.692307,4504.615384,4191.282051,4642.051282,3963.589744,4048.717948
96,4412.307692,4521.538461,4511.282051,4253.846153,4506.666666,4175.897435,4423.076923,4184.615384,4210.769230,4498.974358,4192.820512,4646.153846,3957.948718,4045.641025
97,4412.820512,4521.025641,4513.846153,4255.897435,4510.769230,4187.692307,4427.179487,4187.692307,4213.333333,4498.461538,4200.512820,4647.179487,3963.076924,4047.179487
98,4412.307692,4518.974358,4511.282051,4262.051282,4505.128205,4185.128205,4428.717948,4185.641025,4208.205128,4499.487179,4199.487179,4643.589743,3971.794872,4049.743589
99,4412.307692,4521.538461,4507.179487,4257.948717,4499.487179,4173.333333,4425.641025,4181.538461,4204.615384,4497.948717,4196.410256,4643.076923,3971.794872,4047.692307
100,4411.282051,4522.051282,4504.615384,4253.846153,4503.589743,4174.871794,4425.128205,4187.179487,4209.743589,4502.564102,4196.923076,4643.589743,3966.666667,4046.666666
101,4411.794871,4521.025641,4513.333333,4263.076923,4509.743589,4185.641025,4428.205128,4193.846153,4214.871794,4506.666666,4200.512820,4646.153846,3972.820513,4048.205128
102,4415.897435,4524.615384,4522.051282,4266.666666,4512.307692,4188.717948,4429.743589,4190.256410,4214.358974,4502.051282,4204.102564,4649.230769,3978.974359,4051.282051
103,4414.358974,4524.102564,4515.897435,4262.051282,4513.333333,4182.564102,4427.692307,4185.128205,4208.205128,4495.897435,4203.076923,4645.641025,3972.820513,4052.820512
104,4411.282051,4521.025641,4512.307692,4264.102564,4509.230769,4181.025641,4426.666666,4183.076923,4204.102564,4494.871794,4201.538461,4638.974358,3968.717949,4054.358974
105,4420.512820,4524.615384,4522.564102,4268.717948,4504.102564,4184.615384,4427.692307,4185.128205,4206.666666,4503.076923,4204.102564,4641.538461,3972.820513,4054.358974
106,4425.641025,4523.589743,4527.179487,4266.153846,4508.717948,4184.615384,4425.128205,4186.666666,4209.230769,4508.717948,4202.051282,4646.666666,3973.333334,4051.282051
107,4414.358974,4515.897435,4517.948717,4256.410256,4508.205128,4175.384615,4417.435897,4176.923076,4195.384615,4491.794871,4187.179487,4638.461538,3963.589744,4045.641025
108,4411.282051,4517.948717,4514.871794,4254.358974,4498.974358,4169.230769,4416.410256,4166.666666,4184.102564,4485.128205,4182.564102,4630.256410,3956.410257,4049.230769
109,4420.512820,4525.641025,4521.538461,4265.641025,4504.615384,4174.358974,4422.051282,4171.794871,4196.923076,4504.615384,4195.897435,4636.923076,3962.051283,4056.923076
110,4416.410256,4521.025641,4517.948717,4270.256410,4507.692307,4173.333333,4417.948717,4175.897435,4201.025641,4503.589743,4195.384615,4638.461538,3963.076924,4050.769230
111,4405.641025,4514.871794,4508.205128,4260.000000,4493.846153,4165.641025,4408.717948,4166.666666,4184.102564,4483.589743,4182.051282,4628.205128,3952.820513,4038.461538
112,4410.769230,4521.538461,4508.205128,4255.897435,4488.205128,4168.717948,4410.769230,4165.641025,4184.102564,4481.025641,4185.641025,4627.179487,3956.923077,4040.512820
113,4417.435897,4527.179487,4513.846153,4263.076923,4500.000000,4174.358974,4415.897435,4174.871794,4198.461538,4485.641025,4200.512820,4633.846153,3972.307693,4051.794871
114,4415.897435,4522.051282,4514.871794,4265.641025,4507.179487,4172.307692,4411.794871,4171.794871,4197.948717,4487.179487,4202.051282,4631.794871,3968.717949,4052.307692
115,4416.923076,4523.076923,4513.846153,4268.717948,4506.666666,4172.820512,4411.282051,4169.230769,4193.846153,4495.897435,4201.538461,4631.282051,3957.435898,4049.230769
116,4417.435897,4523.589743,4512.307692,4265.641025,4505.128205,4171.794871,4414.358974,4175.897435,4196.923076,4502.564102,4199.487179,4633.846153,3955.897436,4049.743589
117,4411.282051,4514.358974,4506.666666,4252.820512,4494.358974,4166.666666,4411.282051,4174.871794,4198.461538,4497.948717,4190.769230,4627.179487,3960.512821,4044.615384
118,4412.307692,4512.307692,4506.666666,4252.307692,4485.641025,4167.692307,4408.205128,4173.846153,4197.435897,4490.256410,4188.717948,4623.589743,3968.717949,4040.512820
119,4423.589743,4521.538461,4516.410256,4265.128205,4487.179487,4172.820512,4411.794871,4183.589743,4203.076923,4490.769230,4198.974358,4633.846153,3970.769231,4050.256410
120,4430.256410,4528.717948,4521.025641,4269.230769,4496.923076,4171.794871,4416.410256,4188.717948,4206.153846,4502.051282,4210.256410,4640.000000,3969.230770,4061.538461
121,4425.641025,4523.589743,4514.871794,4258.974358,4502.051282,4169.743589,4415.897435,4185.128205,4202.564102,4510.769230,4211.282051,4634.871794,3968.205129,4060.000000
122,4418.461538,4513.846153,4508.205128,4249.743589,4497.435897,4170.256410,4412.307692,4182.051282,4197.435897,4505.128205,4203.589743,4630.769230,3963.076924,4053.333333
123,4417.435897,4516.923076,4511.282051,4253.846153,4497.435897,4170.256410,4410.256410,4181.025641,4194.358974,4492.307692,4201.538461,4632.820512,3961.538462,4050.256410
124,4417.948717,4521.025641,4512.307692,4268.205128,4501.025641,4171.794871,4411.282051,4177.948717,4192.307692,4482.051282,4201.538461,4632.307692,3966.153847,4049.743589
125,4413.333333,4510.256410,4508.717948,4269.743589,4493.846153,4171.794871,4412.820512,4174.871794,4189.743589,4485.641025,4193.846153,4628.717948,3964.102565,4047.179487
126,4413.333333,4508.205128,4508.717948,4258.461538,4487.179487,4170.769230,4412.820512,4175.384615,4192.307692,4497.435897,4193.333333,4630.256410,3957.435898,4045.641025
127,4418.461538,4522.051282,4517.948717,4257.435897,4493.846153,4170.769230,4411.282051,4179.487179,4197.948717,4498.461538,4208.205128,4635.384615,3959.487180,4049.743589
128,4421.538461,4526.153846,4523.076923,4264.102564,4504.615384,4171.282051,4410.769230,4182.051282,4198.974358,4496.923076,4214.358974,4635.384615,3967.179488,4051.282051
129,4417.948717,4516.410256,4514.358974,4264.102564,4506.666666,4171.282051,4413.333333,4183.076923,4198.461538,4497.948717,4203.076923,4632.820512,3969.743590,4048.205128
130,4410.256410,4508.717948,4505.641025,4257.948717,4494.871794,4170.256410,4412.307692,4186.153846,4202.051282,4493.846153,4193.846153,4629.743589,3960.512821,4045.128205
131,4403.589743,4504.102564,4506.153846,4248.717948,4486.153846,4168.717948,4410.769230,4185.641025,4198.461538,4487.692307,4189.743589,4620.512820,3947.179488,4039.487179
132,4398.974358,4503.076923,4505.128205,4242.564102,4492.307692,4167.692307,4411.794871,4179.487179,4188.717948,4485.128205,4187.179487,4613.846153,3945.128206,4029.230769
133,4401.538461,4510.769230,4502.564102,4250.769230,4494.871794,4169.230769,4411.794871,4176.410256,4190.769230,4484.615384,4188.717948,4616.410256,3952.820513,4027.179487
134,4412.820512,4517.948717,4509.743589,4262.051282,4491.282051,4171.282051,4411.794871,4180.512820,4199.487179,4487.179487,4194.358974,4624.102564,3955.897436,4035.897435
135,4419.487179,4514.358974,4514.358974,4255.897435,4494.358974,4171.282051,4411.282051,4187.692307,4203.076923,4494.358974,4202.564102,4629.230769,3951.794872,4044.615384
136,4413.846153,4507.179487,4512.307692,4251.282051,4493.846153,4168.205128,4410.256410,4182.564102,4200.512820,4490.256410,4204.102564,4629.230769,3951.282052,4047.692307
137,4409.230769,4507.179487,4512.307692,4253.333333,4483.589743,4167.179487,4410.256410,4170.256410,4192.820512,4483.076923,4197.435897,4627.179487,3955.384616,4045.641025
138,4414.358974,4512.307692,4511.282051,4249.230769,4478.974358,4167.692307,4409.230769,4171.794871,4188.717948,4490.769230,4191.282051,4627.692307,3956.923077,4042.564102
139,4421.538461,4516.410256,4512.820512,4252.307692,4484.615384,4167.692307,4410.769230,4182.564102,4196.410256,4492.307692,4195.384615,4632.820512,3959.487180,4041.025641
140,4421.538461,4516.410256,4519.487179,4262.564102,4493.846153,4168.717948,4416.410256,4180.512820,4197.948717,4483.076923,4198.461538,4633.846153,3965.128206,4046.153846
141,4410.769230,4507.692307,4514.871794,4251.794871,4493.846153,4167.179487,4409.743589,4167.692307,4184.615384,4480.000000,4186.666666,4622.564102,3958.461539,4043.076923
142,4407.179487,4501.025641,4504.102564,4241.538461,4481.025641,4165.128205,4398.974358,4166.153846,4182.564102,4481.025641,4178.461538,4616.923076,3943.589744,4033.846153
143,4414.871794,4510.769230,4506.153846,4258.461538,4482.051282,4168.205128,4404.615384,4172.307692,4191.282051,4478.974358,4191.282051,4623.589743,3947.179488,4038.461538
144,4413.333333,4517.435897,4512.820512,4265.641025,4495.897435,4170.256410,4413.846153,4170.256410,4187.179487,4478.974358,4195.897435,4622.564102,3957.435898,4044.615384
145,4409.230769,4512.307692,4510.256410,4252.820512,4494.871794,4168.205128,4410.256410,4166.153846,4181.025641,4473.333333,4182.051282,4615.384615,3951.282052,4040.512820
146,4416.923076,4513.333333,4509.230769,4253.333333,4494.871794,4168.717948,4408.717948,4166.666666,4187.692307,4472.307692,4181.538461,4617.435897,3945.641026,4037.948717
147,4418.974358,4521.538461,4508.717948,4266.666666,4503.589743,4170.256410,4413.333333,4170.769230,4190.256410,4483.076923,4190.256410,4618.974358,3950.256411,4042.051282
148,4412.820512,4524.615384,4508.205128,4268.717948,4502.051282,4170.769230,4415.384615,4171.794871,4189.743589,4484.615384,4191.282051,4615.897435,3954.871795,4041.025641
149,4411.794871,4523.589743,4510.769230,4263.589743,4495.384615,4173.846153,4415.384615,4168.717948,4194.871794,4472.820512,4190.256410,4617.435897,3950.769231,4034.358974
150,4412.307692,4519.487179,4508.717948,4265.641025,4497.948717,4172.820512,4413.846153,4169.230769,4193.333333,4473.333333,4190.769230,4617.948717,3946.666667,4034.871794
151,4410.256410,4514.871794,4506.666666,4265.641025,4493.333333,4167.692307,4411.794871,4171.794871,4192.307692,4486.666666,4185.641025,4615.897435,3951.282052,4039.487179
152,4405.128205,4516.923076,4506.666666,4256.410256,4488.205128,4166.153846,4411.282051,4172.307692,4195.897435,4490.256410,4182.051282,4615.384615,3954.358975,4034.358974
153,4394.358974,4514.871794,4505.641025,4247.179487,4491.282051,4167.179487,4410.256410,4168.717948,4190.256410,4481.025641,4186.153846,4614.871794,3948.205129,4026.153846
154,4391.282051,4505.641025,4506.153846,4249.230769,4491.282051,4169.230769,4411.794871,4167.692307,4185.641025,4481.538461,4194.358974,4619.487179,3946.666667,4030.256410
155,4395.897435,4504.102564,4506.666666,4253.846153,4490.256410,4170.256410,4415.384615,4170.769230,4191.282051,4487.692307,4196.923076,4624.615384,3957.435898,4034.871794
156,4387.692307,4507.179487,4505.641025,4250.256410,4494.871794,4169.743589,4413.846153,4173.846153,4190.769230,4481.025641,4187.692307,4620.512820,3960.000000,4033.333333
157,4376.410256,4503.076923,4504.615384,4242.564102,4495.384615,4165.128205,4411.282051,4170.256410,4182.051282,4475.384615,4182.051282,4613.846153,3948.205129,4030.256410
158,4377.948717,4499.487179,4502.564102,4241.025641,4493.333333,4160.000000,4410.769230,4162.564102,4180.512820,4474.871794,4180.512820,4615.384615,3945.641026,4026.153846
159,4378.461538,4502.051282,4498.974358,4248.205128,4490.769230,4162.051282,4408.717948,4161.538461,4178.974358,4468.717948,4177.435897,4616.410256,3950.256411,4028.205128
160,4380.512820,4506.666666,4503.076923,4253.846153,4488.205128,4168.717948,4411.282051,4167.179487,4183.589743,4476.410256,4181.538461,4617.435897,3960.000000,4036.410256
161,4388.717948,4512.820512,4508.717948,4258.461538,4494.358974,4174.358974,4418.461538,4176.410256,4195.897435,4496.923076,4189.230769,4626.666666,3969.743590,4042.051282
162,4388.205128,4521.538461,4511.282051,4258.974358,4505.641025,4177.435897,4420.000000,4183.076923,4201.025641,4500.000000,4196.923076,4634.358974,3971.794872,4044.615384
163,4381.538461,4525.128205,4512.307692,4253.333333,4509.230769,4174.871794,4422.051282,4184.615384,4201.538461,4491.794871,4205.641025,4633.333333,3968.717949,4048.205128
164,4381.025641,4521.538461,4511.282051,4254.358974,4504.615384,4169.743589,4421.538461,4184.102564,4201.538461,4494.358974,4203.589743,4632.820512,3972.307693,4045.641025
165,4381.538461,4517.948717,4512.820512,4257.948717,4504.102564,4170.769230,4415.384615,4186.153846,4204.615384,4501.538461,4189.743589,4630.769230,3973.333334,4045.128205
166,4377.948717,4520.512820,4515.384615,4255.897435,4508.205128,4170.769230,4413.333333,4186.666666,4207.179487,4502.051282,4183.589743,4623.076923,3964.102565,4048.205128
167,4371.282051,4515.384615,4510.769230,4254.871794,4500.512820,4167.179487,4415.384615,4182.051282,4201.538461,4497.435897,4188.205128,4615.384615,3957.948718,4040.000000
168,4366.153846,4507.692307,4503.076923,4255.897435,4490.256410,4168.205128,4412.820512,4181.025641,4197.435897,4495.384615,4188.717948,4614.358974,3960.000000,4034.358974
169,4369.230769,4514.871794,4504.615384,4254.358974,4497.435897,4171.282051,4410.769230,4184.615384,4205.128205,4500.000000,4185.128205,4617.948717,3968.717949,4043.076923
170,4371.282051,4523.589743,4509.230769,4253.333333,4504.102564,4167.692307,4413.846153,4185.641025,4206.153846,4501.025641,4190.256410,4619.487179,3969.230770,4046.666666
171,4359.487179,4512.307692,4502.051282,4250.769230,4496.410256,4161.538461,4413.333333,4181.025641,4194.871794,4493.333333,4191.282051,4616.410256,3954.871795,4032.307692
172,4352.307692,4499.487179,4494.358974,4242.564102,4493.846153,4162.051282,4410.256410,4178.974358,4193.333333,4487.179487,4182.564102,4613.333333,3946.666667,4025.128205
173,4362.051282,4505.641025,4499.487179,4246.666666,4494.358974,4166.666666,4415.897435,4185.128205,4203.589743,4492.820512,4184.102564,4616.410256,3959.487180,4037.435897
174,4367.692307,4520.000000,4507.179487,4258.974358,4494.871794,4168.717948,4424.615384,4190.256410,4212.820512,4503.076923,4200.000000,4625.128205,3974.358975,4050.769230
175,4363.076923,4518.461538,4507.179487,4259.487179,4499.487179,4168.717948,4424.615384,4187.692307,4213.846153,4505.128205,4203.076923,4627.179487,3969.743590,4050.256410
176,4360.000000,4508.205128,4505.641025,4251.282051,4496.923076,4169.230769,4418.974358,4183.589743,4205.641025,4496.923076,4193.846153,4621.025641,3961.538462,4040.512820
177,4356.923076,4510.256410,4506.153846,4243.589743,4495.897435,4169.743589,4414.871794,4183.076923,4198.974358,4488.717948,4194.358974,4619.487179,3962.564103,4035.897435
178,4355.384615,4520.512820,4513.846153,4247.179487,4502.051282,4166.666666,4413.333333,4183.589743,4202.051282,4489.743589,4198.461538,4626.666666,3967.692308,4042.564102
179,4360.512820,4522.051282,4521.025641,4257.948717,4497.948717,4163.589743,4411.794871,4183.589743,4204.102564,4497.435897,4195.384615,4630.769230,3966.153847,4052.307692
180,4361.538461,4512.307692,4514.871794,4260.000000,4490.256410,4164.102564,4412.820512,4184.102564,4201.025641,4501.025641,4192.820512,4624.102564,3960.000000,4051.794871
181,4352.820512,4509.230769,4506.153846,4250.769230,4493.333333,4167.692307,4414.358974,4183.589743,4202.051282,4493.846153,4190.256410,4617.948717,3958.461539,4043.589743
182,4350.769230,4518.461538,4509.230769,4247.179487,4496.923076,4169.743589,4415.384615,4182.564102,4202.564102,4486.153846,4188.717948,4620.000000,3961.025642,4040.000000
183,4353.333333,4517.435897,4513.846153,4253.333333,4498.461538,4170.256410,4416.410256,4183.589743,4198.974358,4492.820512,4195.384615,4621.538461,3965.641026,4045.641025
184,4349.230769,4507.179487,4510.769230,4252.307692,4502.564102,4168.205128,4412.820512,4183.589743,4195.384615,4497.435897,4199.487179,4618.461538,3963.076924,4048.717948
185,4343.076923,4510.769230,4506.153846,4247.179487,4497.948717,4166.153846,4410.256410,4182.051282,4195.897435,4488.205128,4185.128205,4616.410256,3959.487180,4040.512820
186,4346.153846,4519.487179,4507.692307,4250.769230,4491.282051,4169.230769,4418.974358,4183.589743,4201.025641,4489.743589,4179.487179,4617.948717,3960.000000,4037.435897
187,4350.256410,4512.307692,4510.769230,4252.307692,4492.820512,4170.769230,4424.102564,4186.153846,4203.589743,4503.589743,4195.384615,4619.487179,3955.384616,4039.487179
188,4345.128205,4504.615384,4507.692307,4246.666666,4490.769230,4167.692307,4414.358974,4182.051282,4198.974358,4503.589743,4199.487179,4617.435897,3952.820513,4034.871794
189,4345.128205,4511.282051,4507.692307,4247.179487,4492.820512,4169.230769,4410.769230,4183.076923,4201.538461,4494.358974,4190.256410,4615.897435,3957.435898,4037.435897
190,4347.692307,4518.461538,4510.769230,4247.179487,4498.974358,4170.769230,4417.435897,4190.769230,4209.230769,4493.846153,4189.230769,4620.000000,3957.948718,4044.615384
191,4346.153846,4513.846153,4507.179487,4243.589743,4496.410256,4169.230769,4417.435897,4191.794871,4207.692307,4500.512820,4195.384615,4624.615384,3954.358975,4041.025641
192,4349.230769,4511.794871,4508.205128,4253.333333,4494.871794,4170.769230,4416.923076,4192.820512,4208.205128,4508.205128,4195.897435,4627.692307,3963.589744,4042.564102
193,4350.769230,4515.897435,4511.794871,4258.461538,4501.538461,4169.743589,4416.923076,4191.794871,4206.153846,4506.666666,4189.230769,4624.102564,3972.820513,4047.692307
194,4343.076923,4516.923076,4505.641025,4250.256410,4495.384615,4164.615384,4410.769230,4183.076923,4194.358974,4495.897435,4187.692307,4615.897435,3961.025642,4039.487179
195,4344.102564,4515.384615,4508.205128,4251.282051,4483.589743,4166.666666,4412.307692,4180.512820,4192.820512,4491.794871,4200.512820,4617.948717,3949.743590,4041.025641
196,4349.743589,4513.846153,4520.512820,4253.846153,4490.256410,4169.230769,4414.871794,4185.641025,4201.538461,4495.897435,4209.743589,4626.153846,3957.948718,4050.256410
197,4345.641025,4515.384615,4518.974358,4247.692307,4501.025641,4169.743589,4415.384615,4189.743589,4206.153846,4500.000000,4204.102564,4627.692307,3972.820513,4049.230769
198,4345.128205,4517.435897,4514.871794,4254.358974,4503.589743,4173.846153,4422.564102,4191.282051,4208.205128,4502.564102,4196.410256,4627.692307,3973.333334,4048.717948
199,4349.230769,4516.410256,4520.000000,4270.256410,4509.230769,4177.948717,4428.717948,4195.384615,4208.205128,4503.589743,4196.410256,4631.794871,3967.692308,4053.333333
200,4347.179487,4516.923076,4523.589743,4264.615384,4510.256410,4175.897435,4425.128205,4196.923076,4200.512820,4503.076923,4198.461538,4633.333333,3965.641026,4053.846153
201,4345.128205,4520.512820,4522.051282,4250.256410,4500.512820,4171.282051,4420.512820,4189.743589,4200.512820,4503.076923,4198.974358,4629.230769,3963.076924,4051.282051
202,4344.615384,4520.512820,4517.948717,4255.384615,4496.923076,4169.743589,4418.974358,4184.615384,4203.076923,4500.512820,4195.384615,4624.615384,3963.076924,4049.230769
203,4341.025641,4516.923076,4513.846153,4259.487179,4498.974358,4168.717948,4420.000000,4192.820512,4199.487179,4501.025641,4197.948717,4626.666666,3967.692308,4047.179487
204,4342.564102,4517.435897,4519.487179,4252.307692,4498.461538,4171.794871,4426.666666,4202.051282,4204.102564,4510.256410,4207.179487,4633.846153,3972.820513,4047.692307
205,4346.153846,4512.820512,4524.615384,4251.794871,4498.461538,4176.923076,4430.256410,4199.487179,4214.871794,4511.282051,4209.230769,4633.846153,3974.358975,4049.743589
206,4345.641025,4508.717948,4521.538461,4256.410256,4504.615384,4174.871794,4427.179487,4202.051282,4215.384615,4505.641025,4203.589743,4631.282051,3970.769231,4051.794871
207,4345.641025,4512.307692,4518.974358,4255.384615,4508.717948,4172.307692,4424.102564,4203.589743,4209.743589,4507.692307,4198.974358,4632.820512,3963.076924,4050.769230
208,4339.487179,4503.589743,4515.384615,4253.846153,4502.564102,4166.666666,4417.948717,4190.256410,4201.538461,4506.153846,4195.384615,4626.153846,3955.897436,4041.025641
209,4329.230769,4492.307692,4505.641025,4252.307692,4489.230769,4160.000000,4410.256410,4180.512820,4190.769230,4494.358974,4190.256410,4612.820512,3957.435898,4034.871794
210,4331.794871,4506.153846,4506.153846,4249.743589,4488.205128,4162.051282,4412.307692,4183.076923,4189.230769,4491.282051,4189.230769,4617.435897,3968.205129,4038.461538
211,4342.564102,4523.076923,4518.974358,4257.948717,4502.564102,4172.307692,4421.538461,4186.666666,4199.487179,4499.487179,4193.333333,4629.743589,3966.153847,4044.102564
212,4342.564102,4513.333333,4518.974358,4262.564102,4505.641025,4172.820512,4421.025641,4186.666666,4200.512820,4500.512820,4194.871794,4624.102564,3948.205129,4043.589743
213,4337.948717,4506.666666,4510.769230,4255.384615,4495.384615,4168.717948,4418.461538,4190.256410,4196.410256,4492.307692,4192.820512,4620.000000,3946.153847,4041.025641
214,4338.461538,4516.410256,4511.282051,4252.307692,4507.692307,4173.333333,4423.589743,4190.769230,4201.538461,4493.333333,4192.307692,4624.615384,3963.076924,4042.564102
215,4337.435897,4512.307692,4509.743589,4250.256410,4521.538461,4174.871794,4421.538461,4185.641025,4205.641025,4502.051282,4192.307692,4620.512820,3970.769231,4039.487179
216,4337.435897,4502.564102,4506.666666,4247.179487,4505.641025,4171.794871,4415.897435,4183.589743,4200.512820,4504.615384,4194.358974,4620.512820,3967.179488,4037.948717
217,4342.051282,4509.230769,4514.871794,4256.410256,4494.871794,4171.794871,4418.974358,4184.102564,4201.538461,4504.102564,4207.179487,4633.333333,3965.641026,4049.743589
218,4344.615384,4517.948717,4521.025641,4266.666666,4505.128205,4170.256410,4420.000000,4183.589743,4207.692307,4505.128205,4212.307692,4634.358974,3968.205129,4052.820512
219,4345.128205,4516.410256,4516.923076,4263.589743,4507.179487,4166.666666,4417.948717,4186.666666,4209.230769,4505.128205,4199.487179,4625.128205,3973.333334,4042.564102
220,4348.205128,4519.487179,4519.487179,4257.435897,4506.666666,4175.897435,4424.102564,4198.974358,4213.333333,4510.256410,4198.461538,4630.256410,3976.410257,4049.743589
221,4349.230769,4524.615384,4525.641025,4259.487179,4512.820512,4184.102564,4429.743589,4205.128205,4220.000000,4517.948717,4214.871794,4636.923076,3976.410257,4062.564102
222,4347.179487,4522.051282,4520.000000,4261.025641,4512.307692,4176.410256,4427.692307,4193.846153,4213.333333,4514.358974,4214.871794,4633.846153,3978.974359,4056.410256
223,4349.230769,4518.461538,4514.871794,4260.000000,4507.692307,4171.794871,4426.153846,4181.538461,4200.512820,4504.615384,4200.000000,4629.743589,3975.897436,4048.717948
224,4349.743589,4516.410256,4519.487179,4266.153846,4511.282051,4175.384615,4423.589743,4182.564102,4198.461538,4503.589743,4202.051282,4631.794871,3966.153847,4053.846153
225,4347.692307,4515.384615,4521.538461,4266.666666,4509.230769,4173.846153,4420.000000,4186.153846,4203.076923,4503.589743,4205.641025,4632.820512,3965.641026,4055.897435
226,4346.153846,4516.923076,4514.358974,4261.025641,4505.641025,4169.743589,4420.512820,4183.589743,4204.615384,4504.102564,4198.974358,4631.794871,3972.820513,4048.717948
227,4346.666666,4517.948717,4515.384615,4262.564102,4506.666666,4171.794871,4423.076923,4186.153846,4204.615384,4508.717948,4198.974358,4631.794871,3974.871795,4046.153846
228,4347.692307,4518.974358,4524.102564,4266.666666,4505.641025,4177.435897,4426.153846,4193.846153,4207.179487,4507.179487,4201.538461,4631.282051,3973.333334,4054.358974
229,4346.666666,4520.512820,4523.076923,4260.000000,4507.692307,4180.000000,4427.692307,4192.307692,4208.717948,4501.025641,4199.487179,4630.769230,3966.153847,4054.871794
230,4343.076923,4519.487179,4518.461538,4254.358974,4508.717948,4174.871794,4424.102564,4191.794871,4206.153846,4505.128205,4205.128205,4631.282051,3961.538462,4044.102564
231,4344.615384,4515.897435,4521.025641,4259.487179,4505.128205,4168.205128,4417.948717,4195.897435,4204.102564,4514.871794,4213.846153,4631.282051,3972.820513,4047.179487
232,4349.230769,4516.410256,4523.589743,4266.153846,4503.076923,4169.743589,4416.923076,4193.333333,4203.589743,4514.358974,4209.743589,4634.358974,3982.564103,4058.974358
233,4350.769230,4517.948717,4525.128205,4266.666666,4506.153846,4173.846153,4418.461538,4189.230769,4201.025641,4505.128205,4205.128205,4640.000000,3975.897436,4058.461538
234,4350.256410,4521.025641,4524.615384,4261.025641,4508.717948,4171.282051,4416.410256,4186.666666,4197.435897,4501.538461,4214.871794,4640.512820,3972.820513,4055.384615
235,4354.358974,4525.128205,4523.589743,4258.461538,4507.692307,4173.846153,4418.461538,4187.692307,4202.051282,4509.230769,4223.076923,4642.051282,3980.000000,4060.000000
236,4356.923076,4527.179487,4526.153846,4260.512820,4510.769230,4181.538461,4426.153846,4194.871794,4211.282051,4521.025641,4215.384615,4644.102564,3982.051283,4062.564102
237,4351.794871,4528.205128,4523.589743,4264.102564,4514.358974,4180.512820,4424.615384,4198.974358,4214.871794,4526.666666,4204.102564,4638.974358,3980.000000,4060.512820
238,4343.076923,4522.564102,4511.282051,4263.589743,4508.205128,4168.205128,4410.769230,4189.230769,4208.205128,4513.333333,4207.179487,4630.256410,3973.846154,4052.307692
239,4343.076923,4518.974358,4509.230769,4261.538461,4498.974358,4162.564102,4407.692307,4184.102564,4197.435897,4493.846153,4208.205128,4629.230769,3969.230770,4046.153846
240,4354.871794,4528.205128,4520.512820,4265.128205,4505.128205,4175.897435,4422.051282,4190.769230,4201.538461,4496.410256,4207.179487,4633.333333,3976.923077,4054.358974
241,4360.512820,4537.948717,4523.589743,4268.717948,4517.435897,4183.589743,4427.692307,4190.256410,4209.230769,4506.153846,4212.307692,4634.358974,3984.102565,4060.512820
242,4354.358974,4533.333333,4519.487179,4267.692307,4515.384615,4173.846153,4420.000000,4184.102564,4202.051282,4504.102564,4210.256410,4629.743589,3975.897436,4055.897435
243,4351.794871,4524.615384,4515.897435,4267.692307,4509.743589,4169.743589,4417.435897,4183.589743,4192.820512,4504.615384,4202.564102,4623.589743,3963.589744,4051.282051
244,4355.384615,4522.564102,4517.435897,4269.230769,4508.205128,4178.461538,4421.538461,4182.051282,4198.461538,4508.205128,4206.153846,4628.205128,3968.205129,4049.743589
245,4351.282051,4515.384615,4515.384615,4265.128205,4501.538461,4174.871794,4415.897435,4173.333333,4202.564102,4503.589743,4206.666666,4630.769230,3980.000000,4044.615384
246,4346.666666,4510.769230,4510.256410,4259.487179,4489.743589,4164.615384,4410.256410,4173.846153,4201.025641,4501.538461,4203.589743,4625.128205,3984.615385,4046.153846
247,4355.897435,4523.076923,4515.897435,4261.025641,4491.794871,4169.230769,4420.000000,4187.692307,4210.769230,4509.230769,4215.897435,4629.230769,3987.692308,4062.564102
248,4363.589743,4528.205128,4523.589743,4268.717948,4504.102564,4173.333333,4425.128205,4189.743589,4218.974358,4515.897435,4223.589743,4635.897435,3991.282052,4071.282051
249,4359.487179,4521.538461,4523.076923,4272.307692,4507.692307,4169.230769,4419.487179,4184.102564,4211.282051,4512.307692,4216.923076,4633.333333,3986.153847,4062.564102
250,4353.333333,4524.615384,4517.948717,4269.743589,4504.102564,4171.282051,4417.948717,4186.666666,4204.615384,4500.512820,4220.512820,4631.794871,3979.487180,4054.871794
251,4349.743589,4523.589743,4513.333333,4265.128205,4508.205128,4172.820512,4419.487179,4184.102564,4198.974358,4489.743589,4216.923076,4630.256410,3976.923077,4051.282051
252,4343.076923,4506.153846,4505.128205,4255.897435,4504.615384,4164.102564,4410.769230,4167.692307,4186.153846,4486.153846,4195.384615,4615.897435,3968.717949,4042.564102
253,4340.512820,4505.641025,4503.076923,4251.282051,4489.743589,4167.179487,4410.256410,4165.128205,4184.102564,4495.384615,4190.769230,4612.307692,3965.641026,4040.000000
254,4346.666666,4524.102564,4508.717948,4258.461538,4494.871794,4183.589743,4427.179487,4181.025641,4197.435897,4504.102564,4197.435897,4623.589743,3969.743590,4043.076923
255,4349.230769,4526.153846,4505.641025,4264.615384,4511.282051,4180.000000,4430.256410,4186.153846,4203.589743,4496.410256,4193.846153,4621.025641,3967.179488,4042.564102
256,4352.307692,4523.589743,4504.102564,4267.692307,4507.692307,4170.769230,4420.512820,4181.538461,4203.076923,4499.487179,4200.000000,4615.897435,3970.769231,4047.692307
257,4362.564102,4533.846153,4514.871794,4270.256410,4504.102564,4177.948717,4421.025641,4183.589743,4207.179487,4517.948717,4217.435897,4627.692307,3983.076924,4056.923076
258,4360.512820,4530.769230,4517.948717,4266.666666,4512.307692,4178.974358,4421.025641,4177.948717,4206.153846,4514.358974,4212.820512,4630.256410,3983.076924,4055.897435
259,4343.076923,4516.923076,4506.666666,4261.025641,4504.615384,4165.128205,4410.256410,4163.589743,4193.846153,4493.333333,4196.923076,4617.435897,3967.692308,4045.641025
