,AF3,F7,F3,FC5,T7,P7,O1,O2,P8,T8,FC6,F4,F8,AF4
0,4394.358974,4596.410256,4567.692307,4305.641025,4502.051282,4213.846153,4443.589743,4235.384615,4240.512820,4522.051282,4261.025641,4677.948717,4058.461538,4098.461538
1,4394.358974,4592.820512,4557.435897,4297.435897,4502.564102,4218.461538,4446.153846,4237.435897,4241.538461,4526.153846,4255.384615,4673.846153,4054.358974,4093.333333
2,4394.871794,4586.153846,4552.307692,4291.794871,4503.589743,4215.897435,4447.179487,4243.589743,4246.666666,4519.487179,4249.230769,4670.256410,4045.641025,4085.128205
3,4393.333333,4585.128205,4555.384615,4297.435897,4503.076923,4213.333333,4445.128205,4248.717948,4251.282051,4516.923076,4255.897435,4673.846153,4046.666666,4085.128205
4,4389.230769,4581.538461,4555.384615,4298.974358,4497.435897,4212.307692,4438.461538,4248.205128,4245.641025,4520.512820,4257.948717,4676.410256,4050.256410,4092.820512
5,4388.717948,4578.974358,4555.897435,4293.333333,4499.487179,4213.333333,4437.435897,4250.256410,4246.153846,4525.641025,4255.384615,4676.923076,4051.794871,4099.487179
6,4394.358974,4584.615384,4557.435897,4297.435897,4507.179487,4217.435897,4442.564102,4257.948717,4261.025641,4533.333333,4260.000000,4678.974358,4050.256410,4097.948717
7,4396.923076,4593.846153,4558.461538,4300.000000,4505.128205,4223.076923,4442.051282,4256.410256,4262.051282,4534.358974,4271.282051,4677.948717,4043.589743,4094.358974
8,4395.897435,4595.384615,4565.128205,4301.025641,4506.153846,4227.179487,4444.615384,4251.794871,4250.769230,4533.333333,4283.589743,4680.512820,4052.820512,4104.102564
9,4401.538461,4592.820512,4574.871794,4311.794871,4514.358974,4231.282051,4453.333333,4260.512820,4262.564102,4547.692307,4288.717948,4690.256410,4075.384615,4115.897435
10,4399.487179,4582.564102,4569.743589,4303.589743,4510.256410,4230.256410,4448.205128,4262.564102,4268.205128,4552.307692,4270.769230,4684.615384,4068.205128,4105.641025
11,4383.589743,4573.846153,4557.435897,4281.025641,4502.051282,4224.102564,4436.410256,4250.256410,4252.307692,4533.333333,4248.717948,4668.205128,4041.538461,4088.205128
12,4381.025641,4578.461538,4553.333333,4274.871794,4511.794871,4226.153846,4435.384615,4246.153846,4247.692307,4523.589743,4249.743589,4664.615384,4046.153846,4084.102564
13,4392.820512,4578.974358,4552.307692,4278.974358,4519.487179,4229.230769,4436.410256,4246.153846,4250.256410,4526.666666,4261.025641,4665.641025,4063.589743,4089.743589
14,4399.487179,4578.974358,4557.435897,4288.205128,4512.820512,4226.666666,4432.820512,4246.153846,4248.717948,4528.205128,4266.153846,4671.282051,4067.179487,4101.025641
15,4398.974358,4588.717948,4567.179487,4293.846153,4512.307692,4227.692307,4436.923076,4254.871794,4257.435897,4539.487179,4273.846153,4684.102564,4068.205128,4107.692307
16,4403.076923,4592.307692,4571.794871,4284.615384,4517.435897,4233.846153,4443.589743,4267.692307,4271.282051,4558.461538,4279.487179,4690.256410,4070.256410,4109.743589
17,4412.307692,4590.769230,4571.282051,4280.512820,4517.948717,4235.384615,4442.051282,4267.179487,4266.666666,4555.384615,4266.666666,4690.769230,4077.435897,4113.333333
18,4415.897435,4596.923076,4572.307692,4295.384615,4515.897435,4231.794871,4437.948717,4258.974358,4260.000000,4535.897435,4258.974358,4696.923076,4086.153846,4116.923076
19,4408.205128,4594.871794,4572.820512,4299.487179,4514.871794,4229.743589,4434.358974,4252.820512,4256.923076,4531.282051,4264.615384,4697.948717,4076.410256,4112.307692
20,4399.487179,4586.666666,4569.743589,4285.641025,4509.743589,4227.692307,4429.743589,4247.179487,4248.205128,4535.384615,4267.179487,4687.179487,4058.974358,4105.641025
21,4400.512820,4588.205128,4564.102564,4281.538461,4507.692307,4225.128205,4425.128205,4242.564102,4242.564102,4528.717948,4262.051282,4681.538461,4057.948717,4101.025641
22,4397.435897,4581.538461,4556.410256,4283.076923,4509.743589,4222.564102,4421.025641,4235.897435,4236.923076,4509.743589,4242.564102,4677.948717,4056.410256,4092.820512
23,4387.692307,4568.205128,4552.820512,4278.461538,4503.076923,4220.000000,4418.974358,4232.307692,4229.230769,4498.974358,4221.538461,4671.794871,4046.153846,4082.564102
24,4385.641025,4569.743589,4553.846153,4274.871794,4495.897435,4217.435897,4419.487179,4238.461538,4236.923076,4512.307692,4233.333333,4672.307692,4046.153846,4080.000000
25,4387.692307,4573.846153,4553.846153,4277.948717,4494.358974,4215.897435,4419.487179,4246.666666,4256.410256,4529.743589,4256.923076,4673.333333,4053.333333,4085.641025
26,4387.179487,4568.717948,4553.333333,4280.000000,4494.358974,4214.871794,4420.000000,4247.692307,4254.358974,4529.743589,4247.179487,4671.282051,4052.820512,4087.179487
27,4390.256410,4569.743589,4555.384615,4284.615384,4494.871794,4217.948717,4426.153846,4246.666666,4240.000000,4525.128205,4236.923076,4675.897435,4049.230769,4089.230769
28,4394.358974,4578.974358,4558.974358,4289.743589,4501.025641,4222.564102,4432.307692,4248.205128,4242.051282,4526.666666,4243.589743,4682.564102,4054.871794,4095.897435
29,4395.384615,4581.538461,4557.435897,4290.769230,4510.256410,4226.153846,4432.307692,4251.282051,4252.820512,4527.692307,4240.512820,4680.000000,4067.179487,4098.974358
30,4398.974358,4578.461538,4554.871794,4296.923076,4512.307692,4228.205128,4432.307692,4254.871794,4258.461538,4533.846153,4245.641025,4680.512820,4070.256410,4099.487179
31,4400.000000,4584.102564,4562.564102,4301.025641,4508.717948,4228.205128,4437.435897,4257.435897,4260.000000,4545.128205,4265.641025,4686.153846,4068.205128,4104.615384
32,4396.923076,4592.307692,4566.153846,4297.435897,4507.692307,4228.717948,4437.435897,4253.846153,4257.948717,4548.717948,4268.205128,4687.179487,4073.333333,4106.153846
33,4396.410256,4584.102564,4557.435897,4293.333333,4506.153846,4226.153846,4427.179487,4247.692307,4248.717948,4533.846153,4259.487179,4682.051282,4072.820512,4097.948717
34,4397.948717,4572.820512,4553.846153,4287.179487,4502.051282,4222.564102,4420.000000,4245.641025,4243.076923,4513.846153,4253.846153,4680.512820,4062.051282,4093.846153
35,4398.461538,4577.948717,4557.435897,4280.512820,4500.512820,4222.564102,4422.051282,4245.641025,4246.153846,4513.333333,4245.641025,4682.564102,4056.410256,4097.948717
36,4396.923076,4585.641025,4558.974358,4282.051282,4501.538461,4218.974358,4424.615384,4247.179487,4251.794871,4528.205128,4255.384615,4684.102564,4063.589743,4103.589743
37,4394.871794,4580.000000,4554.358974,4286.666666,4495.384615,4213.333333,4425.641025,4246.153846,4247.692307,4534.358974,4269.743589,4682.564102,4070.256410,4101.025641
38,4382.564102,4566.153846,4543.589743,4276.410256,4488.717948,4210.256410,4421.538461,4235.384615,4229.743589,4516.410256,4251.794871,4672.307692,4052.820512,4084.102564
39,4369.743589,4561.538461,4540.512820,4266.153846,4490.769230,4207.179487,4416.410256,4226.153846,4221.538461,4498.461538,4232.307692,4663.076923,4034.358974,4072.820512
40,4378.461538,4568.205128,4551.282051,4272.820512,4490.769230,4205.128205,4423.589743,4233.333333,4236.923076,4508.205128,4242.564102,4668.205128,4048.205128,4082.564102
41,4393.333333,4573.333333,4557.435897,4279.487179,4487.692307,4211.794871,4435.897435,4247.179487,4256.923076,4533.333333,4250.769230,4678.461538,4064.615384,4093.846153
42,4390.769230,4569.743589,4555.384615,4276.410256,4492.307692,4215.897435,4437.948717,4252.307692,4258.461538,4543.589743,4250.769230,4677.948717,4053.846153,4089.230769
43,4382.564102,4568.205128,4553.846153,4277.435897,4494.871794,4210.769230,4434.871794,4246.666666,4246.153846,4534.358974,4255.384615,4672.307692,4046.153846,4084.102564
44,4388.717948,4574.358974,4552.820512,4291.794871,4493.333333,4213.333333,4436.410256,4244.615384,4244.102564,4527.692307,4253.846153,4674.871794,4057.435897,4090.256410
45,4401.025641,4580.512820,4560.512820,4297.948717,4498.974358,4221.538461,4444.102564,4255.897435,4257.948717,4530.256410,4257.948717,4683.589743,4068.205128,4100.512820
46,4398.461538,4581.538461,4570.256410,4289.230769,4506.666666,4225.128205,4452.307692,4263.076923,4263.589743,4535.897435,4258.461538,4685.641025,4069.743589,4106.153846
47,4381.538461,4573.333333,4559.487179,4278.974358,4498.974358,4220.512820,4448.717948,4249.743589,4250.256410,4529.230769,4242.564102,4673.333333,4057.948717,4096.923076
48,4382.051282,4567.179487,4551.282051,4283.076923,4488.205128,4213.333333,4444.615384,4240.000000,4242.051282,4521.025641,4242.564102,4668.717948,4047.692307,4087.692307
49,4400.000000,4573.333333,4561.538461,4296.923076,4492.307692,4214.871794,4453.846153,4250.256410,4246.666666,4529.230769,4262.564102,4675.384615,4056.923076,4094.871794
50,4395.897435,4573.846153,4560.512820,4290.769230,4494.871794,4218.974358,4453.333333,4249.230769,4240.512820,4528.205128,4247.692307,4670.256410,4058.974358,4097.948717
51,4377.948717,4565.641025,4550.256410,4278.974358,4490.769230,4213.333333,4442.564102,4233.333333,4231.794871,4517.948717,4221.025641,4661.538461,4044.102564,4085.128205
52,4376.410256,4566.666666,4549.230769,4280.000000,4490.769230,4207.179487,4443.589743,4231.282051,4237.948717,4522.564102,4241.025641,4666.153846,4038.461538,4077.435897
53,4380.512820,4568.717948,4544.615384,4277.435897,4494.358974,4211.282051,4451.282051,4239.487179,4242.564102,4526.153846,4253.333333,4667.179487,4043.589743,4077.435897
54,4378.974358,4567.692307,4543.589743,4274.358974,4489.230769,4213.333333,4454.358974,4244.615384,4241.025641,4517.435897,4234.358974,4663.076923,4044.102564,4076.923076
55,4376.410256,4568.717948,4550.256410,4280.000000,4483.076923,4208.717948,4455.897435,4246.666666,4236.410256,4513.846153,4227.692307,4665.641025,4041.538461,4079.487179
56,4371.282051,4564.102564,4547.179487,4279.487179,4484.102564,4209.230769,4455.897435,4247.692307,4229.743589,4514.358974,4231.794871,4666.666666,4039.487179,4080.512820
57,4370.256410,4556.923076,4538.974358,4271.794871,4483.589743,4209.230769,4455.384615,4244.615384,4233.333333,4512.820512,4234.358974,4660.000000,4038.974358,4072.820512
58,4372.820512,4557.948717,4539.487179,4265.128205,4482.564102,4202.564102,4456.923076,4243.076923,4242.051282,4510.769230,4233.846153,4655.897435,4038.974358,4066.666666
59,4371.794871,4558.974358,4541.538461,4260.000000,4481.025641,4197.948717,4453.846153,4244.615384,4236.410256,4508.205128,4222.051282,4655.384615,4035.897435,4070.256410
60,4372.820512,4561.538461,4546.666666,4270.769230,4482.051282,4204.615384,4455.384615,4247.179487,4230.256410,4512.820512,4216.410256,4659.487179,4035.897435,4077.948717
61,4378.974358,4567.692307,4555.897435,4284.102564,4486.666666,4212.820512,4463.589743,4250.256410,4241.538461,4519.487179,4228.205128,4665.641025,4040.512820,4080.000000
62,4375.897435,4564.615384,4552.820512,4274.358974,4490.256410,4211.282051,4463.076923,4253.333333,4247.692307,4518.974358,4235.384615,4665.641025,4042.564102,4076.410256
63,4365.128205,4555.384615,4543.589743,4263.076923,4489.743589,4208.717948,4454.358974,4252.820512,4237.435897,4517.435897,4231.282051,4660.512820,4040.000000,4069.230769
64,4361.538461,4552.820512,4537.948717,4262.051282,4482.051282,4205.128205,4450.769230,4241.025641,4228.205128,4511.794871,4223.589743,4653.333333,4030.769230,4061.025641
65,4363.076923,4557.948717,4535.897435,4262.564102,4477.948717,4202.564102,4451.794871,4236.923076,4231.794871,4508.717948,4222.051282,4649.743589,4023.076923,4063.076923
66,4361.538461,4561.025641,4543.589743,4268.717948,4481.025641,4205.641025,4450.769230,4248.205128,4246.153846,4518.974358,4229.743589,4655.897435,4030.256410,4072.820512
67,4366.666666,4557.948717,4551.794871,4273.333333,4483.076923,4207.692307,4450.769230,4249.230769,4249.230769,4522.564102,4226.666666,4662.564102,4043.076923,4076.410256
68,4378.974358,4562.564102,4547.179487,4269.230769,4481.538461,4204.102564,4451.794871,4240.512820,4232.820512,4511.282051,4216.410256,4661.025641,4043.076923,4075.384615
69,4377.948717,4566.153846,4538.974358,4274.871794,4480.512820,4202.051282,4449.230769,4238.461538,4221.538461,4505.641025,4224.615384,4655.384615,4028.717948,4070.769230
70,4369.230769,4559.487179,4540.000000,4283.589743,4482.564102,4206.153846,4446.153846,4237.435897,4228.205128,4512.820512,4237.948717,4653.333333,4021.025641,4071.282051
71,4372.820512,4565.641025,4544.102564,4282.051282,4486.666666,4209.743589,4449.230769,4237.435897,4236.410256,4519.487179,4236.923076,4658.974358,4032.820512,4081.538461
72,4371.282051,4574.358974,4541.025641,4276.410256,4492.820512,4208.205128,4453.846153,4241.538461,4237.948717,4511.794871,4222.051282,4657.435897,4042.564102,4082.051282
73,4360.512820,4563.589743,4538.461538,4274.358974,4494.358974,4206.153846,4451.282051,4238.461538,4237.948717,4500.000000,4210.769230,4647.692307,4028.717948,4068.205128
74,4358.461538,4554.358974,4536.410256,4272.820512,4487.179487,4208.205128,4448.205128,4230.769230,4230.256410,4503.076923,4210.769230,4646.153846,4005.641025,4056.410256
75,4360.512820,4560.000000,4536.410256,4270.769230,4480.000000,4207.692307,4447.179487,4232.307692,4222.564102,4512.820512,4213.333333,4647.179487,4005.641025,4053.333333
76,4358.974358,4562.564102,4538.461538,4266.666666,4483.076923,4202.051282,4449.230769,4237.435897,4230.769230,4511.794871,4217.435897,4648.717948,4020.000000,4056.923076
77,4365.128205,4559.487179,4538.461538,4266.666666,4489.743589,4204.102564,4454.358974,4245.128205,4243.589743,4510.256410,4219.487179,4657.435897,4025.641025,4064.615384
78,4376.923076,4556.410256,4541.025641,4269.743589,4486.153846,4206.153846,4455.384615,4250.256410,4241.538461,4512.820512,4210.769230,4660.000000,4024.102564,4066.666666
79,4369.230769,4545.641025,4536.923076,4263.589743,4480.512820,4200.000000,4450.256410,4241.538461,4228.717948,4503.589743,4195.897435,4646.666666,4014.358974,4053.846153
80,4348.717948,4539.487179,4530.256410,4258.974358,4481.025641,4199.487179,4450.256410,4230.769230,4223.076923,4492.307692,4193.846153,4639.487179,4003.076923,4043.076923
81,4351.282051,4545.641025,4533.333333,4267.179487,4477.435897,4202.051282,4455.897435,4232.307692,4223.076923,4494.871794,4206.153846,4648.717948,4002.564102,4052.307692
82,4369.230769,4549.743589,4540.000000,4267.692307,4474.871794,4196.923076,4452.307692,4233.333333,4217.435897,4499.487179,4212.820512,4652.307692,4010.769230,4063.589743
83,4370.769230,4549.743589,4537.948717,4261.538461,4476.923076,4192.820512,4449.743589,4230.256410,4220.000000,4497.948717,4202.564102,4646.153846,4012.307692,4062.051282
84,4363.589743,4550.769230,4534.358974,4265.641025,4476.923076,4196.410256,4457.435897,4234.871794,4230.256410,4496.410256,4193.333333,4644.615384,4007.692307,4054.358974
85,4361.025641,4549.743589,4534.871794,4272.820512,4475.384615,4201.538461,4460.000000,4241.025641,4228.717948,4496.410256,4198.974358,4641.538461,4004.615384,4049.743589
86,4357.435897,4545.128205,4534.871794,4268.717948,4481.025641,4203.076923,4456.923076,4233.333333,4220.512820,4497.948717,4205.128205,4631.282051,4007.179487,4052.307692
87,4363.589743,4547.179487,4535.384615,4261.025641,4490.769230,4202.051282,4455.897435,4229.230769,4223.076923,4503.076923,4207.179487,4634.358974,4020.512820,4064.102564
88,4377.948717,4555.897435,4541.025641,4268.717948,4494.871794,4206.666666,4458.461538,4242.051282,4238.461538,4510.256410,4213.846153,4647.692307,4028.717948,4074.358974
89,4382.564102,4569.743589,4550.769230,4287.179487,4494.358974,4213.846153,4464.102564,4253.333333,4256.410256,4521.025641,4226.153846,4649.743589,4031.282051,4075.384615
90,4383.589743,4577.435897,4557.435897,4290.256410,4494.871794,4208.205128,4464.102564,4251.794871,4257.948717,4531.794871,4230.769230,4648.717948,4044.102564,4077.435897
91,4381.025641,4570.256410,4552.307692,4280.000000,4493.333333,4204.615384,4456.410256,4246.153846,4243.589743,4529.743589,4223.589743,4650.256410,4048.205128,4078.461538
92,4370.256410,4562.564102,4543.076923,4276.923076,4491.282051,4209.743589,4451.282051,4237.435897,4232.820512,4516.410256,4225.641025,4641.025641,4028.205128,4071.282051
93,4367.179487,4564.102564,4536.410256,4276.410256,4493.846153,4207.692307,4452.820512,4232.307692,4232.820512,4510.256410,4233.333333,4631.282051,4017.435897,4065.128205
94,4377.948717,4565.641025,4541.025641,4276.410256,4494.871794,4206.153846,4455.897435,4239.487179,4242.051282,4518.974358,4232.820512,4636.410256,4037.948717,4071.282051
95,4382.051282,4567.692307,4550.256410,4287.179487,4491.282051,4209.230769,4457.948717,4245.128205,4249.743589,4527.179487,4231.282051,4644.102564,4047.692307,4077.435897
96,4377.948717,4571.794871,4546.666666,4290.256410,4492.307692,4206.666666,4456.923076,4242.564102,4245.128205,4521.538461,4230.769230,4641.538461,4032.307692,4072.820512
97,4378.461538,4568.205128,4537.435897,4281.025641,4489.743589,4198.461538,4454.871794,4240.512820,4237.948717,4513.846153,4223.589743,4633.333333,4025.128205,4067.692307
98,4373.846153,4559.487179,4535.897435,4274.871794,4480.000000,4193.333333,4454.358974,4236.923076,4237.948717,4513.846153,4220.512820,4629.230769,4033.846153,4068.205128
99,4368.717948,4558.461538,4538.461538,4277.948717,4479.487179,4193.846153,4455.384615,4233.846153,4236.410256,4510.769230,4223.076923,4629.230769,4038.461538,4070.256410
100,4374.871794,4566.666666,4540.512820,4282.051282,4491.282051,4199.487179,4461.025641,4237.948717,4235.897435,4508.717948,4228.717948,4630.256410,4030.256410,4069.230769
101,4380.512820,4569.230769,4542.051282,4286.666666,4492.820512,4207.692307,4466.666666,4240.000000,4240.512820,4515.897435,4227.179487,4631.794871,4024.615384,4067.692307
102,4371.794871,4564.615384,4540.512820,4290.769230,4488.717948,4208.205128,4463.076923,4234.871794,4237.948717,4517.435897,4212.307692,4627.692307,4028.205128,4064.102564
103,4363.076923,4567.179487,4541.025641,4286.666666,4491.794871,4205.641025,4460.512820,4232.820512,4232.307692,4508.205128,4218.461538,4622.051282,4031.282051,4063.589743
104,4371.794871,4572.307692,4550.769230,4284.102564,4492.820512,4205.641025,4466.153846,4239.487179,4242.564102,4509.743589,4242.564102,4627.692307,4032.820512,4069.743589
105,4382.051282,4573.846153,4553.846153,4292.820512,4490.256410,4207.692307,4464.102564,4244.615384,4254.358974,4522.051282,4237.948717,4636.923076,4032.307692,4072.307692
106,4377.435897,4572.307692,4544.102564,4292.307692,4491.282051,4203.076923,4455.384615,4237.948717,4242.564102,4516.410256,4218.974358,4628.717948,4028.717948,4067.179487
107,4373.846153,4568.205128,4540.000000,4278.974358,4489.230769,4196.410256,4458.974358,4227.692307,4229.743589,4501.538461,4216.923076,4617.948717,4025.641025,4061.538461
108,4380.000000,4567.179487,4540.000000,4280.000000,4483.076923,4200.000000,4464.615384,4230.769230,4235.897435,4504.102564,4214.871794,4618.974358,4027.179487,4063.589743
109,4382.051282,4569.743589,4541.538461,4283.076923,4484.615384,4202.564102,4460.000000,4235.897435,4243.589743,4511.794871,4214.871794,4619.487179,4026.666666,4065.641025
110,4374.871794,4568.205128,4548.717948,4277.435897,4487.692307,4201.025641,4460.512820,4234.358974,4240.512820,4504.615384,4218.974358,4616.410256,4021.025641,4063.076923
111,4369.743589,4560.512820,4546.153846,4281.025641,4485.128205,4201.538461,4464.102564,4231.282051,4234.358974,4497.435897,4212.820512,4614.871794,4020.000000,4061.025641
112,4366.153846,4557.435897,4536.923076,4282.051282,4483.076923,4199.487179,4463.076923,4229.230769,4232.820512,4505.128205,4208.717948,4613.846153,4026.666666,4062.564102
113,4369.743589,4560.000000,4544.102564,4277.948717,4481.538461,4197.948717,4463.589743,4232.820512,4239.487179,4514.871794,4212.307692,4614.871794,4029.743589,4065.128205
114,4376.410256,4561.538461,4552.307692,4278.974358,4483.589743,4200.000000,4464.615384,4237.435897,4240.512820,4512.307692,4212.307692,4618.974358,4023.076923,4064.615384
115,4371.282051,4557.435897,4541.538461,4273.333333,4485.128205,4199.487179,4459.487179,4229.743589,4230.256410,4499.487179,4207.692307,4617.435897,4018.974358,4060.000000
116,4359.487179,4550.256410,4535.384615,4258.974358,4478.974358,4190.256410,4453.846153,4222.051282,4227.179487,4492.307692,4208.717948,4613.333333,4026.666666,4054.871794
117,4365.641025,4555.897435,4546.153846,4263.076923,4475.384615,4190.769230,4455.384615,4229.743589,4233.846153,4503.076923,4217.948717,4616.923076,4030.256410,4060.000000
118,4381.538461,4563.076923,4557.435897,4278.461538,4482.564102,4202.564102,4464.102564,4239.487179,4241.025641,4516.923076,4230.769230,4628.717948,4024.615384,4073.333333
119,4380.512820,4560.512820,4557.435897,4274.871794,4490.256410,4206.666666,4470.256410,4235.897435,4239.487179,4511.282051,4222.051282,4633.846153,4027.179487,4071.794871
120,4370.769230,4558.974358,4552.307692,4262.051282,4486.666666,4201.025641,4469.230769,4232.307692,4230.256410,4497.435897,4197.948717,4623.589743,4037.435897,4061.538461
121,4372.820512,4562.564102,4552.307692,4261.538461,4481.025641,4200.000000,4470.256410,4234.358974,4229.230769,4500.512820,4196.923076,4617.948717,4035.897435,4062.051282
122,4375.384615,4554.871794,4550.769230,4268.205128,4486.666666,4204.102564,4471.282051,4233.333333,4233.333333,4507.692307,4207.692307,4618.461538,4017.435897,4061.025641
123,4369.230769,4544.102564,4540.512820,4266.666666,4488.717948,4200.000000,4467.179487,4231.282051,4228.717948,4500.512820,4202.564102,4616.410256,4007.179487,4052.307692
124,4371.794871,4551.794871,4537.435897,4262.051282,4480.512820,4192.307692,4465.641025,4231.794871,4226.153846,4494.871794,4197.435897,4617.435897,4022.051282,4057.435897
125,4378.974358,4556.923076,4546.666666,4260.512820,4479.487179,4194.358974,4467.692307,4232.307692,4230.256410,4499.487179,4207.179487,4621.025641,4030.256410,4066.153846
126,4373.846153,4549.743589,4551.794871,4259.487179,4483.589743,4201.025641,4468.205128,4230.256410,4227.179487,4505.128205,4204.102564,4621.538461,4018.974358,4060.512820
127,4371.282051,4550.256410,4552.307692,4265.128205,4483.589743,4202.051282,4468.205128,4231.282051,4223.589743,4507.692307,4200.000000,4627.179487,4017.948717,4061.025641
128,4380.512820,4552.820512,4552.307692,4267.692307,4483.589743,4192.820512,4466.153846,4230.256410,4231.794871,4509.230769,4218.974358,4634.358974,4030.256410,4070.256410
129,4385.128205,4548.205128,4550.256410,4265.641025,4480.000000,4185.641025,4461.025641,4227.692307,4238.461538,4508.717948,4231.282051,4631.794871,4032.307692,4071.282051
130,4381.538461,4547.692307,4552.307692,4264.615384,4473.333333,4190.256410,4462.564102,4230.256410,4231.282051,4506.666666,4218.974358,4629.743589,4029.743589,4070.256410
131,4378.461538,4550.256410,4554.358974,4257.435897,4474.358974,4194.358974,4468.205128,4225.641025,4218.974358,4507.179487,4203.076923,4631.282051,4031.794871,4070.256410
132,4374.358974,4548.205128,4544.615384,4251.794871,4482.051282,4193.846153,4467.179487,4218.974358,4217.948717,4506.153846,4203.076923,4624.615384,4026.153846,4063.076923
133,4369.230769,4548.205128,4538.974358,4259.487179,4484.615384,4194.358974,4461.538461,4223.589743,4227.692307,4504.615384,4215.897435,4616.923076,4018.461538,4058.461538
134,4368.205128,4550.769230,4550.256410,4268.205128,4483.589743,4197.948717,4461.538461,4230.256410,4234.871794,4507.692307,4227.692307,4620.000000,4021.025641,4064.615384
135,4371.794871,4549.230769,4556.923076,4261.025641,4482.564102,4198.974358,4464.615384,4228.717948,4232.820512,4513.846153,4216.410256,4624.102564,4024.615384,4065.641025
136,4377.435897,4552.820512,4551.282051,4251.282051,4480.512820,4193.846153,4461.025641,4229.230769,4224.102564,4510.256410,4200.000000,4623.076923,4022.564102,4060.512820
137,4380.000000,4557.435897,4550.256410,4253.333333,4475.384615,4192.820512,4459.487179,4233.333333,4222.051282,4508.717948,4204.615384,4625.128205,4023.076923,4063.589743
138,4378.461538,4553.846153,4556.410256,4260.512820,4473.846153,4194.871794,4464.102564,4231.794871,4228.717948,4516.923076,4215.384615,4628.717948,4031.282051,4072.307692
139,4376.410256,4543.589743,4553.333333,4263.589743,4479.487179,4194.871794,4465.128205,4227.179487,4227.692307,4509.230769,4220.512820,4624.615384,4032.307692,4069.743589
140,4373.846153,4538.461538,4542.564102,4260.512820,4478.461538,4192.820512,4462.051282,4225.128205,4221.025641,4492.820512,4214.358974,4616.923076,4021.538461,4056.923076
141,4376.410256,4545.641025,4544.615384,4256.410256,4475.897435,4191.282051,4466.153846,4231.794871,4224.102564,4500.512820,4203.589743,4617.435897,4014.871794,4055.384615
142,4374.358974,4545.128205,4547.179487,4246.153846,4475.384615,4191.282051,4467.692307,4234.871794,4229.743589,4515.384615,4199.487179,4617.948717,4011.794871,4056.410256
143,4364.102564,4535.384615,4540.000000,4242.564102,4471.794871,4192.307692,4462.564102,4229.743589,4226.666666,4510.256410,4203.076923,4614.358974,4008.717948,4048.205128
144,4363.589743,4538.461538,4544.615384,4260.512820,4472.820512,4193.333333,4463.589743,4229.743589,4227.179487,4506.153846,4206.666666,4612.820512,4011.794871,4046.153846
145,4372.820512,4549.743589,4552.307692,4270.256410,4475.384615,4193.333333,4465.641025,4233.333333,4231.794871,4506.666666,4203.076923,4614.358974,4012.307692,4050.256410
146,4372.820512,4547.692307,4546.666666,4256.410256,4474.871794,4192.307692,4461.538461,4229.743589,4231.794871,4504.102564,4199.487179,4615.384615,4010.769230,4049.230769
147,4372.307692,4546.666666,4544.102564,4249.743589,4473.846153,4192.820512,4458.974358,4225.128205,4225.641025,4510.256410,4203.589743,4615.897435,4016.923076,4048.717948
148,4378.974358,4557.948717,4553.846153,4263.589743,4477.435897,4195.384615,4464.102564,4230.769230,4227.692307,4521.538461,4210.769230,4622.051282,4027.692307,4058.974358
149,4375.384615,4558.461538,4554.871794,4266.153846,4479.487179,4195.897435,4465.128205,4233.333333,4235.897435,4520.512820,4208.717948,4624.102564,4027.692307,4066.666666
150,4365.641025,4547.692307,4545.641025,4252.307692,4476.923076,4188.717948,4455.384615,4221.538461,4223.589743,4506.153846,4198.974358,4617.435897,4016.923076,4060.512820
151,4371.282051,4545.641025,4542.051282,4244.615384,4476.410256,4187.179487,4451.282051,4210.769230,4210.256410,4498.461538,4196.410256,4614.871794,4009.743589,4053.846153
152,4382.051282,4550.256410,4549.230769,4252.307692,4475.897435,4190.769230,4460.512820,4218.974358,4223.589743,4510.769230,4207.179487,4623.076923,4016.923076,4059.487179
153,4379.487179,4548.205128,4554.871794,4261.025641,4472.820512,4188.205128,4464.102564,4228.717948,4235.384615,4521.025641,4215.897435,4625.128205,4026.666666,4064.102564
154,4371.282051,4546.153846,4549.743589,4256.410256,4473.333333,4188.205128,4456.410256,4221.538461,4224.102564,4507.692307,4210.769230,4618.974358,4022.564102,4060.512820
155,4369.743589,4550.769230,4543.589743,4255.384615,4476.410256,4189.230769,4453.846153,4214.358974,4213.846153,4490.769230,4206.153846,4613.333333,4012.820512,4058.974358
156,4365.128205,4544.615384,4537.948717,4254.358974,4471.282051,4183.589743,4452.820512,4212.820512,4213.333333,4486.666666,4195.897435,4605.128205,4004.615384,4055.384615
157,4360.000000,4535.897435,4535.897435,4247.179487,4471.282051,4184.615384,4450.256410,4213.333333,4214.358974,4491.794871,4182.564102,4603.076923,4002.564102,4049.743589
158,4367.692307,4546.153846,4546.666666,4260.000000,4486.153846,4200.000000,4460.512820,4223.589743,4224.615384,4507.692307,4195.384615,4616.410256,4015.384615,4057.948717
159,4384.102564,4562.051282,4558.461538,4278.461538,4490.769230,4208.717948,4472.820512,4230.256410,4228.717948,4516.923076,4219.487179,4628.205128,4024.615384,4069.743589
160,4388.205128,4562.564102,4558.461538,4268.717948,4485.128205,4203.076923,4470.769230,4222.564102,4222.564102,4510.256410,4218.974358,4627.179487,4022.564102,4069.230769
161,4375.384615,4551.282051,4551.282051,4253.333333,4480.000000,4196.410256,4463.076923,4215.384615,4221.538461,4498.974358,4204.102564,4617.435897,4021.538461,4063.076923
162,4368.717948,4543.076923,4549.230769,4258.461538,4474.871794,4192.307692,4458.974358,4216.923076,4222.051282,4496.410256,4199.487179,4613.846153,4018.461538,4062.564102
163,4380.000000,4547.692307,4554.358974,4264.102564,4471.282051,4189.743589,4460.000000,4217.948717,4217.948717,4502.051282,4207.179487,4616.410256,4014.871794,4068.717948
164,4381.025641,4553.846153,4553.333333,4262.564102,4470.769230,4189.743589,4458.461538,4217.435897,4213.333333,4498.974358,4206.153846,4611.282051,4015.897435,4067.179487
165,4362.564102,4545.128205,4543.076923,4253.333333,4472.307692,4185.641025,4451.794871,4215.384615,4211.794871,4488.717948,4188.717948,4597.948717,4011.794871,4053.846153
166,4355.384615,4537.948717,4536.410256,4241.025641,4469.743589,4179.487179,4449.230769,4213.333333,4210.256410,4487.692307,4187.692307,4596.923076,4000.000000,4049.230769
167,4371.282051,4543.589743,4541.025641,4249.230769,4467.692307,4183.589743,4453.846153,4217.435897,4215.384615,4498.461538,4205.641025,4609.230769,4004.102564,4061.025641
168,4376.923076,4540.512820,4542.051282,4265.128205,4470.256410,4192.820512,4456.923076,4220.000000,4219.487179,4501.025641,4205.128205,4610.769230,4012.307692,4061.025641
169,4365.128205,4532.820512,4537.948717,4262.564102,4477.435897,4191.282051,4455.384615,4215.897435,4217.435897,4493.846153,4191.794871,4601.538461,4007.179487,4049.743589
170,4365.641025,4542.051282,4537.435897,4248.205128,4478.461538,4189.230769,4455.384615,4216.923076,4223.589743,4492.820512,4185.641025,4601.538461,4003.076923,4052.307692
171,4376.410256,4550.769230,4541.025641,4244.102564,4472.820512,4194.871794,4455.384615,4224.102564,4229.230769,4496.923076,4187.179487,4610.256410,4003.076923,4064.102564
172,4378.461538,4545.641025,4545.128205,4257.435897,4472.307692,4193.846153,4454.871794,4223.589743,4218.974358,4496.923076,4191.282051,4614.871794,4005.641025,4067.179487
173,4373.846153,4542.051282,4545.128205,4267.692307,4471.794871,4185.641025,4453.846153,4217.948717,4216.410256,4493.846153,4191.282051,4614.871794,4009.230769,4062.051282
174,4369.743589,4542.564102,4540.000000,4257.948717,4467.179487,4183.589743,4454.358974,4216.923076,4228.205128,4498.974358,4189.230769,4615.897435,4008.205128,4057.948717
175,4364.615384,4538.974358,4536.410256,4246.666666,4469.743589,4186.153846,4453.846153,4219.487179,4224.102564,4497.435897,4187.179487,4612.820512,4002.051282,4056.410256
176,4366.666666,4539.487179,4538.974358,4249.743589,4474.871794,4189.230769,4454.871794,4223.589743,4218.461538,4488.717948,4183.589743,4609.230769,4005.128205,4058.974358
177,4373.333333,4546.666666,4542.051282,4254.358974,4471.282051,4191.794871,4456.410256,4224.615384,4226.153846,4492.307692,4186.153846,4610.256410,4010.256410,4061.538461
178,4371.282051,4544.102564,4539.487179,4258.461538,4467.692307,4190.769230,4453.333333,4219.487179,4223.076923,4496.923076,4195.897435,4608.717948,4002.564102,4056.923076
179,4362.564102,4533.333333,4538.461538,4265.128205,4472.307692,4190.256410,4451.794871,4215.384615,4213.333333,4490.256410,4197.948717,4605.641025,3997.948718,4053.333333
180,4356.410256,4529.743589,4538.974358,4259.487179,4474.871794,4191.282051,4449.743589,4211.794871,4211.794871,4481.538461,4185.641025,4603.076923,3999.487180,4052.820512
181,4362.564102,4533.846153,4538.974358,4247.692307,4472.307692,4185.641025,4444.102564,4201.538461,4206.666666,4480.512820,4177.435897,4600.512820,3994.871795,4052.307692
182,4375.384615,4538.974358,4537.948717,4247.179487,4465.641025,4178.461538,4443.076923,4196.410256,4206.666666,4483.589743,4185.641025,4604.615384,3991.282052,4057.435897
183,4372.820512,4538.974358,4538.461538,4255.897435,4461.025641,4175.897435,4446.666666,4207.179487,4223.589743,4485.641025,4189.230769,4607.179487,3998.461539,4058.974358
184,4361.538461,4537.435897,4538.461538,4262.051282,4466.666666,4179.487179,4444.615384,4212.820512,4224.102564,4482.051282,4180.000000,4603.076923,4001.538461,4055.384615
185,4366.153846,4541.025641,4538.461538,4261.538461,4476.923076,4186.666666,4441.025641,4206.666666,4208.717948,4479.487179,4184.615384,4607.179487,3994.358975,4056.923076
186,4374.358974,4547.692307,4541.538461,4263.589743,4476.923076,4187.692307,4441.538461,4206.666666,4211.794871,4488.205128,4189.743589,4615.384615,3992.820513,4060.000000
187,4373.333333,4548.717948,4542.564102,4267.692307,4470.769230,4186.153846,4440.000000,4215.897435,4217.435897,4487.179487,4177.435897,4613.333333,4000.512820,4056.923076
188,4373.846153,4546.666666,4542.051282,4271.282051,4469.743589,4186.153846,4437.948717,4218.461538,4209.230769,4479.487179,4178.974358,4612.820512,4011.282051,4061.025641
189,4374.871794,4549.230769,4544.615384,4272.820512,4473.333333,4185.641025,4438.974358,4213.846153,4213.333333,4484.615384,4194.358974,4618.461538,4009.743589,4069.230769
190,4371.282051,4547.692307,4546.153846,4265.641025,4473.846153,4185.128205,4435.384615,4216.923076,4235.384615,4500.000000,4197.435897,4618.974358,3996.410257,4064.102564
191,4366.666666,4538.461538,4542.051282,4256.410256,4471.282051,4185.641025,4428.717948,4218.461538,4234.871794,4502.564102,4192.307692,4614.358974,3995.897436,4053.333333
192,4366.153846,4536.410256,4537.948717,4261.538461,4470.256410,4186.153846,4424.615384,4216.923076,4217.948717,4490.769230,4187.179487,4607.692307,4006.153846,4056.923076
193,4367.692307,4543.076923,4540.512820,4268.205128,4468.205128,4186.153846,4425.641025,4219.487179,4216.923076,4484.615384,4190.769230,4604.102564,3998.974359,4066.153846
194,4364.102564,4539.487179,4540.000000,4260.000000,4468.717948,4186.153846,4426.153846,4217.435897,4218.974358,4486.666666,4195.897435,4604.615384,3986.666667,4065.128205
195,4361.025641,4532.820512,4537.435897,4256.923076,4474.358974,4187.692307,4422.051282,4215.897435,4221.538461,4492.820512,4189.230769,4603.589743,3997.435898,4060.000000
196,4369.743589,4542.051282,4539.487179,4269.743589,4475.384615,4192.307692,4421.025641,4223.589743,4234.871794,4501.538461,4185.641025,4604.615384,4011.282051,4063.589743
197,4379.487179,4549.743589,4542.051282,4278.461538,4473.846153,4191.282051,4420.000000,4226.153846,4236.923076,4501.538461,4199.487179,4613.333333,4006.153846,4069.230769
198,4374.871794,4545.128205,4542.051282,4273.333333,4475.384615,4187.692307,4413.333333,4216.410256,4218.974358,4489.743589,4207.692307,4614.871794,4000.512820,4070.769230
199,4367.692307,4544.615384,4538.974358,4257.948717,4474.358974,4190.256410,4408.205128,4211.794871,4210.256410,4482.564102,4197.435897,4606.153846,4004.102564,4068.717948
200,4373.333333,4552.820512,4540.000000,4258.974358,4473.333333,4188.717948,4410.769230,4215.384615,4220.512820,4491.794871,4190.769230,4607.692307,4009.743589,4068.205128
201,4382.051282,4556.923076,4549.743589,4280.512820,4475.384615,4189.743589,4414.871794,4222.564102,4226.666666,4502.564102,4193.846153,4616.410256,4013.333333,4072.820512
202,4383.076923,4552.307692,4554.358974,4288.717948,4476.410256,4198.461538,4414.871794,4228.717948,4229.230769,4501.538461,4201.538461,4618.974358,4013.846153,4073.333333
203,4377.435897,4550.256410,4545.641025,4274.358974,4476.410256,4195.897435,4412.307692,4225.128205,4237.435897,4497.435897,4211.794871,4614.871794,4011.794871,4065.641025
204,4373.333333,4552.820512,4538.974358,4260.000000,4476.410256,4183.076923,4410.769230,4216.923076,4235.897435,4498.461538,4205.641025,4613.846153,4001.538461,4062.051282
205,4375.384615,4548.717948,4541.025641,4261.538461,4470.256410,4183.076923,4408.717948,4216.923076,4220.512820,4497.435897,4177.435897,4614.358974,3991.282052,4064.615384
206,4374.871794,4544.615384,4538.974358,4263.589743,4463.589743,4188.205128,4406.666666,4220.000000,4216.410256,4489.230769,4163.076923,4612.820512,3995.897436,4064.615384
207,4374.358974,4546.153846,4538.974358,4265.641025,4462.051282,4179.487179,4409.743589,4221.538461,4232.307692,4491.794871,4185.128205,4615.384615,4004.615384,4062.051282
208,4368.717948,4537.435897,4541.538461,4267.179487,4461.025641,4175.384615,4409.743589,4216.410256,4227.179487,4497.435897,4211.794871,4613.333333,3998.461539,4061.025641
209,4360.512820,4524.615384,4539.487179,4254.358974,4464.615384,4182.564102,4401.025641,4207.692307,4204.102564,4486.666666,4203.589743,4606.153846,3989.743590,4056.923076
210,4363.076923,4533.846153,4536.923076,4243.076923,4466.666666,4183.076923,4398.461538,4209.743589,4204.615384,4477.948717,4171.282051,4603.589743,3994.358975,4052.820512
211,4369.743589,4543.589743,4537.948717,4255.384615,4462.051282,4177.948717,4396.923076,4215.384615,4214.871794,4482.051282,4168.717948,4604.615384,3989.743590,4054.358974
212,4367.179487,4535.897435,4537.435897,4270.256410,4458.461538,4177.948717,4386.666666,4213.333333,4211.794871,4486.666666,4200.000000,4603.076923,3980.512821,4059.487179
213,4361.025641,4534.871794,4536.410256,4260.000000,4461.538461,4178.461538,4378.974358,4211.282051,4214.358974,4490.769230,4206.153846,4602.564102,3988.205129,4058.974358
214,4358.974358,4537.435897,4529.743589,4247.179487,4463.076923,4175.897435,4375.384615,4211.794871,4222.051282,4491.794871,4183.076923,4602.051282,3992.307693,4053.333333
215,4355.384615,4530.256410,4521.538461,4247.179487,4456.923076,4174.871794,4371.282051,4208.205128,4218.974358,4486.666666,4177.948717,4598.461538,3984.615385,4052.307692
216,4353.846153,4528.205128,4526.666666,4251.794871,4458.974358,4176.923076,4373.846153,4209.230769,4215.897435,4484.615384,4178.974358,4600.512820,3983.589744,4057.435897
217,4360.512820,4535.897435,4537.948717,4258.974358,4468.717948,4181.025641,4380.000000,4215.384615,4220.512820,4487.179487,4173.333333,4608.717948,3992.307693,4060.512820
218,4371.794871,4542.051282,4539.487179,4257.948717,4469.230769,4187.179487,4378.461538,4212.820512,4221.025641,4491.794871,4185.128205,4613.333333,4004.615384,4063.076923
219,4375.897435,4540.000000,4536.923076,4250.256410,4465.128205,4186.153846,4372.820512,4208.717948,4216.410256,4496.410256,4200.000000,4615.897435,4011.794871,4064.102564
220,4371.282051,4535.897435,4538.461538,4249.743589,4466.153846,4183.076923,4372.820512,4207.179487,4216.923076,4491.794871,4194.358974,4617.435897,3998.974359,4064.102564
221,4374.358974,4540.000000,4538.461538,4252.307692,4469.230769,4184.615384,4372.820512,4202.564102,4217.435897,4481.538461,4185.128205,4616.923076,3994.871795,4064.102564
222,4380.000000,4546.666666,4538.461538,4250.256410,4469.230769,4185.641025,4373.846153,4202.564102,4214.358974,4482.564102,4183.589743,4617.435897,4017.435897,4063.589743
223,4377.948717,4545.128205,4541.025641,4250.256410,4468.717948,4181.025641,4376.923076,4207.692307,4211.282051,4493.333333,4185.128205,4616.410256,4022.564102,4062.564102
224,4372.820512,4537.948717,4536.923076,4250.769230,4467.179487,4176.923076,4375.897435,4205.641025,4211.282051,4494.358974,4188.205128,4613.333333,4003.589743,4060.512820
225,4370.769230,4534.358974,4537.948717,4251.794871,4465.128205,4177.948717,4377.435897,4201.025641,4211.282051,4488.717948,4196.410256,4616.410256,4000.512820,4060.000000
226,4376.410256,4541.025641,4550.256410,4260.512820,4468.717948,4186.153846,4388.717948,4209.230769,4213.846153,4493.333333,4207.179487,4624.615384,4019.487179,4067.692307
227,4384.615384,4552.820512,4551.282051,4262.051282,4474.871794,4193.333333,4401.025641,4217.435897,4223.589743,4506.153846,4201.538461,4627.692307,4027.692307,4075.384615
228,4380.000000,4547.179487,4540.000000,4250.769230,4472.820512,4188.205128,4400.512820,4210.256410,4223.589743,4506.666666,4185.128205,4621.538461,4013.846153,4065.128205
229,4373.333333,4531.794871,4536.923076,4250.769230,4467.692307,4179.487179,4392.820512,4202.051282,4209.743589,4493.846153,4189.230769,4615.384615,4001.538461,4053.333333
230,4374.871794,4527.692307,4538.974358,4260.000000,4467.692307,4182.051282,4396.410256,4203.076923,4205.128205,4485.641025,4202.564102,4615.384615,4004.615384,4054.358974
231,4371.794871,4529.743589,4536.923076,4250.256410,4467.692307,4187.179487,4406.153846,4212.307692,4218.461538,4491.282051,4197.948717,4618.974358,4011.794871,4057.948717
232,4366.153846,4525.128205,4534.871794,4229.230769,4460.512820,4182.051282,4402.051282,4217.435897,4223.076923,4496.923076,4182.051282,4619.487179,4011.794871,4056.410256
233,4360.000000,4512.820512,4527.179487,4227.692307,4456.923076,4172.820512,4387.692307,4202.051282,4205.128205,4484.615384,4168.205128,4608.205128,3997.948718,4043.589743
234,4354.871794,4513.333333,4518.974358,4245.128205,4460.512820,4172.820512,4387.179487,4190.256410,4195.897435,4478.974358,4171.794871,4598.461538,3984.615385,4035.384615
235,4364.102564,4527.692307,4527.179487,4250.769230,4464.102564,4178.974358,4398.974358,4203.076923,4210.769230,4495.384615,4190.256410,4607.179487,3996.410257,4047.179487
236,4374.358974,4530.256410,4538.461538,4245.641025,4464.615384,4184.102564,4400.000000,4215.384615,4220.512820,4502.051282,4196.410256,4618.461538,4012.820512,4058.974358
237,4371.282051,4524.615384,4538.461538,4248.205128,4463.076923,4182.051282,4394.358974,4211.282051,4213.846153,4494.358974,4190.256410,4616.410256,4011.794871,4056.923076
238,4369.230769,4529.230769,4536.923076,4251.794871,4463.589743,4183.589743,4399.487179,4210.769230,4213.846153,4495.897435,4192.820512,4615.384615,4001.538461,4055.897435
239,4369.743589,4530.769230,4531.282051,4246.666666,4468.205128,4186.666666,4402.564102,4206.666666,4211.794871,4497.435897,4189.743589,4617.948717,3995.384616,4055.384615
240,4366.153846,4523.076923,4523.076923,4242.564102,4468.717948,4183.076923,4395.897435,4193.333333,4195.897435,4486.666666,4184.102564,4615.384615,4001.538461,4051.282051
241,4369.230769,4528.205128,4529.230769,4249.230769,4465.641025,4184.102564,4397.948717,4194.871794,4198.461538,4488.717948,4195.897435,4618.461538,4012.307692,4050.256410
242,4378.974358,4539.487179,4540.000000,4257.948717,4466.666666,4187.692307,4406.153846,4208.205128,4215.897435,4505.641025,4206.153846,4624.615384,4010.256410,4054.358974
243,4378.974358,4535.384615,4540.000000,4252.820512,4466.153846,4183.076923,4407.179487,4210.769230,4217.948717,4504.615384,4200.000000,4625.128205,4006.666666,4064.102564
244,4374.358974,4523.076923,4537.435897,4241.538461,4462.564102,4178.974358,4403.589743,4213.333333,4216.923076,4495.384615,4193.333333,4627.692307,4012.307692,4067.179487
245,4375.897435,4524.615384,4537.435897,4248.205128,4464.615384,4182.564102,4402.051282,4215.897435,4220.000000,4495.384615,4190.769230,4627.179487,4010.769230,4058.461538
246,4381.025641,4536.410256,4535.384615,4263.589743,4469.230769,4185.128205,4403.589743,4210.256410,4209.230769,4494.358974,4188.717948,4621.025641,4000.512820,4057.435897
247,4381.538461,4536.410256,4537.948717,4268.717948,4463.076923,4184.615384,4403.589743,4203.076923,4201.025641,4488.717948,4195.384615,4621.025641,3998.974359,4063.589743
248,4374.871794,4525.641025,4535.897435,4258.974358,4457.435897,4182.564102,4398.974358,4200.512820,4202.051282,4486.153846,4201.538461,4623.589743,4001.025641,4056.410256
249,4367.179487,4523.076923,4525.128205,4247.179487,4462.051282,4177.948717,4394.358974,4198.461538,4198.461538,4480.512820,4191.794871,4615.897435,3997.948718,4043.076923
250,4368.717948,4531.794871,4528.205128,4253.333333,4461.538461,4180.000000,4398.974358,4201.538461,4206.153846,4480.000000,4184.102564,4612.820512,3994.358975,4047.692307
251,4376.410256,4537.948717,4536.923076,4265.128205,4458.461538,4183.589743,4404.615384,4208.205128,4217.948717,4492.307692,4193.846153,4619.487179,3993.333334,4056.410256
252,4374.871794,4526.666666,4529.743589,4256.923076,4460.512820,4180.512820,4403.076923,4201.538461,4206.666666,4495.384615,4193.333333,4618.461538,3993.333334,4047.692307
253,4365.128205,4517.948717,4521.025641,4242.051282,4463.076923,4178.974358,4405.128205,4195.897435,4190.769230,4487.179487,4178.461538,4610.256410,3990.769231,4039.487179
254,4361.538461,4521.025641,4525.641025,4241.025641,4462.051282,4185.641025,4413.333333,4209.230769,4202.051282,4487.179487,4186.666666,4611.282051,3990.769231,4046.153846
255,4370.769230,4523.076923,4536.923076,4250.256410,4464.615384,4187.692307,4420.000000,4224.615384,4226.153846,4496.923076,4204.615384,4625.128205,4000.000000,4057.435897
