,AF3,F7,F3,FC5,T7,P7,O1,O2,P8,T8,FC6,F4,F8,AF4
0,4377.435897,4458.461538,4488.205128,4230.769230,4480.512820,4174.871794,4420.512820,4196.410256,4209.743589,4388.205128,3742.564103,4613.846153,3948.717949,4043.076923
1,4378.461538,4461.538461,4487.179487,4224.615384,4474.871794,4171.794871,4416.410256,4190.769230,4206.666666,4387.692307,3736.923077,4610.256410,3945.128206,4038.461538
2,4382.564102,4463.589743,4489.743589,4227.179487,4472.307692,4169.230769,4413.333333,4188.717948,4211.794871,4389.230769,3741.538462,4613.846153,3934.358975,4040.512820
3,4383.076923,4454.358974,4490.256410,4222.564102,4480.000000,4166.666666,4407.692307,4181.538461,4212.820512,4385.641025,3743.076924,4613.333333,3932.820513,4037.948717
4,4384.102564,4458.974358,4489.230769,4217.435897,4481.025641,4165.641025,4403.076923,4176.410256,4207.692307,4381.538461,3742.051283,4611.282051,3938.974359,4033.846153
5,4387.179487,4467.179487,4491.794871,4214.871794,4476.410256,4168.205128,4402.564102,4183.589743,4212.820512,4381.025641,3744.615385,4615.384615,3944.102565,4040.000000
6,4390.769230,4457.948717,4494.871794,4213.846153,4476.923076,4174.358974,4405.641025,4192.820512,4221.025641,4388.205128,3751.282052,4617.435897,3953.333334,4043.589743
7,4392.307692,4456.923076,4493.333333,4212.307692,4480.000000,4178.974358,4411.794871,4190.256410,4217.435897,4390.256410,3754.358975,4614.871794,3949.230770,4037.435897
8,4387.179487,4462.051282,4489.230769,4213.846153,4478.461538,4176.923076,4413.846153,4183.076923,4212.820512,4384.615384,3754.358975,4612.307692,3935.897436,4034.358974
9,4386.153846,4455.384615,4488.717948,4218.461538,4479.487179,4172.820512,4409.743589,4181.538461,4214.871794,4386.666666,3755.384616,4611.282051,3947.179488,4037.948717
10,4392.307692,4454.358974,4485.128205,4215.384615,4481.025641,4173.846153,4407.692307,4179.487179,4213.333333,4389.743589,3755.897436,4611.794871,3961.538462,4040.512820
11,4392.820512,4464.615384,4479.487179,4208.717948,4476.923076,4173.333333,4408.717948,4177.948717,4209.743589,4381.025641,3757.948718,4611.794871,3947.692308,4037.435897
12,4388.205128,4463.076923,4481.025641,4206.153846,4473.333333,4166.153846,4406.153846,4179.487179,4213.333333,4377.435897,3765.641026,4607.692307,3935.897436,4032.820512
13,4391.282051,4459.487179,4486.666666,4211.794871,4475.384615,4161.538461,4401.025641,4179.487179,4217.948717,4385.641025,3777.948718,4611.282051,3950.256411,4036.923076
14,4394.871794,4461.538461,4489.743589,4217.435897,4477.435897,4163.076923,4396.923076,4178.461538,4212.820512,4386.666666,3777.948718,4613.846153,3960.000000,4041.538461
15,4394.871794,4459.487179,4485.128205,4213.333333,4476.923076,4163.076923,4394.871794,4175.897435,4206.153846,4382.564102,3769.743590,4605.641025,3944.615385,4037.435897
16,4396.410256,4468.205128,4480.000000,4209.743589,4480.512820,4163.589743,4393.333333,4172.820512,4208.717948,4384.615384,3774.871795,4604.102564,3936.923077,4037.435897
17,4396.410256,4481.538461,4483.589743,4218.974358,4481.025641,4164.102564,4393.846153,4173.333333,4213.333333,4387.179487,3780.512821,4611.282051,3951.282052,4040.512820
18,4396.923076,4473.333333,4489.743589,4228.205128,4477.435897,4163.589743,4398.461538,4173.846153,4210.769230,4383.076923,3780.512821,4609.743589,3962.564103,4042.564102
19,4402.564102,4464.102564,4491.282051,4226.153846,4478.974358,4167.179487,4404.615384,4173.333333,4208.717948,4384.102564,3791.794872,4609.743589,3956.923077,4045.128205
20,4405.641025,4468.205128,4491.282051,4223.076923,4482.564102,4168.205128,4404.615384,4175.384615,4212.307692,4396.923076,3804.615385,4615.897435,3948.717949,4045.128205
21,4398.974358,4471.794871,4493.333333,4221.025641,4478.461538,4163.589743,4397.435897,4178.461538,4212.820512,4396.410256,3800.512821,4610.256410,3947.692308,4040.000000
22,4394.358974,4467.692307,4490.769230,4221.538461,4469.230769,4161.025641,4393.846153,4177.948717,4210.769230,4382.051282,3796.410257,4602.564102,3946.666667,4034.358974
23,4390.769230,4452.307692,4482.051282,4224.102564,4466.666666,4159.487179,4389.743589,4167.179487,4205.641025,4372.820512,3794.871795,4598.461538,3937.435898,4026.666666
24,4385.128205,4437.435897,4474.871794,4219.487179,4469.230769,4153.846153,4384.102564,4155.384615,4195.897435,4368.205128,3787.692308,4590.769230,3925.641026,4021.025641
25,4386.153846,4444.102564,4475.897435,4220.512820,4465.128205,4156.410256,4392.307692,4161.538461,4195.897435,4375.897435,3788.717949,4592.820512,3928.205129,4026.153846
26,4386.153846,4455.897435,4477.948717,4224.102564,4462.051282,4164.102564,4403.076923,4173.333333,4205.128205,4388.205128,3793.333334,4602.051282,3939.487180,4030.256410
27,4380.000000,4453.846153,4473.333333,4220.512820,4463.589743,4162.051282,4397.435897,4174.358974,4208.717948,4384.102564,3791.794872,4598.974358,3940.000000,4026.666666
28,4383.076923,4453.333333,4473.846153,4224.102564,4465.128205,4159.487179,4392.307692,4176.923076,4208.717948,4382.051282,3802.564103,4597.435897,3936.410257,4025.641025
29,4389.743589,4453.846153,4477.948717,4236.923076,4464.102564,4162.564102,4394.871794,4178.974358,4211.282051,4392.307692,3813.846154,4603.589743,3940.000000,4028.717948
30,4386.153846,4451.794871,4475.384615,4240.000000,4465.641025,4165.641025,4394.358974,4171.794871,4208.205128,4390.256410,3803.076924,4601.538461,3943.076924,4029.743589
31,4388.717948,4462.564102,4473.846153,4236.923076,4470.769230,4167.692307,4398.974358,4170.769230,4204.615384,4385.641025,3801.538462,4599.487179,3943.076924,4034.871794
32,4395.384615,4470.256410,4478.461538,4236.923076,4472.307692,4168.205128,4405.128205,4176.410256,4210.256410,4391.794871,3813.846154,4604.615384,3945.641026,4037.948717
33,4388.717948,4460.000000,4477.948717,4238.461538,4471.282051,4169.743589,4403.076923,4175.384615,4215.897435,4388.205128,3808.205129,4603.076923,3942.051283,4027.692307
34,4384.102564,4451.282051,4476.410256,4244.615384,4470.769230,4169.230769,4402.051282,4168.205128,4207.692307,4382.051282,3801.025642,4598.974358,3928.205129,4022.564102
35,4389.230769,4455.897435,4483.076923,4248.205128,4470.256410,4168.717948,4404.102564,4164.102564,4194.871794,4384.102564,3810.769231,4599.487179,3927.692308,4030.256410
36,4389.230769,4465.641025,4482.564102,4250.256410,4469.230769,4171.282051,4400.512820,4165.641025,4194.871794,4381.538461,3814.871795,4601.538461,3944.615385,4033.846153
37,4384.615384,4466.666666,4478.461538,4257.948717,4467.179487,4168.717948,4394.358974,4167.179487,4201.538461,4375.384615,3812.307693,4600.000000,3944.615385,4026.666666
38,4386.666666,4462.051282,4484.102564,4262.051282,4467.692307,4161.538461,4393.846153,4169.743589,4205.128205,4380.000000,3816.410257,4601.538461,3934.871795,4026.153846
39,4392.307692,4466.153846,4492.307692,4265.641025,4470.769230,4166.153846,4401.025641,4176.923076,4208.717948,4394.871794,3824.615385,4610.256410,3947.692308,4040.000000
40,4396.410256,4469.230769,4494.358974,4277.948717,4477.435897,4176.923076,4408.717948,4182.051282,4213.846153,4405.128205,3834.871795,4617.435897,3956.410257,4049.230769
41,4396.410256,4468.205128,4488.205128,4281.538461,4478.461538,4174.871794,4410.256410,4181.538461,4218.974358,4401.025641,3833.846154,4613.333333,3938.974359,4043.589743
42,4386.666666,4466.666666,4477.948717,4278.461538,4472.820512,4171.794871,4409.230769,4181.025641,4221.025641,4392.820512,3826.666667,4602.564102,3932.307693,4032.307692
43,4379.487179,4458.974358,4473.846153,4284.615384,4470.769230,4170.769230,4406.153846,4178.974358,4213.333333,4388.205128,3829.743590,4599.487179,3942.564103,4028.205128
44,4378.974358,4448.205128,4474.871794,4286.153846,4468.717948,4162.051282,4400.512820,4171.794871,4202.051282,4384.102564,3832.820513,4601.538461,3936.410257,4026.666666
45,4377.948717,4452.307692,4472.307692,4284.615384,4468.205128,4159.487179,4400.512820,4167.692307,4202.051282,4390.256410,3830.256411,4598.974358,3927.179488,4025.128205
46,4380.512820,4465.641025,4476.923076,4299.487179,4470.769230,4169.230769,4405.128205,4170.769230,4208.717948,4402.564102,3832.820513,4601.538461,3939.487180,4029.230769
47,4389.743589,4466.153846,4491.282051,4314.358974,4474.358974,4175.384615,4408.205128,4177.435897,4215.384615,4406.666666,3836.923077,4612.307692,3949.743590,4039.487179
48,4395.897435,4466.666666,4495.384615,4312.307692,4477.948717,4174.871794,4409.230769,4182.051282,4219.487179,4403.076923,3832.820513,4613.846153,3942.051283,4041.538461
49,4387.179487,4464.615384,4485.641025,4310.256410,4477.435897,4172.820512,4408.205128,4175.897435,4210.256410,4393.846153,3828.717949,4604.615384,3940.000000,4031.282051
50,4377.435897,4452.820512,4475.384615,4312.307692,4473.846153,4169.230769,4404.102564,4164.102564,4194.358974,4384.615384,3825.641026,4597.948717,3943.589744,4025.128205
51,4378.461538,4454.871794,4474.358974,4314.871794,4474.871794,4171.282051,4401.538461,4163.589743,4195.384615,4384.102564,3818.461539,4596.923076,3938.974359,4025.128205
52,4381.025641,4464.102564,4476.410256,4320.512820,4475.384615,4174.358974,4406.153846,4175.384615,4209.743589,4388.717948,3820.512821,4598.974358,3925.641026,4024.615384
53,4378.974358,4457.435897,4475.384615,4327.692307,4470.769230,4170.256410,4410.256410,4178.974358,4211.282051,4389.230769,3832.307693,4601.025641,3918.974359,4022.051282
54,4376.923076,4448.205128,4473.333333,4330.256410,4468.717948,4169.230769,4411.282051,4176.410256,4204.102564,4387.692307,3835.384616,4600.512820,3926.153847,4022.564102
55,4378.461538,4454.871794,4475.897435,4333.846153,4473.333333,4175.384615,4410.256410,4178.461538,4202.564102,4389.743589,3831.282052,4601.538461,3934.358975,4027.179487
56,4379.487179,4459.487179,4475.384615,4339.487179,4475.384615,4173.333333,4408.205128,4175.384615,4205.641025,4394.358974,3830.769231,4602.051282,3937.435898,4028.205128
57,4382.564102,4465.641025,4476.410256,4343.589743,4474.871794,4170.256410,4409.743589,4173.846153,4209.743589,4397.435897,3830.256411,4601.538461,3940.000000,4028.205128
58,4387.692307,4473.333333,4481.538461,4347.692307,4475.897435,4177.948717,4415.384615,4177.435897,4212.820512,4399.487179,3833.333334,4605.128205,3940.000000,4030.256410
59,4388.717948,4469.743589,4482.564102,4349.230769,4476.923076,4182.051282,4418.461538,4177.948717,4210.256410,4400.512820,3844.102565,4608.205128,3933.846154,4033.846153
60,4386.153846,4465.641025,4480.000000,4350.769230,4479.487179,4175.384615,4415.384615,4176.410256,4204.102564,4393.846153,3846.666667,4605.128205,3935.384616,4035.897435
61,4381.538461,4462.564102,4477.435897,4354.358974,4480.000000,4170.256410,4410.769230,4175.897435,4202.564102,4388.717948,3842.564103,4600.512820,3941.025642,4034.358974
62,4378.974358,4458.974358,4478.461538,4355.384615,4474.358974,4173.333333,4411.282051,4177.435897,4207.692307,4391.282051,3845.641026,4603.076923,3934.358975,4031.794871
63,4380.000000,4459.487179,4482.564102,4356.923076,4470.256410,4174.358974,4411.794871,4174.871794,4206.666666,4389.743589,3848.717949,4608.205128,3926.153847,4030.769230
64,4378.974358,4461.025641,4480.512820,4357.948717,4474.358974,4168.717948,4407.692307,4171.282051,4196.410256,4385.128205,3849.743590,4602.564102,3929.743590,4031.282051
65,4377.435897,4458.974358,4476.923076,4356.410256,4475.384615,4163.589743,4404.102564,4169.230769,4190.256410,4386.153846,3849.743590,4596.410256,3936.923077,4027.692307
66,4377.948717,4453.333333,4483.589743,4355.384615,4466.153846,4165.128205,4406.153846,4170.769230,4197.435897,4388.205128,3840.000000,4599.487179,3929.743590,4022.051282
67,4376.410256,4456.410256,4491.282051,4358.461538,4466.666666,4173.333333,4411.794871,4174.871794,4204.615384,4389.230769,3836.410257,4601.025641,3924.102565,4023.589743
68,4377.948717,4467.692307,4489.230769,4365.641025,4478.461538,4178.461538,4420.512820,4177.435897,4205.641025,4393.333333,3847.692308,4603.076923,3929.743590,4031.794871
69,4382.051282,4471.282051,4490.256410,4369.743589,4483.589743,4177.435897,4425.128205,4180.000000,4207.692307,4394.358974,3854.358975,4609.743589,3934.358975,4032.307692
70,4377.948717,4462.564102,4491.282051,4364.102564,4477.948717,4175.384615,4413.846153,4176.410256,4202.051282,4388.205128,3846.153847,4605.641025,3925.641026,4022.564102
71,4374.871794,4464.102564,4487.179487,4363.076923,4477.435897,4174.871794,4403.589743,4172.820512,4195.384615,4390.256410,3847.179488,4600.512820,3924.615385,4022.564102
72,4380.000000,4468.205128,4489.743589,4368.717948,4478.461538,4174.871794,4410.256410,4180.512820,4207.692307,4402.051282,3852.820513,4609.230769,3934.871795,4030.256410
73,4378.974358,4458.461538,4492.820512,4366.153846,4475.384615,4173.846153,4413.333333,4183.076923,4213.846153,4398.461538,3841.025642,4611.794871,3925.128206,4028.205128
74,4370.256410,4456.410256,4484.102564,4362.051282,4475.384615,4171.794871,4406.153846,4170.256410,4192.820512,4378.974358,3829.743590,4602.051282,3912.820513,4022.564102
75,4370.769230,4473.846153,4478.461538,4367.179487,4475.384615,4173.846153,4408.717948,4166.666666,4186.666666,4377.948717,3835.384616,4602.564102,3926.666667,4025.641025
76,4379.487179,4482.564102,4485.128205,4370.256410,4473.333333,4177.948717,4415.384615,4175.384615,4200.000000,4391.794871,3846.666667,4608.717948,3933.846154,4033.846153
77,4383.589743,4478.461538,4490.769230,4373.846153,4477.948717,4177.435897,4411.282051,4175.897435,4201.025641,4393.846153,3853.333334,4608.717948,3923.589744,4035.384615
78,4384.102564,4478.461538,4491.794871,4378.461538,4484.102564,4173.846153,4406.666666,4174.871794,4200.000000,4393.846153,3860.512821,4611.794871,3928.205129,4035.384615
79,4385.641025,4482.051282,4485.128205,4371.282051,4478.974358,4171.794871,4405.641025,4178.461538,4206.153846,4397.435897,3866.153847,4613.846153,3935.897436,4040.000000
80,4383.589743,4483.589743,4477.948717,4364.102564,4477.948717,4173.333333,4403.076923,4177.435897,4205.641025,4397.948717,3861.025642,4606.666666,3931.282052,4041.538461
81,4377.948717,4482.564102,4478.461538,4363.076923,4484.615384,4175.897435,4403.589743,4175.384615,4202.564102,4397.435897,3856.410257,4600.512820,3933.333334,4032.820512
82,4380.000000,4484.615384,4481.538461,4363.589743,4485.641025,4178.461538,4411.794871,4177.435897,4205.641025,4399.487179,3862.564103,4606.666666,3936.923077,4029.743589
83,4385.128205,4485.128205,4484.615384,4369.230769,4483.589743,4180.000000,4420.000000,4181.025641,4208.717948,4403.589743,3869.230770,4611.282051,3925.128206,4036.923076
84,4377.948717,4471.282051,4483.076923,4368.205128,4484.102564,4177.435897,4418.461538,4182.564102,4208.717948,4405.128205,3861.025642,4604.615384,3917.948718,4034.358974
85,4377.948717,4467.692307,4478.974358,4360.000000,4488.717948,4176.923076,4414.871794,4183.589743,4208.717948,4401.538461,3854.871795,4601.538461,3930.769231,4030.769230
86,4386.666666,4486.666666,4483.076923,4364.102564,4487.692307,4179.487179,4417.948717,4187.692307,4210.256410,4399.487179,3860.512821,4609.230769,3942.564103,4038.974358
87,4389.230769,4502.564102,4492.820512,4370.769230,4484.102564,4182.051282,4421.538461,4192.307692,4213.846153,4409.230769,3863.589744,4616.923076,3940.512821,4045.641025
88,4386.153846,4493.333333,4491.282051,4364.615384,4485.641025,4182.564102,4420.512820,4188.205128,4213.333333,4413.333333,3865.128206,4616.410256,3933.846154,4040.512820
89,4383.076923,4474.871794,4486.153846,4361.025641,4488.205128,4181.538461,4420.512820,4184.615384,4211.794871,4403.076923,3868.717949,4607.179487,3933.846154,4035.897435
90,4378.461538,4469.230769,4489.230769,4363.589743,4485.641025,4182.564102,4426.153846,4192.307692,4212.820512,4398.461538,3865.128206,4601.025641,3932.307693,4035.897435
91,4375.384615,4478.461538,4488.205128,4363.076923,4487.179487,4187.179487,4427.692307,4196.923076,4211.794871,4400.000000,3861.538462,4603.076923,3913.846154,4031.282051
92,4379.487179,4490.256410,4486.666666,4364.615384,4493.846153,4185.641025,4423.076923,4192.307692,4209.230769,4402.564102,3868.205129,4607.692307,3910.256411,4032.820512
93,4383.589743,4488.205128,4488.205128,4359.487179,4491.794871,4178.461538,4421.025641,4188.205128,4206.153846,4402.564102,3865.641026,4610.256410,3933.846154,4037.435897
94,4381.538461,4478.974358,4488.717948,4350.256410,4482.564102,4177.948717,4424.102564,4188.205128,4207.692307,4404.615384,3859.487180,4614.358974,3944.615385,4035.897435
95,4379.487179,4478.974358,4490.256410,4349.743589,4481.025641,4183.076923,4427.179487,4192.307692,4212.307692,4409.743589,3870.769231,4616.410256,3931.282052,4034.871794
96,4383.076923,4485.128205,4489.743589,4350.769230,4485.641025,4182.051282,4425.128205,4193.846153,4210.256410,4410.769230,3883.589744,4613.846153,3922.564103,4040.000000
97,4386.153846,4488.717948,4489.743589,4344.615384,4485.128205,4177.948717,4422.564102,4193.846153,4208.717948,4408.717948,3880.512821,4616.923076,3929.230770,4044.102564
98,4382.564102,4486.666666,4492.307692,4332.307692,4483.076923,4176.410256,4420.512820,4192.820512,4213.333333,4407.692307,3877.435898,4615.897435,3931.794872,4041.538461
99,4378.461538,4479.487179,4485.641025,4315.897435,4483.076923,4171.282051,4413.846153,4188.717948,4213.333333,4405.641025,3875.384616,4603.076923,3934.871795,4034.871794
100,4378.461538,4473.846153,4478.461538,4301.538461,4483.076923,4172.307692,4410.769230,4188.717948,4209.230769,4404.102564,3872.820513,4599.487179,3937.435898,4033.333333
101,4380.512820,4482.051282,4487.692307,4300.000000,4482.564102,4181.025641,4418.461538,4192.307692,4210.256410,4408.205128,3884.615385,4612.307692,3927.179488,4040.000000
102,4380.512820,4491.794871,4491.794871,4298.461538,4480.000000,4179.487179,4422.051282,4191.794871,4209.743589,4409.230769,3892.820513,4614.871794,3917.948718,4042.051282
103,4374.871794,4480.000000,4480.512820,4287.692307,4479.487179,4172.820512,4412.820512,4183.076923,4201.538461,4404.615384,3878.974359,4602.051282,3924.102565,4031.794871
104,4370.256410,4472.307692,4482.564102,4282.051282,4480.512820,4174.358974,4407.179487,4177.435897,4196.923076,4402.051282,3873.846154,4598.461538,3933.333334,4025.128205
105,4377.948717,4487.692307,4491.282051,4280.000000,4481.538461,4178.461538,4413.846153,4182.051282,4202.051282,4400.512820,3892.820513,4606.153846,3934.358975,4034.358974
106,4387.179487,4492.820512,4491.282051,4281.025641,4480.512820,4175.897435,4418.461538,4186.666666,4209.230769,4409.230769,3902.051283,4612.820512,3938.461539,4047.179487
107,4385.641025,4483.076923,4497.948717,4288.717948,4482.051282,4175.384615,4417.948717,4189.743589,4209.743589,4422.051282,3896.923077,4617.948717,3943.589744,4050.256410
108,4385.641025,4488.717948,4505.128205,4291.282051,4486.666666,4177.435897,4415.384615,4191.282051,4206.666666,4417.435897,3897.948718,4617.948717,3947.692308,4046.666666
109,4388.205128,4503.589743,4502.564102,4281.025641,4484.615384,4176.923076,4411.794871,4191.794871,4208.717948,4404.102564,3897.948718,4614.358974,3949.230770,4044.102564
110,4388.717948,4501.538461,4506.666666,4276.410256,4484.615384,4181.538461,4415.384615,4191.282051,4210.769230,4403.589743,3895.897436,4617.948717,3940.512821,4046.153846
111,4389.230769,4490.256410,4511.282051,4284.102564,4486.666666,4184.102564,4424.102564,4189.230769,4206.153846,4406.666666,3896.923077,4620.000000,3941.025642,4049.743589
112,4384.102564,4481.538461,4503.076923,4280.512820,4482.564102,4174.871794,4420.000000,4186.153846,4202.564102,4404.102564,3887.692308,4611.282051,3945.641026,4044.615384
113,4375.897435,4476.923076,4497.435897,4267.179487,4477.948717,4171.282051,4415.384615,4185.128205,4207.692307,4408.205128,3883.589744,4607.692307,3937.948718,4036.923076
114,4381.025641,4481.538461,4503.589743,4265.128205,4481.025641,4180.000000,4422.051282,4188.205128,4213.333333,4411.794871,3900.000000,4614.358974,3940.512821,4040.000000
115,4392.820512,4480.000000,4508.717948,4271.794871,4488.205128,4183.076923,4421.025641,4187.179487,4210.769230,4402.564102,3905.641026,4615.384615,3955.384616,4044.102564
116,4393.333333,4464.615384,4507.692307,4270.769230,4484.615384,4173.846153,4407.179487,4179.487179,4205.641025,4393.846153,3895.384616,4611.282051,3956.923077,4045.128205
117,4391.282051,4465.128205,4506.666666,4263.589743,4478.461538,4169.230769,4402.051282,4174.358974,4209.743589,4395.897435,3893.846154,4611.794871,3947.179488,4045.641025
118,4393.846153,4480.512820,4506.666666,4255.897435,4482.564102,4173.846153,4407.179487,4177.435897,4220.000000,4402.051282,3894.871795,4612.820512,3944.615385,4039.487179
119,4393.333333,4475.384615,4507.692307,4252.820512,4485.128205,4177.948717,4410.769230,4182.564102,4225.128205,4405.641025,3891.794872,4613.333333,3951.282052,4036.923076
120,4395.384615,4463.589743,4506.153846,4249.743589,4483.076923,4177.948717,4412.820512,4181.025641,4216.410256,4397.948717,3896.923077,4616.923076,3957.948718,4044.615384
121,4397.948717,4468.717948,4501.025641,4244.102564,4486.153846,4178.974358,4412.307692,4178.461538,4209.230769,4386.666666,3903.076924,4616.410256,3955.384616,4045.641025
122,4397.435897,4467.692307,4501.025641,4242.051282,4490.256410,4183.076923,4411.794871,4180.000000,4218.974358,4393.846153,3900.512821,4614.871794,3958.974359,4040.512820
123,4395.897435,4459.487179,4507.692307,4234.871794,4483.076923,4181.025641,4411.282051,4180.000000,4226.666666,4404.615384,3897.948718,4616.410256,3967.179488,4039.487179
124,4392.307692,4461.538461,4507.179487,4226.153846,4480.000000,4173.846153,4404.615384,4172.820512,4216.410256,4394.358974,3895.897436,4609.230769,3950.256411,4033.846153
125,4389.230769,4460.000000,4495.384615,4233.846153,4483.589743,4170.256410,4396.410256,4163.076923,4202.051282,4377.435897,3890.769231,4598.461538,3932.820513,4027.179487
126,4390.769230,4453.333333,4491.794871,4244.615384,4477.435897,4171.794871,4398.461538,4164.102564,4207.179487,4375.384615,3896.410257,4602.051282,3948.717949,4030.769230
127,4393.846153,4455.897435,4501.025641,4237.948717,4471.794871,4174.358974,4404.615384,4175.384615,4220.512820,4389.743589,3908.717949,4612.820512,3965.641026,4035.897435
128,4390.769230,4455.897435,4500.000000,4226.666666,4475.897435,4172.820512,4403.076923,4179.487179,4225.641025,4401.025641,3905.641026,4613.333333,3955.897436,4033.333333
129,4388.205128,4450.256410,4491.282051,4224.102564,4479.487179,4166.666666,4401.025641,4172.820512,4218.461538,4395.384615,3897.948718,4609.230769,3945.128206,4030.769230
130,4390.769230,4455.897435,4492.307692,4223.076923,4479.487179,4169.230769,4402.564102,4173.333333,4214.871794,4387.692307,3899.487180,4612.820512,3950.256411,4032.307692
131,4392.820512,4466.666666,4496.410256,4221.538461,4474.871794,4171.794871,4402.051282,4177.948717,4224.102564,4390.769230,3904.615385,4617.948717,3958.461539,4032.820512
132,4390.769230,4462.564102,4493.333333,4223.589743,4473.846153,4168.717948,4398.974358,4173.846153,4225.641025,4394.358974,3904.615385,4614.871794,3957.435898,4030.769230
133,4384.615384,4451.282051,4486.153846,4220.512820,4476.923076,4167.692307,4398.461538,4166.666666,4212.820512,4387.692307,3902.564103,4604.102564,3948.205129,4028.717948
134,4377.948717,4443.589743,4478.461538,4212.307692,4476.410256,4170.256410,4404.102564,4165.641025,4207.179487,4382.564102,3900.000000,4597.948717,3937.948718,4021.538461
135,4377.435897,4441.025641,4476.410256,4208.717948,4474.871794,4168.717948,4404.615384,4168.205128,4214.871794,4387.179487,3896.410257,4600.512820,3929.230770,4016.923076
136,4378.461538,4446.666666,4478.974358,4207.692307,4472.820512,4160.512820,4396.410256,4166.153846,4213.846153,4388.717948,3893.846154,4601.025641,3931.794872,4017.948717
137,4376.410256,4456.410256,4482.564102,4206.153846,4471.282051,4160.000000,4388.205128,4163.076923,4206.666666,4379.487179,3898.461539,4597.948717,3940.000000,4019.487179
138,4382.051282,4461.025641,4494.871794,4210.769230,4474.358974,4169.743589,4397.435897,4168.717948,4212.307692,4385.641025,3911.282052,4607.179487,3944.102565,4028.205128
139,4391.794871,4460.000000,4508.205128,4213.846153,4477.948717,4171.794871,4409.230769,4176.410256,4222.564102,4405.641025,3914.358975,4619.487179,3958.461539,4037.948717
140,4393.333333,4456.923076,4507.692307,4208.205128,4476.410256,4168.717948,4407.179487,4181.025641,4227.692307,4409.230769,3910.769231,4618.974358,3973.846154,4037.948717
141,4392.820512,4455.384615,4505.128205,4204.615384,4476.410256,4170.256410,4401.538461,4177.948717,4228.717948,4398.974358,3913.846154,4615.384615,3969.743590,4036.923076
142,4393.333333,4453.846153,4506.153846,4203.589743,4476.410256,4170.256410,4395.384615,4168.717948,4223.076923,4390.769230,3911.794872,4618.461538,3959.487180,4036.923076
143,4392.820512,4452.307692,4502.564102,4205.128205,4477.948717,4168.205128,4394.358974,4166.666666,4216.923076,4393.846153,3905.128206,4617.948717,3961.025642,4035.384615
144,4393.333333,4459.487179,4501.538461,4212.820512,4483.076923,4172.820512,4404.102564,4177.435897,4220.512820,4402.051282,3903.076924,4615.384615,3963.076924,4038.461538
145,4396.410256,4472.307692,4502.564102,4211.282051,4480.000000,4172.307692,4411.794871,4183.589743,4229.230769,4404.615384,3901.025642,4619.487179,3963.076924,4042.564102
146,4390.769230,4468.205128,4495.897435,4197.435897,4469.743589,4165.128205,4404.615384,4178.461538,4227.179487,4399.487179,3904.615385,4618.461538,3957.435898,4034.358974
147,4383.076923,4449.230769,4487.692307,4193.333333,4470.256410,4162.564102,4394.358974,4173.333333,4213.846153,4386.153846,3909.230770,4608.205128,3937.948718,4023.589743
148,4386.666666,4448.717948,4487.692307,4200.512820,4476.923076,4165.128205,4393.846153,4170.769230,4202.051282,4378.974358,3903.076924,4605.641025,3940.000000,4027.179487
149,4394.871794,4467.692307,4490.769230,4203.589743,4477.435897,4170.769230,4400.000000,4173.333333,4207.692307,4390.769230,3898.974359,4613.333333,3957.948718,4037.948717
150,4398.461538,4475.384615,4495.897435,4202.564102,4473.846153,4174.871794,4407.179487,4177.948717,4222.564102,4408.205128,3908.717949,4618.974358,3953.846154,4041.538461
151,4397.435897,4470.769230,4498.461538,4199.487179,4478.974358,4176.923076,4407.692307,4179.487179,4226.666666,4406.153846,3917.435898,4619.487179,3947.692308,4038.461538
152,4388.205128,4460.512820,4493.333333,4193.333333,4486.666666,4176.410256,4404.615384,4175.897435,4212.820512,4387.179487,3905.128206,4614.871794,3944.615385,4031.282051
153,4381.025641,4454.358974,4487.179487,4196.410256,4483.076923,4171.794871,4403.076923,4171.794871,4201.025641,4378.974358,3892.307693,4608.717948,3937.948718,4031.282051
154,4389.743589,4466.666666,4492.820512,4207.692307,4483.076923,4174.871794,4407.179487,4175.384615,4207.179487,4388.717948,3901.025642,4615.384615,3948.717949,4041.538461
155,4401.025641,4484.615384,4503.076923,4211.794871,4487.692307,4181.538461,4411.794871,4182.051282,4219.487179,4395.384615,3911.282052,4628.205128,3965.641026,4048.205128
156,4400.000000,4485.641025,4498.974358,4215.897435,4484.615384,4177.948717,4406.666666,4181.025641,4222.051282,4395.897435,3903.589744,4624.102564,3961.025642,4043.589743
157,4400.000000,4475.384615,4494.358974,4231.282051,4483.589743,4176.410256,4401.538461,4173.846153,4214.871794,4400.000000,3900.512821,4619.487179,3961.025642,4042.564102
158,4405.128205,4472.820512,4498.461538,4242.051282,4490.256410,4180.000000,4405.641025,4170.256410,4212.307692,4395.897435,3911.282052,4627.692307,3965.641026,4050.256410
159,4402.564102,4479.487179,4497.948717,4244.102564,4491.282051,4179.487179,4408.205128,4174.871794,4220.512820,4392.820512,3911.794872,4626.666666,3951.794872,4048.717948
160,4397.948717,4480.512820,4499.487179,4247.179487,4484.615384,4177.435897,4408.205128,4180.000000,4228.717948,4404.102564,3908.717949,4618.461538,3950.256411,4042.564102
161,4394.358974,4470.256410,4502.564102,4246.153846,4483.076923,4176.923076,4406.153846,4178.461538,4217.435897,4403.076923,3911.794872,4616.923076,3957.435898,4040.000000
162,4389.743589,4464.102564,4499.487179,4243.589743,4481.025641,4174.358974,4401.025641,4173.333333,4209.230769,4393.333333,3906.666667,4617.948717,3953.846154,4038.974358
163,4392.307692,4469.743589,4503.076923,4250.256410,4476.923076,4173.846153,4404.615384,4180.512820,4221.538461,4397.948717,3907.692308,4624.102564,3961.538462,4041.538461
164,4399.487179,4480.000000,4515.897435,4262.564102,4481.025641,4177.435897,4413.333333,4190.256410,4230.256410,4406.153846,3924.102565,4632.307692,3968.205129,4047.692307
165,4397.948717,4483.589743,4517.435897,4268.717948,4486.666666,4177.948717,4410.769230,4183.589743,4224.102564,4403.589743,3926.153847,4627.692307,3955.384616,4047.692307
166,4391.794871,4473.846153,4509.743589,4275.897435,4486.153846,4175.897435,4403.076923,4172.820512,4215.897435,4397.948717,3910.769231,4618.461538,3951.794872,4041.538461
167,4392.820512,4469.743589,4509.230769,4289.743589,4487.179487,4177.435897,4403.076923,4174.358974,4217.435897,4399.487179,3907.179488,4621.538461,3962.051283,4042.564102
168,4395.897435,4477.948717,4515.384615,4297.948717,4488.205128,4181.538461,4408.717948,4184.102564,4225.128205,4404.615384,3914.871795,4626.666666,3965.641026,4048.205128
169,4395.384615,4483.076923,4523.589743,4298.461538,4484.615384,4181.538461,4412.820512,4189.743589,4229.743589,4404.615384,3911.282052,4625.128205,3968.205129,4050.256410
170,4392.820512,4479.487179,4523.076923,4301.025641,4478.461538,4179.487179,4410.256410,4189.743589,4229.230769,4403.589743,3906.153847,4625.641025,3969.230770,4046.666666
171,4389.230769,4472.820512,4513.846153,4305.641025,4476.410256,4177.435897,4407.179487,4189.230769,4225.641025,4409.743589,3909.230770,4624.615384,3962.564103,4040.512820
172,4389.743589,4472.820512,4507.692307,4307.692307,4480.000000,4177.435897,4408.717948,4189.230769,4225.641025,4411.794871,3911.794872,4618.974358,3957.948718,4039.487179
173,4392.307692,4477.435897,4507.179487,4311.282051,4485.641025,4177.948717,4411.282051,4190.769230,4226.666666,4404.102564,3911.794872,4618.974358,3961.538462,4045.128205
174,4391.794871,4471.282051,4507.692307,4314.871794,4481.025641,4176.410256,4412.820512,4191.794871,4227.179487,4399.487179,3913.333334,4625.128205,3963.589744,4048.205128
175,4386.666666,4462.564102,4510.769230,4312.820512,4472.820512,4173.846153,4409.743589,4187.179487,4222.051282,4399.487179,3912.820513,4625.641025,3947.179488,4038.461538
176,4382.564102,4466.666666,4514.358974,4307.692307,4475.384615,4173.846153,4405.641025,4179.487179,4217.948717,4400.512820,3909.743590,4623.076923,3935.384616,4030.769230
177,4385.641025,4474.871794,4515.897435,4305.128205,4477.435897,4175.897435,4407.179487,4178.461538,4221.538461,4405.128205,3911.794872,4621.025641,3954.358975,4038.461538
178,4389.743589,4471.794871,4517.948717,4304.615384,4476.923076,4176.923076,4409.230769,4179.487179,4220.512820,4406.153846,3915.384616,4617.435897,3966.153847,4042.564102
179,4389.743589,4466.153846,4515.384615,4307.692307,4482.564102,4177.948717,4408.205128,4175.384615,4212.820512,4396.923076,3910.769231,4615.897435,3949.230770,4038.974358
180,4392.307692,4476.410256,4514.871794,4314.358974,4485.128205,4180.512820,4408.717948,4178.461538,4210.769230,4396.410256,3909.230770,4623.076923,3944.102565,4044.615384
181,4395.897435,4486.153846,4517.435897,4315.384615,4480.512820,4180.512820,4412.820512,4184.102564,4214.358974,4406.153846,3912.307693,4628.205128,3957.948718,4049.230769
182,4390.769230,4475.897435,4511.794871,4309.230769,4475.897435,4175.897435,4410.256410,4181.025641,4214.358974,4409.230769,3912.307693,4621.538461,3956.923077,4040.512820
183,4388.205128,4468.205128,4507.692307,4308.717948,4475.897435,4173.333333,4405.641025,4181.538461,4214.871794,4404.615384,3916.923077,4620.000000,3947.179488,4036.923076
184,4398.974358,4476.923076,4521.538461,4315.897435,4477.948717,4176.923076,4413.333333,4192.307692,4218.461538,4406.666666,3927.692308,4632.307692,3954.358975,4048.205128
185,4404.615384,4484.615384,4528.717948,4313.333333,4480.512820,4178.974358,4417.435897,4191.794871,4215.384615,4405.128205,3929.743590,4636.410256,3964.102565,4057.435897
186,4398.461538,4484.615384,4519.487179,4307.692307,4480.512820,4180.000000,4412.307692,4180.000000,4206.666666,4396.410256,3920.000000,4626.666666,3954.871795,4051.794871
187,4394.358974,4478.974358,4521.538461,4308.717948,4477.435897,4178.974358,4408.205128,4180.512820,4208.717948,4398.461538,3909.743590,4622.564102,3944.102565,4042.051282
188,4389.230769,4464.615384,4523.589743,4306.666666,4469.743589,4169.230769,4402.564102,4181.538461,4212.820512,4401.538461,3910.769231,4620.512820,3945.128206,4034.871794
189,4386.666666,4467.692307,4511.794871,4299.487179,4465.641025,4167.692307,4396.410256,4173.846153,4208.717948,4393.846153,3922.564103,4613.846153,3949.230770,4036.923076
190,4397.435897,4492.820512,4511.282051,4291.794871,4469.230769,4170.256410,4399.487179,4174.358974,4204.615384,4391.794871,3930.256411,4616.923076,3962.564103,4049.230769
191,4407.179487,4502.564102,4520.512820,4290.256410,4474.871794,4167.179487,4402.564102,4179.487179,4200.000000,4398.974358,3925.128206,4624.615384,3974.871795,4055.897435
192,4405.128205,4500.000000,4518.974358,4294.358974,4474.871794,4168.205128,4398.974358,4174.871794,4194.358974,4398.974358,3927.692308,4626.153846,3971.282052,4053.333333
193,4403.076923,4502.051282,4516.410256,4293.846153,4473.846153,4169.743589,4400.512820,4170.769230,4195.384615,4394.871794,3937.948718,4624.615384,3973.846154,4054.871794
194,4407.179487,4495.897435,4516.923076,4283.589743,4475.897435,4166.153846,4400.000000,4172.307692,4202.051282,4394.358974,3934.358975,4625.641025,3981.538462,4060.000000
195,4408.205128,4491.282051,4512.307692,4278.461538,4473.846153,4163.589743,4394.358974,4169.743589,4202.051282,4393.333333,3928.717949,4625.128205,3974.871795,4062.051282
196,4409.230769,4508.717948,4513.333333,4283.076923,4475.384615,4167.692307,4393.333333,4165.128205,4195.897435,4397.948717,3933.846154,4626.153846,3967.692308,4062.051282
197,4413.333333,4519.487179,4520.000000,4282.051282,4477.435897,4171.282051,4396.410256,4169.230769,4197.435897,4404.615384,3942.051283,4629.743589,3977.435898,4060.000000
198,4415.384615,4509.743589,4518.461538,4275.384615,4473.333333,4173.846153,4403.589743,4176.410256,4206.666666,4404.102564,3945.128206,4632.820512,3985.128206,4065.641025
199,4413.846153,4506.153846,4512.820512,4272.820512,4474.358974,4171.794871,4406.153846,4174.871794,4208.717948,4401.538461,3949.230770,4630.256410,3978.461539,4071.282051
200,4407.179487,4502.564102,4507.692307,4269.230769,4478.461538,4173.333333,4402.051282,4174.358974,4203.589743,4400.000000,3945.128206,4625.128205,3971.794872,4062.051282
201,4405.641025,4497.435897,4503.589743,4266.153846,4473.333333,4177.948717,4397.948717,4178.461538,4206.153846,4398.974358,3935.897436,4625.641025,3972.307693,4054.358974
202,4412.820512,4506.666666,4508.205128,4269.743589,4473.846153,4175.384615,4398.461538,4176.923076,4212.820512,4404.615384,3948.205129,4630.769230,3980.000000,4065.641025
203,4417.435897,4517.435897,4512.820512,4275.897435,4483.589743,4175.384615,4403.589743,4175.384615,4213.846153,4409.230769,3962.051283,4634.871794,3993.333334,4075.897435
204,4413.333333,4517.948717,4508.717948,4274.358974,4483.589743,4178.461538,4406.153846,4177.435897,4210.769230,4404.102564,3949.230770,4631.794871,3995.384616,4069.230769
205,4408.205128,4516.923076,4506.666666,4269.743589,4476.410256,4176.923076,4403.589743,4178.461538,4208.717948,4403.589743,3936.410257,4625.128205,3975.897436,4060.512820
206,4406.666666,4515.897435,4509.743589,4268.205128,4476.923076,4176.410256,4405.641025,4181.538461,4212.307692,4402.564102,3937.435898,4623.589743,3964.615385,4061.025641
207,4406.153846,4509.230769,4505.641025,4259.487179,4478.461538,4176.923076,4406.153846,4182.564102,4213.846153,4392.820512,3936.410257,4625.641025,3975.384616,4062.564102
208,4398.461538,4498.974358,4496.923076,4250.256410,4474.358974,4169.230769,4395.384615,4174.871794,4205.641025,4385.641025,3932.307693,4618.974358,3972.307693,4051.282051
209,4391.282051,4502.564102,4498.974358,4252.307692,4471.794871,4164.615384,4390.256410,4174.871794,4205.128205,4394.358974,3937.435898,4612.820512,3954.358975,4046.666666
210,4403.076923,4518.461538,4509.230769,4258.974358,4475.897435,4171.282051,4401.025641,4183.076923,4216.410256,4407.179487,3949.230770,4624.615384,3956.410257,4061.025641
211,4415.384615,4519.487179,4508.717948,4264.102564,4477.948717,4173.846153,4405.128205,4180.000000,4215.384615,4400.512820,3951.282052,4632.820512,3971.794872,4067.692307
212,4405.641025,4511.282051,4505.128205,4262.564102,4472.307692,4172.307692,4397.435897,4172.820512,4205.128205,4388.205128,3935.384616,4622.051282,3972.820513,4056.923076
213,4399.487179,4508.205128,4507.692307,4256.410256,4468.205128,4170.256410,4397.435897,4176.923076,4204.615384,4390.256410,3927.692308,4614.871794,3968.717949,4054.358974
214,4406.666666,4503.076923,4507.179487,4254.871794,4471.282051,4167.692307,4402.564102,4177.948717,4205.641025,4394.871794,3939.487180,4618.974358,3969.230770,4061.025641
215,4406.153846,4506.153846,4503.076923,4262.051282,4476.410256,4169.230769,4401.025641,4173.846153,4203.589743,4392.820512,3947.692308,4618.974358,3965.641026,4056.923076
216,4402.051282,4514.871794,4503.589743,4268.717948,4475.384615,4171.794871,4400.000000,4172.820512,4205.128205,4394.871794,3949.743590,4615.384615,3962.564103,4049.743589
217,4403.076923,4509.743589,4506.666666,4271.794871,4471.282051,4169.743589,4404.615384,4174.871794,4207.179487,4397.435897,3950.256411,4618.461538,3964.615385,4055.384615
218,4402.564102,4505.641025,4504.615384,4270.769230,4472.307692,4172.820512,4404.615384,4176.410256,4207.179487,4394.358974,3945.641026,4617.948717,3961.538462,4056.923076
219,4401.538461,4512.820512,4505.128205,4267.179487,4476.923076,4177.948717,4404.102564,4178.461538,4208.717948,4398.461538,3950.256411,4616.923076,3962.051283,4052.820512
220,4406.666666,4518.974358,4517.948717,4266.666666,4478.461538,4178.461538,4413.333333,4190.256410,4216.923076,4408.717948,3962.051283,4627.179487,3972.820513,4058.461538
221,4407.692307,4514.871794,4523.589743,4261.538461,4476.410256,4179.487179,4417.435897,4197.948717,4219.487179,4408.717948,3958.461539,4633.846153,3969.743590,4061.538461
222,4402.051282,4504.102564,4521.025641,4257.435897,4476.923076,4178.974358,4416.410256,4191.794871,4213.333333,4401.538461,3950.256411,4631.282051,3958.974359,4055.384615
223,4400.000000,4500.000000,4524.102564,4257.948717,4478.461538,4175.897435,4416.410256,4191.282051,4214.871794,4403.589743,3945.641026,4627.179487,3961.538462,4052.820512
224,4394.871794,4503.076923,4523.589743,4251.794871,4476.410256,4175.384615,4412.307692,4191.794871,4216.923076,4406.153846,3938.974359,4620.000000,3956.923077,4047.692307
225,4389.743589,4501.025641,4516.923076,4241.538461,4475.897435,4174.358974,4405.128205,4183.076923,4205.641025,4399.487179,3940.000000,4616.410256,3944.615385,4040.000000
226,4396.410256,4498.974358,4520.512820,4241.538461,4478.461538,4174.358974,4405.641025,4177.948717,4202.564102,4401.538461,3952.307693,4621.538461,3946.666667,4046.666666
227,4399.487179,4495.384615,4527.179487,4236.923076,4477.435897,4176.923076,4410.769230,4185.128205,4215.897435,4407.179487,3958.461539,4623.076923,3951.282052,4053.846153
228,4389.743589,4486.153846,4521.538461,4218.461538,4470.769230,4174.871794,4409.230769,4187.692307,4222.051282,4397.435897,3947.179488,4615.897435,3948.205129,4044.102564
229,4387.179487,4481.025641,4517.435897,4211.282051,4471.282051,4170.769230,4404.615384,4183.589743,4218.974358,4391.794871,3941.025642,4613.333333,3951.282052,4036.410256
230,4390.256410,4480.512820,4519.487179,4210.769230,4476.410256,4170.256410,4401.538461,4178.974358,4213.846153,4396.410256,3940.000000,4613.846153,3948.717949,4036.923076
231,4388.717948,4474.871794,4522.051282,4208.205128,4477.435897,4174.358974,4403.076923,4173.846153,4209.743589,4391.794871,3929.230770,4613.333333,3938.461539,4036.410256
232,4392.820512,4466.666666,4522.564102,4205.641025,4474.871794,4177.948717,4405.641025,4174.358974,4215.384615,4387.179487,3922.051283,4610.769230,3941.025642,4033.846153
233,4399.487179,4463.589743,4521.025641,4199.487179,4479.487179,4178.461538,4404.102564,4174.871794,4223.076923,4391.282051,3927.692308,4609.743589,3948.205129,4032.820512
234,4404.102564,4474.358974,4526.666666,4201.025641,4488.205128,4178.974358,4403.589743,4175.384615,4225.128205,4393.846153,3934.358975,4614.871794,3950.769231,4038.461538
235,4408.205128,4487.179487,4534.358974,4211.794871,4486.153846,4182.051282,4410.769230,4183.589743,4226.666666,4395.897435,3940.512821,4620.000000,3951.282052,4046.153846
236,4410.769230,4481.025641,4530.256410,4213.846153,4475.384615,4183.076923,4418.461538,4190.256410,4228.717948,4399.487179,3948.205129,4621.025641,3955.897436,4045.641025
237,4406.153846,4472.307692,4522.051282,4204.102564,4474.358974,4178.974358,4411.794871,4182.564102,4225.128205,4395.384615,3942.564103,4616.410256,3963.076924,4036.410256
238,4397.435897,4469.743589,4517.435897,4199.487179,4478.974358,4175.384615,4399.487179,4172.820512,4223.589743,4388.717948,3935.897436,4609.230769,3957.948718,4028.717948
239,4395.384615,4463.589743,4510.769230,4200.000000,4475.897435,4174.871794,4399.487179,4177.435897,4227.179487,4387.692307,3945.128206,4607.179487,3942.564103,4030.256410
240,4400.000000,4464.102564,4505.641025,4203.076923,4474.358974,4174.358974,4405.641025,4184.102564,4232.307692,4387.692307,3953.846154,4607.692307,3942.564103,4032.820512
241,4395.897435,4465.641025,4505.128205,4203.076923,4475.897435,4174.358974,4405.641025,4178.974358,4229.743589,4385.128205,3947.179488,4603.076923,3946.666667,4026.153846
242,4387.692307,4457.948717,4504.102564,4197.435897,4471.794871,4176.410256,4403.076923,4177.948717,4226.153846,4381.025641,3942.564103,4600.512820,3939.487180,4020.512820
243,4391.794871,4451.282051,4504.102564,4197.948717,4470.256410,4176.410256,4404.102564,4187.179487,4228.205128,4381.538461,3950.256411,4604.615384,3935.897436,4024.615384
244,4394.358974,4455.384615,4506.153846,4202.564102,4474.871794,4171.794871,4402.564102,4186.153846,4227.692307,4384.615384,3956.923077,4606.666666,3940.000000,4023.076923
245,4394.871794,4464.615384,4507.692307,4206.153846,4478.974358,4170.769230,4403.589743,4182.564102,4229.743589,4387.692307,3964.615385,4611.794871,3949.230770,4023.589743
246,4404.102564,4466.666666,4510.256410,4214.871794,4476.410256,4175.897435,4410.256410,4190.256410,4236.410256,4392.820512,3977.948718,4617.435897,3957.435898,4035.384615
247,4406.666666,4462.564102,4508.717948,4218.974358,4471.282051,4176.923076,4409.230769,4194.871794,4238.974358,4390.256410,3984.102565,4615.384615,3948.717949,4036.410256
248,4401.538461,4463.589743,4507.692307,4214.871794,4476.410256,4177.948717,4408.205128,4192.307692,4241.538461,4388.717948,3980.512821,4618.461538,3951.794872,4029.743589
249,4398.974358,4457.948717,4507.692307,4210.256410,4482.564102,4175.897435,4409.743589,4189.743589,4238.974358,4388.717948,3975.897436,4619.487179,3962.051283,4030.256410
250,4392.307692,4444.102564,4502.051282,4207.692307,4476.410256,4166.666666,4403.589743,4185.128205,4227.692307,4377.435897,3972.307693,4606.153846,3936.923077,4023.589743
251,4393.846153,4452.307692,4502.051282,4212.307692,4471.282051,4167.179487,4400.512820,4185.641025,4226.153846,4373.846153,3972.820513,4604.615384,3922.564103,4022.051282
252,4406.153846,4461.025641,4508.717948,4221.538461,4478.974358,4177.435897,4409.743589,4194.358974,4237.435897,4392.307692,3981.538462,4619.487179,3953.846154,4033.846153
253,4405.641025,4448.205128,4508.717948,4222.051282,4480.512820,4179.487179,4412.820512,4195.897435,4242.564102,4403.076923,3985.128206,4620.512820,3965.128206,4035.384615
254,4403.589743,4456.410256,4507.179487,4219.487179,4474.871794,4176.923076,4406.666666,4188.717948,4236.410256,4391.794871,3975.897436,4614.871794,3949.743590,4031.794871
255,4408.717948,4473.846153,4507.692307,4223.589743,4475.897435,4178.461538,4406.666666,4184.615384,4229.230769,4386.153846,3969.743590,4616.410256,3948.717949,4036.410256
