,AF3,F7,F3,FC5,T7,P7,O1,O2,P8,T8,FC6,F4,F8,AF4
0,4367.692307,4567.179487,4521.538461,4350.769230,4501.538461,4207.692307,4441.538461,4086.666666,4220.512820,4490.769230,4145.128205,4614.871794,3946.153847,3942.051283
1,4365.128205,4563.589743,4524.615384,4345.641025,4496.410256,4201.538461,4435.897435,4091.282051,4225.641025,4495.384615,4142.564102,4612.820512,3944.615385,3943.589744
2,4361.538461,4561.538461,4525.641025,4340.512820,4495.897435,4204.615384,4436.923076,4090.256410,4224.615384,4496.410256,4144.102564,4614.358974,3953.333334,3945.128206
3,4367.692307,4566.153846,4531.282051,4350.769230,4498.974358,4208.205128,4440.000000,4091.794871,4223.589743,4497.435897,4156.923076,4619.487179,3961.538462,3953.333334
4,4375.384615,4570.256410,4536.410256,4354.871794,4492.307692,4201.025641,4440.000000,4098.974358,4228.205128,4503.589743,4158.974358,4623.589743,3962.051283,3962.564103
5,4368.717948,4570.256410,4527.692307,4334.871794,4488.717948,4199.487179,4438.974358,4096.410256,4230.256410,4504.102564,4147.692307,4620.000000,3945.641026,3954.358975
6,4356.923076,4562.564102,4518.461538,4327.692307,4493.846153,4203.589743,4436.923076,4085.641025,4220.512820,4496.923076,4144.615384,4610.769230,3932.307693,3942.051283
7,4354.871794,4554.358974,4523.589743,4341.025641,4494.358974,4200.512820,4437.948717,4085.128205,4212.307692,4496.923076,4150.769230,4609.230769,3940.512821,3942.051283
8,4360.000000,4556.410256,4531.282051,4343.076923,4492.820512,4201.025641,4442.564102,4093.333333,4221.025641,4505.641025,4151.282051,4616.410256,3951.794872,3950.769231
9,4360.000000,4561.025641,4528.717948,4341.538461,4492.307692,4204.102564,4441.538461,4094.358974,4229.230769,4504.615384,4147.692307,4616.923076,3949.743590,3953.846154
10,4357.435897,4561.538461,4523.589743,4341.025641,4489.743589,4198.974358,4434.358974,4089.743589,4222.564102,4495.897435,4150.769230,4611.282051,3947.179488,3948.717949
11,4360.512820,4560.000000,4522.564102,4333.846153,4486.666666,4192.820512,4433.333333,4090.256410,4213.333333,4490.769230,4155.897435,4614.358974,3947.179488,3950.769231
12,4362.564102,4553.846153,4527.179487,4330.769230,4487.179487,4195.384615,4436.410256,4092.307692,4217.948717,4491.282051,4156.923076,4620.512820,3942.051283,3954.358975
13,4360.512820,4551.794871,4531.282051,4332.820512,4491.282051,4200.512820,4437.948717,4089.230769,4225.641025,4495.897435,4154.871794,4618.974358,3941.538462,3952.820513
14,4362.564102,4563.076923,4530.256410,4336.410256,4492.307692,4201.025641,4442.564102,4087.692307,4219.487179,4495.384615,4154.871794,4616.410256,3943.076924,3950.256411
15,4361.538461,4565.128205,4523.076923,4344.102564,4491.794871,4199.487179,4443.076923,4083.589743,4214.358974,4491.282051,4152.820512,4611.282051,3937.435898,3947.692308
16,4354.871794,4557.435897,4520.512820,4343.589743,4491.794871,4200.000000,4439.487179,4078.461538,4217.948717,4491.282051,4142.051282,4606.153846,3935.384616,3944.102565
17,4355.897435,4556.923076,4523.589743,4333.846153,4490.256410,4201.025641,4438.461538,4083.076923,4218.974358,4491.794871,4140.000000,4610.769230,3935.897436,3946.153847
18,4360.000000,4559.487179,4522.564102,4335.384615,4489.230769,4196.410256,4432.820512,4086.153846,4216.410256,4494.358974,4153.846153,4615.897435,3939.487180,3954.358975
19,4362.564102,4562.564102,4523.589743,4348.717948,4490.256410,4193.333333,4429.230769,4083.076923,4222.051282,4503.076923,4157.948717,4614.358974,3951.282052,3956.410257
20,4365.641025,4568.717948,4527.179487,4350.769230,4490.769230,4198.461538,4437.435897,4087.179487,4227.179487,4507.179487,4151.282051,4614.358974,3956.923077,3955.384616
21,4364.102564,4568.717948,4524.102564,4343.076923,4489.743589,4202.564102,4444.615384,4089.743589,4223.589743,4501.538461,4154.871794,4615.897435,3945.128206,3953.846154
22,4364.615384,4565.641025,4524.615384,4343.589743,4497.435897,4204.615384,4443.076923,4093.846153,4229.743589,4504.615384,4169.743589,4615.384615,3942.051283,3953.846154
23,4375.384615,4572.307692,4535.384615,4350.256410,4505.641025,4208.717948,4443.076923,4102.564102,4240.512820,4515.384615,4182.051282,4623.076923,3956.410257,3961.025642
24,4373.333333,4576.410256,4534.358974,4346.153846,4497.435897,4205.128205,4438.974358,4095.897435,4230.256410,4511.282051,4176.923076,4623.589743,3964.102565,3961.538462
25,4354.871794,4566.153846,4520.512820,4337.435897,4487.179487,4197.948717,4427.179487,4080.000000,4212.307692,4496.923076,4165.641025,4608.205128,3955.384616,3954.358975
26,4356.410256,4562.564102,4516.923076,4341.025641,4491.282051,4200.512820,4426.153846,4085.641025,4215.897435,4496.923076,4166.153846,4603.589743,3946.666667,3953.846154
27,4369.743589,4570.256410,4527.179487,4349.743589,4496.410256,4203.589743,4436.923076,4098.461538,4228.205128,4507.692307,4166.153846,4617.435897,3950.769231,3958.974359
28,4366.153846,4569.230769,4531.794871,4349.230769,4493.333333,4201.025641,4443.076923,4097.948717,4231.282051,4511.794871,4164.615384,4621.025641,3952.307693,3960.000000
29,4356.410256,4564.102564,4526.666666,4346.666666,4491.794871,4199.487179,4441.025641,4099.487179,4233.846153,4508.717948,4168.205128,4613.846153,3946.666667,3956.923077
30,4358.974358,4565.641025,4526.666666,4345.641025,4490.769230,4200.000000,4441.025641,4104.615384,4231.794871,4506.153846,4165.128205,4614.358974,3945.128206,3955.384616
31,4363.589743,4563.076923,4526.666666,4336.410256,4490.769230,4201.025641,4445.128205,4103.589743,4224.615384,4508.205128,4157.435897,4618.461538,3946.666667,3957.435898
32,4360.512820,4558.974358,4523.076923,4327.692307,4493.846153,4202.051282,4441.538461,4100.000000,4226.666666,4509.230769,4155.897435,4617.948717,3948.205129,3957.948718
33,4349.743589,4560.512820,4519.487179,4331.794871,4488.205128,4194.871794,4430.769230,4091.794871,4222.564102,4498.461538,4155.897435,4610.256410,3948.717949,3946.666667
34,4342.564102,4557.948717,4517.948717,4336.410256,4476.410256,4186.153846,4425.641025,4085.128205,4208.717948,4487.692307,4151.794871,4604.615384,3945.641026,3940.512821
35,4350.256410,4552.307692,4516.923076,4336.923076,4481.025641,4189.743589,4428.717948,4088.205128,4214.358974,4496.410256,4150.769230,4609.743589,3945.128206,3947.179488
36,4354.358974,4552.820512,4519.487179,4333.846153,4492.820512,4194.358974,4430.769230,4093.333333,4227.692307,4502.564102,4156.410256,4615.897435,3954.871795,3948.205129
37,4350.769230,4554.871794,4521.538461,4327.692307,4492.820512,4193.333333,4430.256410,4090.256410,4220.000000,4494.871794,4156.923076,4613.846153,3969.743590,3946.666667
38,4349.743589,4551.794871,4521.025641,4326.666666,4491.794871,4196.923076,4432.820512,4089.230769,4212.307692,4491.282051,4147.692307,4608.717948,3974.871795,3947.179488
39,4347.179487,4547.179487,4517.948717,4331.282051,4495.384615,4203.589743,4433.333333,4090.256410,4216.410256,4495.384615,4151.282051,4609.743589,3975.384616,3944.615385
40,4345.641025,4550.256410,4511.282051,4334.358974,4494.871794,4203.589743,4429.230769,4089.230769,4217.948717,4497.948717,4168.717948,4615.897435,3990.256411,3949.743590
41,4351.794871,4552.820512,4510.256410,4328.205128,4489.230769,4195.897435,4422.051282,4088.717948,4216.923076,4496.410256,4163.076923,4617.435897,4009.743589,3957.948718
42,4353.846153,4545.128205,4517.948717,4320.000000,4485.128205,4190.256410,4418.974358,4089.743589,4214.358974,4495.897435,4153.846153,4614.358974,4014.871794,3956.923077
43,4358.974358,4545.128205,4523.076923,4327.692307,4488.205128,4194.871794,4423.589743,4097.948717,4218.461538,4504.102564,4172.307692,4626.666666,4020.000000,3960.512821
44,4369.743589,4556.410256,4524.102564,4338.461538,4494.871794,4203.076923,4430.769230,4109.743589,4234.358974,4514.358974,4182.051282,4644.102564,4028.205128,3970.769231
45,4364.615384,4554.358974,4524.102564,4328.205128,4493.846153,4200.000000,4431.282051,4108.717948,4236.410256,4510.256410,4168.717948,4643.589743,4025.641025,3966.666667
46,4353.846153,4543.076923,4522.051282,4322.051282,4489.230769,4194.358974,4428.205128,4104.615384,4222.051282,4500.512820,4165.128205,4635.384615,4020.000000,3957.435898
47,4353.846153,4541.025641,4517.435897,4329.230769,4492.307692,4197.435897,4429.230769,4109.230769,4220.512820,4500.000000,4174.358974,4634.358974,4012.307692,3955.897436
48,4350.769230,4538.974358,4514.358974,4325.128205,4494.358974,4200.000000,4429.230769,4109.743589,4226.153846,4502.051282,4171.282051,4632.820512,4001.025641,3955.384616
49,4348.717948,4539.487179,4516.410256,4323.589743,4491.282051,4197.435897,4427.179487,4106.153846,4221.025641,4507.179487,4162.051282,4629.743589,4004.615384,3955.384616
50,4355.384615,4548.205128,4522.564102,4327.692307,4491.794871,4197.948717,4429.230769,4109.743589,4222.051282,4512.820512,4164.102564,4632.307692,4018.461538,3957.435898
51,4357.435897,4546.153846,4523.589743,4321.025641,4489.743589,4194.871794,4429.230769,4110.769230,4229.230769,4508.205128,4166.153846,4633.846153,4014.358974,3957.948718
52,4352.307692,4541.025641,4516.923076,4315.384615,4483.076923,4187.692307,4423.589743,4105.641025,4226.153846,4499.487179,4161.538461,4629.230769,4001.538461,3955.384616
53,4353.333333,4545.641025,4512.307692,4320.000000,4484.102564,4186.666666,4422.051282,4102.051282,4216.923076,4501.538461,4161.025641,4629.743589,4002.564102,3955.384616
54,4357.948717,4546.153846,4517.948717,4326.153846,4491.794871,4191.794871,4430.769230,4106.666666,4220.000000,4511.794871,4168.717948,4635.897435,4011.282051,3959.487180
55,4361.538461,4544.102564,4523.589743,4327.692307,4491.794871,4194.358974,4435.384615,4114.358974,4229.230769,4512.307692,4173.846153,4637.435897,4011.794871,3960.512821
56,4363.076923,4548.205128,4521.025641,4324.615384,4489.230769,4192.307692,4431.794871,4116.923076,4229.230769,4505.128205,4168.717948,4634.871794,4008.205128,3957.435898
57,4369.230769,4550.256410,4521.538461,4325.641025,4492.820512,4195.384615,4435.384615,4125.128205,4231.794871,4510.769230,4173.333333,4640.512820,4009.743589,3963.076924
58,4375.897435,4548.717948,4526.153846,4328.205128,4494.358974,4199.487179,4442.051282,4135.384615,4238.461538,4518.461538,4182.051282,4644.102564,4012.307692,3971.282052
59,4372.307692,4545.641025,4523.076923,4320.000000,4490.256410,4193.846153,4443.589743,4131.282051,4239.487179,4513.846153,4176.410256,4637.435897,4012.820512,3964.615385
60,4367.692307,4542.051282,4516.410256,4314.358974,4489.230769,4188.205128,4441.538461,4126.153846,4241.025641,4512.820512,4173.846153,4631.794871,4005.128205,3953.333334
61,4375.384615,4543.589743,4516.923076,4316.410256,4492.820512,4194.871794,4442.051282,4129.743589,4242.051282,4515.897435,4177.435897,4636.923076,3996.923077,3956.410257
62,4384.615384,4552.307692,4521.538461,4317.948717,4501.538461,4206.153846,4450.769230,4134.871794,4242.564102,4514.358974,4174.358974,4644.615384,4003.076923,3962.564103
63,4383.076923,4548.717948,4522.564102,4324.615384,4503.589743,4206.153846,4457.948717,4132.820512,4242.564102,4516.923076,4172.820512,4638.974358,4007.179487,3959.487180
64,4378.974358,4541.538461,4521.025641,4334.358974,4493.846153,4201.025641,4457.948717,4128.205128,4238.461538,4516.923076,4174.358974,4632.307692,3997.948718,3955.897436
65,4386.666666,4547.179487,4521.025641,4337.435897,4496.923076,4203.589743,4457.435897,4127.692307,4236.410256,4510.256410,4171.282051,4634.358974,3990.769231,3961.538462
66,4393.846153,4551.794871,4524.615384,4333.333333,4505.128205,4210.256410,4460.000000,4128.205128,4238.461538,4512.820512,4176.923076,4638.461538,3988.205129,3966.666667
67,4386.666666,4544.615384,4521.538461,4324.615384,4498.461538,4207.692307,4457.948717,4126.666666,4236.923076,4514.871794,4182.564102,4632.307692,3981.025642,3961.538462
68,4381.538461,4542.051282,4513.333333,4316.923076,4495.897435,4199.487179,4456.923076,4126.153846,4236.410256,4505.641025,4169.743589,4623.589743,3982.051283,3956.410257
69,4390.256410,4547.692307,4512.820512,4323.589743,4503.589743,4202.564102,4454.358974,4127.692307,4240.512820,4508.205128,4163.589743,4622.564102,3987.179488,3957.435898
70,4394.358974,4542.564102,4515.384615,4332.307692,4496.410256,4203.589743,4446.153846,4125.128205,4233.846153,4512.307692,4171.794871,4623.589743,3983.076924,3957.948718
71,4389.743589,4536.410256,4510.256410,4320.000000,4486.666666,4197.435897,4443.076923,4121.538461,4227.692307,4505.641025,4172.307692,4622.051282,3978.974359,3956.923077
72,4389.230769,4539.487179,4505.641025,4305.641025,4492.307692,4197.435897,4443.076923,4121.538461,4231.794871,4504.102564,4158.461538,4616.410256,3978.461539,3955.897436
73,4393.846153,4537.948717,4508.717948,4315.897435,4493.846153,4197.948717,4443.076923,4121.538461,4230.769230,4506.153846,4149.230769,4615.384615,3980.000000,3955.897436
74,4397.435897,4536.923076,4512.307692,4328.717948,4490.256410,4198.461538,4444.615384,4119.487179,4229.230769,4503.076923,4161.025641,4619.487179,3976.410257,3956.923077
75,4396.923076,4545.641025,4509.230769,4324.615384,4494.871794,4200.512820,4438.461538,4115.897435,4229.743589,4501.538461,4174.358974,4617.435897,3969.230770,3956.410257
76,4400.000000,4553.333333,4509.230769,4323.076923,4497.435897,4200.512820,4432.307692,4114.871794,4228.717948,4506.153846,4164.102564,4616.923076,3975.384616,3955.384616
77,4407.692307,4549.230769,4512.307692,4322.051282,4492.820512,4198.461538,4433.333333,4117.435897,4230.256410,4506.153846,4155.384615,4621.025641,3986.153847,3956.410257
78,4408.717948,4545.641025,4511.282051,4318.974358,4496.410256,4198.461538,4435.384615,4116.410256,4231.794871,4506.666666,4169.230769,4621.025641,3980.512821,3957.435898
79,4411.282051,4553.846153,4516.923076,4329.743589,4502.564102,4202.564102,4438.974358,4120.512820,4233.333333,4515.897435,4182.051282,4622.564102,3973.846154,3958.974359
80,4417.948717,4557.435897,4521.025641,4329.230769,4503.076923,4204.615384,4446.153846,4127.692307,4237.948717,4516.410256,4181.025641,4629.230769,3982.564103,3961.538462
81,4411.794871,4550.769230,4513.846153,4307.692307,4502.051282,4202.051282,4444.102564,4126.666666,4237.948717,4507.179487,4179.487179,4623.076923,3985.128206,3958.461539
82,4410.769230,4547.692307,4514.871794,4313.846153,4498.461538,4197.948717,4437.435897,4123.589743,4229.230769,4505.641025,4188.717948,4620.000000,3979.487180,3956.410257
83,4420.512820,4544.102564,4522.051282,4336.923076,4495.384615,4200.512820,4436.923076,4123.589743,4224.102564,4506.666666,4194.358974,4630.256410,3976.923077,3959.487180
84,4414.871794,4537.435897,4511.794871,4329.743589,4495.897435,4196.923076,4438.974358,4120.000000,4226.153846,4501.538461,4180.000000,4626.153846,3971.282052,3956.923077
85,4407.692307,4538.461538,4503.076923,4316.410256,4493.333333,4190.256410,4441.025641,4125.641025,4233.333333,4505.128205,4174.871794,4618.974358,3966.666667,3954.358975
86,4413.333333,4541.538461,4511.794871,4323.589743,4488.205128,4192.307692,4444.102564,4136.410256,4237.435897,4511.282051,4185.128205,4625.128205,3971.794872,3958.974359
87,4409.743589,4536.410256,4512.820512,4322.051282,4489.743589,4191.794871,4442.051282,4130.769230,4228.205128,4505.641025,4175.384615,4623.589743,3975.384616,3957.948718
88,4401.025641,4536.410256,4506.153846,4310.256410,4491.282051,4190.769230,4438.974358,4122.564102,4221.538461,4504.615384,4164.102564,4617.435897,3976.923077,3954.358975
89,4406.153846,4546.153846,4512.307692,4317.435897,4490.256410,4195.897435,4442.051282,4130.256410,4232.820512,4515.897435,4180.512820,4626.666666,3984.615385,3961.025642
90,4411.282051,4548.717948,4520.512820,4329.743589,4494.358974,4198.974358,4444.615384,4134.871794,4242.051282,4524.615384,4194.358974,4631.794871,3984.615385,3964.615385
91,4407.692307,4543.589743,4515.897435,4322.564102,4495.897435,4198.461538,4443.589743,4128.205128,4233.333333,4522.564102,4181.025641,4624.615384,3973.333334,3957.435898
92,4406.153846,4543.589743,4510.769230,4315.384615,4493.846153,4195.897435,4442.051282,4124.615384,4226.666666,4518.461538,4171.282051,4623.076923,3974.871795,3955.384616
93,4408.717948,4543.076923,4510.769230,4322.051282,4490.256410,4190.256410,4438.974358,4125.641025,4233.333333,4514.358974,4180.000000,4626.666666,3978.974359,3960.512821
94,4407.179487,4536.923076,4510.769230,4320.000000,4488.717948,4184.102564,4436.410256,4125.128205,4232.820512,4508.205128,4179.487179,4624.102564,3966.153847,3954.358975
95,4406.666666,4537.435897,4513.333333,4313.333333,4490.256410,4187.692307,4433.333333,4124.615384,4222.051282,4504.102564,4167.179487,4617.435897,3961.025642,3946.666667
96,4408.717948,4547.692307,4512.820512,4323.589743,4488.717948,4190.769230,4428.205128,4120.512820,4217.948717,4509.230769,4164.102564,4614.871794,3969.230770,3949.230770
97,4409.743589,4547.179487,4507.692307,4331.794871,4487.692307,4187.692307,4429.230769,4111.794871,4217.435897,4510.256410,4168.717948,4616.923076,3964.615385,3950.256411
98,4411.282051,4545.641025,4509.743589,4326.666666,4491.282051,4190.256410,4435.897435,4111.282051,4222.564102,4502.051282,4167.692307,4619.487179,3957.948718,3949.743590
99,4415.897435,4550.256410,4515.897435,4323.076923,4494.358974,4197.948717,4435.384615,4120.000000,4228.205128,4497.948717,4162.564102,4621.025641,3961.538462,3955.897436
100,4414.871794,4549.743589,4510.769230,4314.358974,4492.307692,4194.871794,4428.717948,4123.589743,4224.615384,4503.589743,4163.076923,4621.025641,3963.076924,3958.461539
101,4411.282051,4546.666666,4507.692307,4307.179487,4493.333333,4190.769230,4433.333333,4118.461538,4226.153846,4514.871794,4166.153846,4622.564102,3966.666667,3955.384616
102,4415.384615,4550.769230,4516.410256,4322.564102,4496.410256,4195.897435,4441.538461,4119.487179,4235.384615,4517.948717,4170.256410,4622.051282,3971.794872,3954.871795
103,4421.538461,4555.897435,4521.025641,4338.461538,4495.384615,4198.461538,4442.564102,4127.692307,4235.384615,4514.358974,4178.461538,4621.025641,3965.641026,3958.461539
104,4418.974358,4551.282051,4513.846153,4328.717948,4497.435897,4198.461538,4438.461538,4121.538461,4224.102564,4508.205128,4183.589743,4622.051282,3956.410257,3955.897436
105,4410.256410,4542.564102,4503.589743,4314.871794,4495.897435,4196.410256,4430.256410,4108.717948,4216.923076,4496.410256,4175.384615,4616.923076,3951.282052,3946.153847
106,4410.256410,4542.051282,4508.205128,4321.025641,4493.846153,4194.871794,4425.641025,4118.461538,4222.564102,4494.871794,4168.205128,4614.358974,3952.820513,3945.641026
107,4422.564102,4552.307692,4522.051282,4333.846153,4497.435897,4197.435897,4433.333333,4138.461538,4236.410256,4512.820512,4176.923076,4627.179487,3967.179488,3962.051283
108,4433.333333,4558.461538,4525.641025,4335.384615,4496.923076,4196.410256,4437.435897,4134.871794,4242.051282,4527.179487,4189.743589,4634.358974,3979.487180,3968.205129
109,4428.205128,4552.307692,4515.897435,4324.102564,4490.256410,4190.256410,4427.179487,4120.000000,4232.820512,4522.051282,4188.717948,4622.564102,3972.820513,3959.487180
110,4416.923076,4546.666666,4504.615384,4314.871794,4487.179487,4188.717948,4422.564102,4120.512820,4223.076923,4513.846153,4174.871794,4613.333333,3964.102565,3955.384616
111,4415.897435,4547.692307,4505.128205,4317.435897,4488.205128,4187.692307,4426.153846,4123.076923,4223.076923,4510.256410,4168.717948,4612.820512,3964.102565,3954.871795
112,4422.564102,4550.256410,4508.205128,4324.102564,4488.205128,4187.179487,4426.666666,4120.000000,4228.205128,4505.128205,4178.461538,4612.307692,3965.641026,3954.871795
113,4429.743589,4547.692307,4508.717948,4327.692307,4492.820512,4191.794871,4427.692307,4120.000000,4224.615384,4507.692307,4183.589743,4613.846153,3969.230770,3957.435898
114,4429.230769,4544.615384,4507.692307,4321.025641,4493.333333,4188.717948,4425.128205,4120.512820,4217.435897,4509.743589,4172.307692,4615.384615,3967.179488,3955.897436
115,4424.615384,4547.179487,4506.666666,4316.923076,4484.615384,4181.538461,4423.076923,4121.025641,4223.076923,4507.179487,4167.179487,4613.333333,3957.435898,3953.846154
116,4428.205128,4551.794871,4508.717948,4324.102564,4483.076923,4188.717948,4428.205128,4125.641025,4230.769230,4511.282051,4177.948717,4613.846153,3958.461539,3956.410257
117,4436.923076,4550.769230,4509.743589,4329.230769,4490.256410,4195.384615,4432.307692,4130.256410,4227.692307,4516.410256,4176.410256,4620.512820,3969.230770,3962.051283
118,4432.820512,4544.615384,4507.179487,4322.051282,4491.794871,4190.256410,4429.743589,4126.666666,4220.512820,4511.794871,4163.076923,4617.948717,3967.179488,3958.461539
119,4422.564102,4543.076923,4503.076923,4310.769230,4487.692307,4188.205128,4429.743589,4122.564102,4220.512820,4503.076923,4163.076923,4604.615384,3955.897436,3945.641026
120,4428.717948,4548.717948,4502.564102,4309.230769,4488.205128,4193.333333,4431.794871,4127.179487,4227.179487,4507.692307,4172.307692,4605.641025,3960.512821,3945.641026
121,4443.589743,4549.743589,4510.256410,4318.974358,4491.794871,4195.384615,4433.333333,4137.948717,4234.358974,4516.410256,4176.923076,4619.487179,3972.307693,3956.410257
122,4451.282051,4551.282051,4522.564102,4332.307692,4497.435897,4194.358974,4439.487179,4147.692307,4241.025641,4522.564102,4182.564102,4631.282051,3974.871795,3960.000000
123,4452.307692,4558.461538,4527.179487,4336.410256,4502.051282,4202.051282,4445.128205,4149.230769,4247.179487,4526.153846,4189.743589,4634.871794,3979.487180,3958.974359
124,4448.205128,4549.743589,4517.948717,4329.230769,4496.410256,4204.102564,4440.000000,4143.589743,4240.512820,4515.897435,4185.641025,4626.666666,3983.589744,3958.974359
125,4435.897435,4535.384615,4507.179487,4316.410256,4486.666666,4189.743589,4431.282051,4130.256410,4221.025641,4500.512820,4181.538461,4615.384615,3981.025642,3948.205129
126,4426.666666,4536.410256,4505.641025,4311.282051,4488.717948,4184.615384,4427.692307,4124.615384,4218.974358,4499.487179,4189.743589,4611.794871,3984.102565,3940.512821
127,4434.358974,4538.974358,4509.230769,4313.333333,4495.384615,4195.897435,4429.230769,4132.307692,4230.256410,4510.256410,4197.435897,4617.948717,4001.025641,3945.641026
128,4442.051282,4536.410256,4508.717948,4304.615384,4494.871794,4196.923076,4429.230769,4134.358974,4227.692307,4506.153846,4194.871794,4621.538461,4005.128205,3947.692308
129,4435.897435,4537.435897,4505.641025,4298.461538,4487.692307,4184.615384,4425.641025,4126.153846,4215.384615,4492.307692,4191.282051,4623.076923,3993.846154,3944.615385
130,4434.871794,4538.461538,4508.205128,4313.846153,4487.179487,4182.564102,4419.487179,4123.076923,4213.846153,4492.820512,4187.692307,4628.205128,3997.435898,3943.076924
131,4443.589743,4540.000000,4509.230769,4322.051282,4491.282051,4188.205128,4414.358974,4129.230769,4220.000000,4500.000000,4177.948717,4633.846153,4013.333333,3945.128206
132,4445.128205,4547.179487,4508.205128,4315.897435,4490.256410,4194.358974,4417.435897,4133.846153,4222.564102,4503.076923,4177.435897,4633.846153,4021.025641,3950.769231
133,4442.564102,4548.205128,4512.307692,4318.461538,4490.769230,4196.410256,4423.076923,4138.461538,4221.025641,4506.153846,4182.564102,4632.820512,4018.974358,3951.282052
134,4445.128205,4546.153846,4511.282051,4315.384615,4491.794871,4192.820512,4420.000000,4138.974358,4222.051282,4508.205128,4183.076923,4636.410256,4016.923076,3949.230770
135,4449.743589,4546.666666,4509.743589,4307.692307,4490.769230,4191.794871,4418.461538,4137.948717,4226.153846,4505.128205,4191.794871,4637.948717,4013.846153,3955.384616
136,4450.769230,4543.076923,4515.384615,4313.846153,4492.820512,4194.871794,4424.615384,4140.000000,4226.666666,4506.153846,4197.435897,4638.974358,4012.307692,3957.435898
137,4446.666666,4540.512820,4514.358974,4311.282051,4493.333333,4196.410256,4427.179487,4138.461538,4222.051282,4508.205128,4188.717948,4639.487179,4011.794871,3949.230770
138,4441.025641,4537.948717,4505.128205,4299.487179,4490.769230,4192.307692,4424.615384,4135.897435,4216.923076,4500.000000,4182.051282,4633.333333,4008.717948,3945.641026
139,4441.538461,4532.820512,4504.615384,4304.615384,4491.282051,4191.282051,4426.153846,4135.897435,4218.974358,4495.384615,4177.435897,4628.717948,4006.666666,3946.153847
140,4443.589743,4533.333333,4508.717948,4315.897435,4492.307692,4194.358974,4428.717948,4136.923076,4228.205128,4503.589743,4177.435897,4632.307692,4008.205128,3943.076924
141,4443.076923,4540.000000,4506.153846,4307.692307,4489.230769,4192.820512,4425.128205,4138.461538,4229.743589,4506.153846,4187.179487,4635.384615,4007.179487,3944.102565
142,4443.076923,4538.461538,4505.641025,4297.435897,4488.205128,4186.153846,4420.512820,4136.923076,4222.051282,4497.435897,4189.230769,4631.794871,3999.487180,3944.102565
143,4441.025641,4536.923076,4508.717948,4303.589743,4490.256410,4184.615384,4421.538461,4133.846153,4225.128205,4496.410256,4181.025641,4630.769230,4000.000000,3942.564103
144,4442.051282,4540.512820,4510.256410,4310.256410,4490.769230,4190.256410,4427.692307,4141.025641,4235.897435,4510.769230,4179.487179,4636.923076,4008.205128,3945.128206
145,4442.564102,4539.487179,4509.743589,4306.153846,4491.282051,4190.769230,4429.743589,4154.358974,4237.948717,4520.000000,4182.564102,4639.487179,4008.717948,3946.153847
146,4437.435897,4535.897435,4506.666666,4297.435897,4488.717948,4186.153846,4427.692307,4150.769230,4237.435897,4516.410256,4181.538461,4634.358974,4006.666666,3943.076924
147,4438.461538,4540.512820,4505.641025,4292.820512,4488.205128,4188.205128,4427.179487,4139.487179,4236.410256,4513.333333,4186.666666,4631.282051,4007.179487,3945.641026
148,4446.666666,4547.692307,4510.256410,4298.974358,4490.769230,4194.358974,4427.692307,4139.487179,4230.769230,4512.820512,4195.897435,4633.846153,4007.692307,3953.333334
149,4449.743589,4546.153846,4511.794871,4311.282051,4489.743589,4191.282051,4425.128205,4141.538461,4225.128205,4508.205128,4193.846153,4636.410256,4008.205128,3952.307693
150,4444.102564,4538.461538,4506.153846,4310.769230,4487.692307,4185.641025,4421.025641,4137.435897,4225.128205,4502.564102,4182.051282,4632.307692,4002.051282,3943.589744
151,4436.923076,4535.897435,4502.051282,4299.487179,4488.717948,4187.179487,4422.564102,4136.923076,4230.769230,4505.128205,4180.512820,4625.641025,3990.256411,3938.974359
152,4435.384615,4538.461538,4503.589743,4297.948717,4490.769230,4192.307692,4428.717948,4138.461538,4233.333333,4509.743589,4185.641025,4626.153846,3988.205129,3942.564103
153,4442.051282,4538.974358,4506.666666,4302.564102,4491.282051,4195.384615,4428.717948,4140.000000,4228.205128,4503.589743,4184.615384,4628.717948,3992.307693,3946.666667
154,4444.615384,4538.461538,4505.641025,4303.076923,4492.307692,4191.282051,4424.615384,4140.512820,4221.025641,4494.871794,4183.589743,4627.179487,3989.230770,3943.076924
155,4443.589743,4544.102564,4505.641025,4304.102564,4492.307692,4187.692307,4422.564102,4140.000000,4221.025641,4499.487179,4183.076923,4626.153846,3989.743590,3942.564103
156,4449.743589,4549.743589,4515.384615,4309.230769,4489.743589,4197.435897,4425.128205,4145.641025,4228.717948,4509.230769,4185.128205,4632.307692,3998.974359,3951.282052
157,4459.487179,4551.282051,4520.512820,4314.358974,4495.384615,4205.641025,4429.743589,4155.384615,4233.846153,4512.307692,4196.923076,4638.974358,4005.641025,3960.512821
158,4457.948717,4550.256410,4518.974358,4315.897435,4500.512820,4198.974358,4430.256410,4154.358974,4232.820512,4516.410256,4206.153846,4640.000000,4001.025641,3960.512821
159,4448.717948,4545.128205,4514.871794,4306.153846,4494.871794,4192.820512,4427.179487,4148.205128,4233.333333,4515.897435,4199.487179,4634.358974,3989.230770,3951.794872
160,4445.641025,4544.615384,4511.794871,4301.538461,4491.794871,4197.435897,4429.743589,4151.794871,4237.435897,4507.179487,4188.717948,4630.256410,3988.205129,3949.230770
161,4448.717948,4549.743589,4515.384615,4308.717948,4495.897435,4200.512820,4431.794871,4153.846153,4238.461538,4504.615384,4181.538461,4632.820512,3997.435898,3953.846154
162,4448.717948,4547.692307,4516.923076,4307.179487,4494.358974,4193.333333,4427.179487,4148.205128,4234.358974,4511.282051,4184.615384,4631.794871,3995.897436,3952.820513
163,4441.025641,4536.410256,4509.230769,4300.000000,4489.743589,4188.205128,4424.102564,4141.538461,4227.692307,4508.717948,4194.358974,4623.076923,3983.589744,3945.641026
164,4433.333333,4528.717948,4502.051282,4295.384615,4486.153846,4189.743589,4418.974358,4133.333333,4217.948717,4494.358974,4192.820512,4615.897435,3976.410257,3942.564103
165,4428.205128,4532.820512,4504.102564,4290.256410,4483.589743,4185.641025,4412.820512,4131.282051,4212.820512,4493.333333,4181.025641,4615.897435,3974.871795,3940.512821
166,4427.692307,4535.384615,4505.641025,4296.410256,4481.538461,4182.051282,4418.461538,4136.923076,4217.948717,4502.051282,4181.538461,4618.461538,3975.384616,3940.000000
167,4430.256410,4529.743589,4506.153846,4307.692307,4483.589743,4188.205128,4428.717948,4142.564102,4229.743589,4502.564102,4186.666666,4618.974358,3975.897436,3943.076924
168,4429.230769,4526.666666,4508.717948,4300.512820,4485.128205,4189.230769,4428.717948,4141.538461,4231.282051,4497.435897,4175.384615,4617.948717,3972.820513,3941.025642
169,4428.205128,4535.897435,4508.717948,4292.820512,4484.615384,4183.076923,4426.153846,4138.461538,4223.076923,4496.410256,4163.076923,4620.512820,3973.846154,3938.974359
170,4430.256410,4542.564102,4509.743589,4296.923076,4487.179487,4189.230769,4428.205128,4145.128205,4223.589743,4502.051282,4178.461538,4622.564102,3975.897436,3944.615385
171,4429.230769,4533.333333,4514.871794,4296.410256,4487.692307,4195.384615,4425.641025,4150.256410,4231.794871,4506.153846,4197.948717,4622.051282,3972.820513,3949.230770
172,4425.641025,4525.641025,4519.487179,4294.358974,4484.615384,4191.282051,4421.538461,4147.179487,4234.358974,4503.589743,4197.435897,4622.051282,3972.307693,3945.641026
173,4423.589743,4528.717948,4513.333333,4293.846153,4486.153846,4190.769230,4424.615384,4148.717948,4236.410256,4502.051282,4190.256410,4621.538461,3977.948718,3942.564103
174,4417.435897,4529.743589,4505.641025,4288.717948,4487.692307,4192.307692,4427.179487,4152.307692,4237.948717,4506.666666,4184.102564,4620.512820,3977.948718,3943.589744
175,4411.282051,4527.692307,4508.205128,4289.743589,4487.179487,4192.307692,4424.615384,4146.666666,4233.846153,4508.205128,4182.051282,4622.051282,3975.897436,3943.076924
176,4412.820512,4529.743589,4511.282051,4297.435897,4486.666666,4192.307692,4421.025641,4142.564102,4230.256410,4506.666666,4187.179487,4623.589743,3977.948718,3943.589744
177,4408.717948,4527.179487,4506.666666,4292.820512,4483.589743,4188.717948,4415.384615,4136.923076,4225.641025,4504.102564,4182.564102,4616.923076,3970.256411,3942.051283
178,4402.564102,4520.512820,4503.076923,4287.692307,4480.512820,4185.641025,4412.820512,4124.615384,4215.384615,4491.794871,4167.692307,4608.205128,3958.974359,3935.897436
179,4407.692307,4522.564102,4505.641025,4294.871794,4488.717948,4188.717948,4420.000000,4123.589743,4214.871794,4488.717948,4167.692307,4610.769230,3960.512821,3938.974359
180,4409.230769,4526.153846,4507.692307,4289.230769,4492.820512,4193.846153,4420.000000,4124.102564,4217.948717,4494.871794,4172.820512,4613.846153,3965.128206,3944.615385
181,4404.102564,4526.666666,4507.179487,4274.871794,4486.666666,4191.794871,4413.333333,4116.410256,4212.307692,4490.256410,4174.871794,4611.282051,3958.461539,3941.025642
182,4409.230769,4529.743589,4509.230769,4286.153846,4489.743589,4191.794871,4418.974358,4120.512820,4214.871794,4489.743589,4192.307692,4613.846153,3956.923077,3940.512821
183,4413.333333,4527.692307,4511.282051,4303.076923,4494.358974,4193.846153,4425.641025,4127.692307,4226.153846,4500.512820,4207.179487,4618.974358,3966.666667,3945.641026
184,4401.025641,4522.051282,4507.692307,4295.897435,4485.128205,4190.769230,4415.384615,4122.564102,4218.461538,4494.871794,4200.000000,4611.794871,3964.102565,3942.564103
185,4391.282051,4521.025641,4503.076923,4291.794871,4477.948717,4183.076923,4408.717948,4119.487179,4207.179487,4482.051282,4195.897435,4604.102564,3956.410257,3938.974359
186,4400.000000,4525.128205,4507.179487,4296.410256,4483.589743,4186.153846,4418.461538,4124.102564,4218.461538,4492.307692,4202.051282,4610.769230,3961.025642,3941.025642
187,4412.307692,4534.871794,4515.897435,4294.358974,4495.384615,4198.974358,4427.692307,4126.153846,4228.205128,4509.743589,4202.564102,4618.461538,3967.179488,3945.128206
188,4414.358974,4542.051282,4514.871794,4296.923076,4504.615384,4202.564102,4427.692307,4129.230769,4223.076923,4508.717948,4206.153846,4616.923076,3967.692308,3952.820513
189,4409.230769,4536.923076,4512.307692,4302.564102,4502.564102,4195.384615,4424.615384,4130.256410,4222.051282,4503.589743,4208.717948,4613.333333,3965.641026,3951.794872
190,4408.717948,4531.794871,4516.410256,4304.102564,4495.384615,4193.846153,4427.692307,4129.230769,4229.743589,4506.666666,4197.948717,4615.897435,3966.666667,3945.641026
191,4410.769230,4536.410256,4522.564102,4307.179487,4501.538461,4197.948717,4432.820512,4134.871794,4233.333333,4508.717948,4192.820512,4621.025641,3973.846154,3954.358975
192,4408.205128,4535.384615,4520.000000,4300.000000,4505.641025,4194.871794,4433.333333,4135.897435,4229.743589,4506.153846,4205.641025,4621.025641,3977.435898,3961.025642
193,4400.000000,4526.153846,4509.743589,4283.589743,4494.358974,4189.743589,4428.717948,4124.615384,4221.025641,4503.589743,4206.153846,4615.897435,3961.538462,3949.230770
194,4393.846153,4520.512820,4506.666666,4286.153846,4490.769230,4190.256410,4425.128205,4117.948717,4214.871794,4500.000000,4187.179487,4613.846153,3950.256411,3939.487180
195,4395.384615,4523.076923,4511.282051,4296.410256,4497.948717,4189.743589,4427.179487,4120.512820,4216.923076,4495.897435,4186.153846,4616.923076,3956.923077,3946.153847
196,4400.512820,4528.205128,4515.897435,4290.769230,4494.871794,4187.179487,4429.230769,4127.179487,4221.538461,4498.974358,4197.435897,4619.487179,3961.025642,3954.358975
197,4400.000000,4530.256410,4515.897435,4285.128205,4489.743589,4188.717948,4429.743589,4132.307692,4231.794871,4504.615384,4194.871794,4621.538461,3959.487180,3956.923077
198,4396.923076,4526.666666,4520.512820,4295.384615,4494.358974,4189.743589,4430.256410,4134.871794,4236.923076,4512.307692,4201.025641,4626.666666,3962.051283,3957.435898
199,4396.923076,4523.076923,4525.128205,4301.025641,4498.974358,4188.205128,4429.230769,4132.307692,4230.256410,4518.974358,4215.384615,4625.641025,3963.589744,3956.923077
200,4395.384615,4522.564102,4515.897435,4288.717948,4493.846153,4187.692307,4427.179487,4127.179487,4230.256410,4516.410256,4203.076923,4617.435897,3963.076924,3956.410257
201,4390.769230,4523.076923,4506.666666,4280.000000,4487.179487,4183.076923,4427.179487,4122.051282,4236.923076,4506.666666,4188.717948,4614.871794,3966.153847,3955.384616
202,4389.230769,4522.564102,4509.743589,4285.641025,4491.282051,4183.589743,4428.205128,4120.000000,4234.871794,4505.641025,4195.897435,4616.410256,3963.076924,3950.256411
203,4393.846153,4524.102564,4514.358974,4292.820512,4495.897435,4187.179487,4429.230769,4118.974358,4228.717948,4508.717948,4200.000000,4615.384615,3955.384616,3949.743590
204,4397.948717,4526.666666,4513.846153,4292.820512,4491.282051,4184.615384,4427.179487,4117.435897,4229.230769,4505.641025,4194.871794,4617.435897,3957.435898,3954.871795
205,4395.897435,4526.666666,4513.333333,4292.307692,4490.769230,4184.615384,4427.179487,4121.025641,4228.205128,4507.692307,4193.846153,4618.974358,3957.948718,3951.282052
206,4391.282051,4524.102564,4510.769230,4295.384615,4494.358974,4189.230769,4429.743589,4121.538461,4222.051282,4507.692307,4187.179487,4610.256410,3946.153847,3944.615385
207,4384.102564,4518.974358,4503.589743,4291.282051,4487.179487,4184.102564,4424.102564,4108.205128,4213.333333,4487.179487,4174.358974,4600.000000,3937.948718,3938.461539
208,4378.974358,4512.820512,4502.051282,4285.641025,4479.487179,4176.410256,4414.871794,4099.487179,4211.282051,4474.358974,4169.230769,4596.410256,3940.000000,3931.282052
209,4382.051282,4515.384615,4507.692307,4293.333333,4484.615384,4182.051282,4419.487179,4108.717948,4214.871794,4489.230769,4175.384615,4600.512820,3937.435898,3935.384616
210,4388.205128,4523.589743,4513.333333,4298.461538,4493.846153,4189.230769,4431.794871,4121.025641,4218.974358,4501.025641,4187.179487,4609.230769,3938.974359,3946.153847
211,4385.641025,4525.128205,4512.820512,4287.692307,4493.846153,4185.641025,4430.769230,4122.051282,4227.179487,4500.000000,4185.641025,4610.769230,3951.794872,3945.128206
212,4376.923076,4516.410256,4506.153846,4282.564102,4490.769230,4184.102564,4425.641025,4114.358974,4224.615384,4496.923076,4180.512820,4603.076923,3953.846154,3939.487180
213,4376.923076,4514.358974,4506.666666,4294.871794,4492.820512,4187.179487,4426.666666,4111.794871,4218.974358,4494.871794,4188.717948,4598.461538,3948.717949,3941.025642
214,4378.461538,4521.025641,4509.230769,4298.461538,4495.384615,4186.666666,4429.743589,4116.410256,4226.153846,4498.461538,4190.769230,4601.025641,3952.307693,3938.974359
215,4376.410256,4520.000000,4506.153846,4288.717948,4493.846153,4184.615384,4429.743589,4115.897435,4227.179487,4503.076923,4184.102564,4600.512820,3955.897436,3936.923077
216,4377.948717,4513.333333,4506.153846,4282.564102,4492.820512,4187.692307,4428.717948,4114.871794,4221.538461,4504.102564,4190.256410,4600.000000,3967.179488,3943.589744
217,4377.435897,4512.820512,4508.717948,4280.512820,4492.307692,4186.666666,4425.128205,4118.461538,4224.615384,4498.461538,4199.487179,4603.076923,3993.333334,3947.692308
218,4369.743589,4511.282051,4507.179487,4276.923076,4487.179487,4179.487179,4417.948717,4117.435897,4228.717948,4491.282051,4190.256410,4603.589743,4006.666666,3944.102565
219,4366.153846,4508.717948,4505.641025,4276.410256,4483.589743,4177.435897,4410.769230,4112.307692,4221.025641,4496.410256,4181.025641,4601.025641,4000.000000,3940.512821
220,4370.256410,4511.794871,4507.179487,4276.410256,4488.717948,4182.564102,4410.256410,4112.820512,4217.948717,4505.641025,4187.692307,4602.564102,3996.410257,3943.076924
221,4367.692307,4510.256410,4504.615384,4277.435897,4491.282051,4186.153846,4411.794871,4115.897435,4224.102564,4498.461538,4189.230769,4605.641025,3998.974359,3943.076924
222,4363.076923,4507.692307,4502.051282,4276.923076,4487.692307,4181.025641,4412.820512,4116.410256,4224.615384,4494.871794,4183.076923,4607.179487,4003.076923,3940.000000
223,4365.128205,4513.846153,4504.615384,4267.179487,4487.692307,4176.923076,4412.307692,4118.461538,4220.512820,4500.512820,4182.564102,4612.307692,4008.717948,3940.000000
224,4365.128205,4510.256410,4506.153846,4264.102564,4488.205128,4181.025641,4412.307692,4118.974358,4214.871794,4491.794871,4184.615384,4616.410256,4010.256410,3941.538462
225,4366.666666,4502.564102,4505.128205,4275.897435,4487.692307,4185.641025,4417.435897,4123.076923,4218.461538,4488.717948,4190.256410,4618.974358,4008.717948,3942.564103
226,4370.769230,4514.871794,4506.666666,4274.871794,4490.769230,4185.128205,4423.589743,4125.641025,4228.205128,4497.435897,4201.538461,4626.666666,4008.717948,3946.153847
227,4368.205128,4525.641025,4507.692307,4265.128205,4492.307692,4184.615384,4425.128205,4121.025641,4222.564102,4492.820512,4200.512820,4628.717948,4010.256410,3947.179488
228,4361.025641,4513.846153,4506.153846,4272.820512,4491.282051,4187.179487,4425.128205,4120.000000,4213.846153,4487.179487,4187.692307,4621.025641,4010.256410,3943.076924
229,4360.000000,4506.153846,4505.641025,4281.538461,4490.769230,4186.666666,4426.666666,4121.538461,4218.974358,4491.794871,4186.666666,4616.410256,4008.205128,3938.974359
230,4365.128205,4516.410256,4507.692307,4275.897435,4491.794871,4186.666666,4425.128205,4124.102564,4224.615384,4493.333333,4182.564102,4621.025641,4010.256410,3941.538462
231,4368.717948,4524.615384,4509.230769,4274.871794,4491.282051,4187.179487,4417.948717,4125.641025,4217.435897,4492.307692,4169.230769,4623.589743,4011.794871,3946.153847
232,4367.179487,4514.871794,4507.692307,4275.897435,4489.230769,4183.589743,4410.769230,4124.102564,4216.923076,4496.410256,4173.846153,4620.512820,4002.564102,3944.102565
233,4364.102564,4505.128205,4505.128205,4267.692307,4489.743589,4182.051282,4411.794871,4124.102564,4224.102564,4499.487179,4187.179487,4621.025641,3993.846154,3940.512821
234,4366.153846,4513.333333,4507.179487,4268.205128,4490.256410,4184.615384,4423.589743,4126.666666,4220.512820,4493.846153,4190.769230,4627.692307,4002.564102,3943.076924
235,4371.794871,4523.076923,4510.769230,4278.974358,4490.256410,4185.641025,4429.743589,4125.128205,4216.923076,4487.692307,4191.794871,4632.820512,4009.743589,3946.153847
236,4369.230769,4517.948717,4507.692307,4278.461538,4490.769230,4184.615384,4419.487179,4119.487179,4217.948717,4489.743589,4189.230769,4629.230769,3999.487180,3943.589744
237,4366.666666,4513.333333,4506.666666,4273.333333,4491.282051,4185.128205,4412.820512,4118.461538,4219.487179,4491.794871,4185.128205,4624.615384,3995.384616,3946.666667
238,4373.333333,4523.589743,4516.410256,4277.948717,4490.256410,4184.615384,4425.128205,4124.615384,4226.666666,4492.307692,4198.974358,4629.743589,4009.743589,3956.923077
239,4381.538461,4532.820512,4524.102564,4282.051282,4496.410256,4189.743589,4432.307692,4136.410256,4237.948717,4504.102564,4221.538461,4638.461538,4020.000000,3963.589744
240,4381.025641,4528.205128,4523.589743,4281.538461,4500.512820,4196.923076,4425.128205,4138.974358,4235.384615,4510.769230,4221.538461,4639.487179,4017.435897,3962.564103
241,4371.794871,4520.512820,4519.487179,4272.307692,4492.820512,4191.282051,4424.102564,4134.871794,4224.102564,4503.589743,4210.769230,4632.820512,4013.333333,3958.974359
242,4364.102564,4519.487179,4511.794871,4256.410256,4487.692307,4183.076923,4427.692307,4132.820512,4224.615384,4502.051282,4200.000000,4623.589743,3998.974359,3952.307693
243,4365.641025,4518.461538,4507.179487,4262.051282,4490.256410,4185.128205,4423.076923,4127.179487,4226.153846,4502.564102,4178.974358,4618.974358,3986.666667,3944.615385
244,4369.743589,4516.410256,4508.205128,4281.025641,4492.307692,4185.641025,4418.974358,4124.102564,4220.000000,4498.974358,4167.692307,4623.589743,3987.692308,3945.641026
245,4363.589743,4513.846153,4508.717948,4276.410256,4487.692307,4182.564102,4422.564102,4127.179487,4215.897435,4495.384615,4188.205128,4627.179487,3987.692308,3951.282052
246,4360.512820,4513.846153,4513.333333,4264.102564,4483.076923,4183.589743,4426.666666,4131.794871,4221.025641,4491.794871,4206.153846,4628.717948,3985.641026,3956.410257
247,4367.692307,4518.461538,4521.538461,4265.641025,4485.128205,4184.615384,4428.205128,4134.871794,4224.615384,4495.897435,4199.487179,4630.256410,3986.666667,3958.461539
248,4365.641025,4520.000000,4518.461538,4263.076923,4490.769230,4184.615384,4427.692307,4134.358974,4221.538461,4500.512820,4190.256410,4626.153846,3984.615385,3956.410257
249,4357.948717,4513.333333,4507.692307,4260.000000,4492.307692,4188.205128,4426.666666,4131.282051,4221.538461,4496.923076,4185.641025,4622.051282,3982.564103,3954.871795
250,4363.076923,4515.384615,4510.256410,4270.256410,4489.230769,4188.205128,4427.179487,4134.871794,4226.666666,4495.384615,4180.000000,4623.589743,3985.641026,3957.435898
251,4375.384615,4526.153846,4522.564102,4280.000000,4491.794871,4187.692307,4427.692307,4142.051282,4233.846153,4500.512820,4185.641025,4627.692307,3991.282052,3961.538462
252,4375.897435,4525.128205,4520.512820,4273.846153,4494.358974,4193.333333,4429.230769,4141.538461,4232.820512,4502.051282,4195.897435,4630.256410,3989.743590,3960.512821
253,4370.256410,4518.974358,4513.333333,4265.128205,4493.333333,4193.333333,4426.153846,4131.282051,4223.076923,4496.923076,4190.769230,4624.615384,3980.000000,3954.358975
254,4373.333333,4521.538461,4513.333333,4264.615384,4491.794871,4187.692307,4418.461538,4124.102564,4217.435897,4494.358974,4182.051282,4618.974358,3973.846154,3952.820513
255,4384.102564,4528.717948,4515.384615,4264.102564,4492.820512,4191.282051,4421.025641,4128.717948,4223.076923,4502.564102,4181.538461,4624.102564,3982.564103,3956.410257
256,4394.358974,4532.820512,4517.435897,4268.205128,4493.846153,4195.384615,4428.205128,4133.333333,4231.794871,4509.230769,4183.076923,4632.820512,3993.846154,3960.000000
257,4397.948717,4526.153846,4522.051282,4278.461538,4493.846153,4190.256410,4423.076923,4124.615384,4227.179487,4501.538461,4187.179487,4631.794871,3991.282052,3965.641026
258,4395.897435,4522.564102,4523.076923,4280.000000,4490.256410,4185.641025,4414.358974,4116.923076,4219.487179,4496.410256,4193.846153,4627.179487,3982.564103,3967.692308
259,4392.820512,4524.615384,4514.871794,4267.692307,4486.666666,4186.666666,4415.384615,4121.025641,4217.948717,4498.974358,4192.820512,4623.076923,3978.974359,3960.512821
