,AF3,F7,F3,FC5,T7,P7,O1,O2,P8,T8,FC6,F4,F8,AF4
0,4374.358974,4520.000000,4529.230769,4265.128205,4497.948717,4166.153846,4425.641025,4203.589743,4215.897435,4466.153846,4184.102564,4616.923076,3909.743590,4043.589743
1,4370.256410,4520.512820,4527.692307,4264.102564,4497.948717,4167.692307,4422.051282,4197.435897,4208.205128,4468.205128,4184.615384,4611.794871,3908.205129,4035.384615
2,4375.384615,4525.641025,4529.743589,4270.769230,4499.487179,4170.769230,4418.461538,4197.435897,4206.666666,4460.512820,4185.641025,4613.333333,3910.256411,4034.871794
3,4378.461538,4524.102564,4529.743589,4273.333333,4501.538461,4169.743589,4417.948717,4198.461538,4208.205128,4468.205128,4185.641025,4615.897435,3905.128206,4038.974358
4,4372.820512,4515.897435,4528.717948,4266.153846,4495.897435,4168.205128,4423.076923,4199.487179,4206.153846,4478.974358,4190.256410,4614.358974,3903.589744,4035.897435
5,4373.333333,4515.897435,4531.282051,4264.102564,4494.871794,4169.230769,4428.205128,4203.076923,4215.384615,4474.358974,4195.384615,4617.948717,3917.948718,4035.384615
6,4380.000000,4523.589743,4534.871794,4276.410256,4502.051282,4170.769230,4428.205128,4207.692307,4226.666666,4470.769230,4201.025641,4625.641025,3925.128206,4044.615384
7,4377.948717,4525.128205,4538.461538,4281.025641,4503.076923,4171.794871,4425.641025,4203.076923,4217.948717,4477.435897,4202.564102,4622.051282,3915.897436,4045.641025
8,4376.410256,4527.179487,4537.948717,4276.923076,4500.512820,4173.333333,4425.641025,4197.948717,4209.743589,4483.076923,4203.589743,4616.410256,3916.923077,4042.051282
9,4383.589743,4538.461538,4537.948717,4280.512820,4503.076923,4175.897435,4430.256410,4201.538461,4217.435897,4484.615384,4205.128205,4621.025641,3928.717949,4047.692307
10,4384.102564,4537.435897,4541.025641,4281.538461,4503.589743,4175.897435,4432.820512,4202.051282,4216.923076,4476.410256,4202.564102,4623.589743,3928.717949,4048.717948
11,4375.384615,4523.589743,4535.897435,4275.384615,4504.102564,4170.256410,4426.153846,4194.871794,4208.205128,4462.051282,4200.512820,4617.948717,3921.538462,4039.487179
12,4376.410256,4525.641025,4533.333333,4276.410256,4505.641025,4173.846153,4424.615384,4196.923076,4213.846153,4466.666666,4200.000000,4616.410256,3921.538462,4037.948717
13,4388.205128,4540.512820,4545.128205,4285.641025,4507.692307,4182.051282,4438.974358,4211.282051,4226.153846,4488.205128,4199.487179,4624.102564,3927.179488,4050.256410
14,4391.282051,4543.589743,4550.256410,4285.128205,4509.230769,4178.461538,4443.076923,4216.410256,4226.153846,4497.948717,4200.512820,4626.666666,3929.743590,4054.358974
15,4383.076923,4536.923076,4540.512820,4275.384615,4505.128205,4174.871794,4431.794871,4211.794871,4221.538461,4490.256410,4209.743589,4620.000000,3926.153847,4046.666666
16,4382.051282,4533.333333,4542.564102,4273.333333,4505.128205,4178.461538,4432.307692,4211.794871,4227.692307,4487.692307,4217.435897,4621.025641,3932.820513,4047.179487
17,4391.282051,4533.333333,4551.794871,4279.487179,4508.205128,4181.538461,4444.615384,4217.948717,4235.897435,4492.307692,4210.769230,4627.692307,3946.666667,4056.923076
18,4388.717948,4536.410256,4545.128205,4278.461538,4505.641025,4177.435897,4446.666666,4217.948717,4230.769230,4490.256410,4201.025641,4623.589743,3937.435898,4050.769230
19,4376.923076,4539.487179,4540.000000,4275.384615,4504.615384,4176.923076,4440.512820,4212.820512,4223.076923,4490.769230,4201.025641,4620.000000,3920.000000,4035.897435
20,4384.615384,4540.000000,4546.153846,4281.538461,4509.230769,4181.538461,4444.102564,4215.384615,4229.743589,4500.512820,4213.333333,4630.256410,3930.769231,4047.179487
21,4394.358974,4538.461538,4546.153846,4283.076923,4505.641025,4181.025641,4447.692307,4216.410256,4235.897435,4501.538461,4216.923076,4635.897435,3949.230770,4066.153846
22,4384.615384,4535.384615,4541.025641,4274.871794,4500.000000,4175.384615,4437.948717,4205.128205,4232.820512,4491.794871,4202.564102,4625.641025,3946.153847,4060.512820
23,4380.000000,4535.384615,4540.512820,4275.384615,4501.538461,4170.256410,4432.820512,4198.461538,4231.282051,4490.769230,4198.461538,4620.000000,3937.435898,4047.692307
24,4384.615384,4533.333333,4540.512820,4278.974358,4500.512820,4171.794871,4437.435897,4205.641025,4229.230769,4489.743589,4205.641025,4620.512820,3935.897436,4043.589743
25,4374.358974,4523.076923,4536.923076,4266.666666,4494.358974,4170.256410,4432.307692,4205.641025,4214.871794,4472.307692,4193.333333,4613.333333,3927.692308,4036.923076
26,4366.153846,4524.102564,4537.435897,4259.487179,4488.717948,4165.641025,4425.641025,4197.435897,4208.717948,4466.666666,4180.512820,4609.743589,3916.923077,4035.384615
27,4379.487179,4541.538461,4546.153846,4276.410256,4496.923076,4169.230769,4436.410256,4207.692307,4227.179487,4486.666666,4201.025641,4620.000000,3927.179488,4049.230769
28,4386.666666,4541.025641,4548.717948,4285.128205,4507.692307,4175.384615,4442.564102,4217.948717,4236.923076,4494.871794,4221.025641,4626.666666,3938.461539,4052.820512
29,4378.461538,4523.589743,4541.025641,4272.820512,4503.589743,4175.384615,4432.307692,4206.153846,4224.615384,4482.564102,4206.666666,4617.948717,3933.333334,4042.564102
30,4368.205128,4519.487179,4532.307692,4264.102564,4498.461538,4169.743589,4425.641025,4192.820512,4211.282051,4473.333333,4185.128205,4603.076923,3925.128206,4035.897435
31,4362.564102,4520.512820,4527.179487,4262.564102,4498.461538,4169.230769,4430.769230,4194.358974,4207.692307,4468.717948,4178.461538,4596.923076,3914.871795,4029.230769
32,4369.743589,4525.641025,4531.794871,4262.051282,4494.871794,4171.794871,4440.000000,4201.538461,4217.435897,4476.923076,4185.128205,4607.179487,3911.794872,4026.153846
33,4379.487179,4537.435897,4543.076923,4265.641025,4493.846153,4169.230769,4443.589743,4209.743589,4230.256410,4489.743589,4197.948717,4621.538461,3926.153847,4036.410256
34,4373.846153,4532.307692,4543.076923,4264.615384,4500.512820,4168.717948,4436.923076,4213.333333,4228.717948,4486.153846,4194.358974,4620.512820,3929.743590,4045.128205
35,4370.256410,4521.538461,4538.461538,4268.205128,4502.051282,4171.794871,4430.769230,4213.333333,4227.179487,4483.076923,4189.743589,4619.487179,3918.461539,4047.692307
36,4376.410256,4528.717948,4544.102564,4276.923076,4498.974358,4172.820512,4434.358974,4213.846153,4232.820512,4488.717948,4202.051282,4626.153846,3923.076924,4050.256410
37,4370.769230,4530.256410,4540.000000,4270.256410,4495.384615,4167.179487,4433.333333,4205.641025,4226.153846,4480.000000,4198.974358,4621.025641,3930.256411,4039.487179
38,4362.051282,4518.974358,4532.820512,4260.000000,4489.230769,4163.589743,4429.743589,4196.410256,4212.820512,4470.256410,4178.461538,4613.846153,3923.076924,4029.743589
39,4367.692307,4520.512820,4536.410256,4263.589743,4490.769230,4168.717948,4432.820512,4201.025641,4211.282051,4475.384615,4185.641025,4618.974358,3923.589744,4036.923076
40,4373.846153,4528.205128,4537.435897,4268.717948,4495.897435,4169.230769,4433.846153,4204.615384,4214.871794,4481.538461,4204.102564,4619.487179,3927.179488,4043.076923
41,4373.846153,4525.641025,4537.435897,4270.769230,4493.333333,4165.641025,4429.743589,4200.000000,4219.487179,4479.487179,4195.384615,4616.923076,3925.641026,4038.461538
42,4371.282051,4520.000000,4538.461538,4271.794871,4496.410256,4169.230769,4428.205128,4201.025641,4224.102564,4477.435897,4187.179487,4620.000000,3922.564103,4035.897435
43,4366.153846,4522.051282,4532.820512,4268.717948,4503.076923,4171.282051,4428.717948,4201.538461,4220.000000,4482.051282,4185.128205,4615.384615,3915.897436,4033.333333
44,4363.076923,4531.282051,4527.179487,4268.717948,4500.512820,4168.717948,4427.179487,4197.948717,4212.820512,4485.641025,4177.948717,4609.230769,3913.846154,4028.205128
45,4370.256410,4532.820512,4534.871794,4272.307692,4500.000000,4171.794871,4431.282051,4202.564102,4219.487179,4485.128205,4190.256410,4612.307692,3927.179488,4031.794871
46,4374.358974,4521.538461,4540.512820,4268.717948,4502.564102,4173.333333,4435.384615,4207.179487,4229.743589,4484.615384,4202.564102,4612.820512,3936.410257,4036.923076
47,4373.333333,4523.076923,4536.410256,4266.153846,4500.512820,4170.769230,4432.820512,4208.205128,4230.256410,4482.051282,4189.230769,4612.307692,3930.256411,4041.538461
48,4378.974358,4540.000000,4538.461538,4265.128205,4499.487179,4174.358974,4432.307692,4213.333333,4230.256410,4482.564102,4182.051282,4616.923076,3924.102565,4045.641025
49,4385.128205,4541.538461,4543.589743,4264.102564,4504.102564,4175.897435,4435.384615,4220.000000,4233.333333,4493.333333,4195.897435,4619.487179,3924.102565,4042.564102
50,4381.538461,4525.641025,4544.102564,4264.615384,4507.692307,4172.307692,4440.512820,4219.487179,4235.897435,4497.948717,4203.076923,4619.487179,3924.102565,4037.948717
51,4378.461538,4517.435897,4541.538461,4263.589743,4501.538461,4170.769230,4442.564102,4214.358974,4233.333333,4489.230769,4194.358974,4616.923076,3913.333334,4034.358974
52,4382.564102,4520.512820,4537.435897,4260.512820,4497.948717,4171.794871,4441.025641,4213.846153,4226.153846,4489.743589,4188.717948,4610.769230,3896.410257,4033.333333
53,4382.051282,4523.589743,4534.358974,4258.461538,4501.538461,4175.384615,4442.564102,4215.384615,4218.974358,4491.794871,4193.333333,4610.256410,3898.974359,4039.487179
54,4385.128205,4525.641025,4540.512820,4261.538461,4507.179487,4182.051282,4445.128205,4212.820512,4216.410256,4485.641025,4191.282051,4616.410256,3906.153847,4044.615384
55,4394.358974,4528.717948,4546.153846,4263.076923,4508.717948,4185.128205,4443.076923,4209.743589,4216.410256,4487.692307,4180.000000,4617.948717,3905.128206,4040.512820
56,4399.487179,4529.230769,4547.179487,4264.102564,4505.128205,4184.615384,4444.102564,4212.307692,4225.641025,4496.410256,4190.769230,4622.051282,3912.307693,4041.025641
57,4397.948717,4524.615384,4549.743589,4268.205128,4504.615384,4183.589743,4448.205128,4217.435897,4237.948717,4500.000000,4211.282051,4627.179487,3917.948718,4051.282051
58,4387.692307,4518.461538,4541.538461,4260.000000,4507.179487,4177.948717,4440.512820,4209.743589,4228.205128,4491.282051,4197.948717,4615.897435,3902.564103,4042.051282
59,4380.000000,4517.948717,4530.256410,4245.128205,4502.564102,4169.230769,4432.307692,4200.512820,4211.794871,4476.410256,4179.487179,4604.615384,3887.179488,4022.051282
60,4383.076923,4521.538461,4534.871794,4251.794871,4492.820512,4168.717948,4437.948717,4207.692307,4213.846153,4473.846153,4183.076923,4610.769230,3888.205129,4022.564102
61,4387.692307,4523.589743,4542.051282,4266.153846,4497.435897,4176.410256,4445.641025,4216.923076,4217.948717,4484.102564,4182.564102,4616.923076,3890.256411,4032.820512
62,4383.589743,4518.974358,4537.435897,4260.000000,4502.564102,4177.435897,4443.589743,4209.230769,4211.282051,4481.025641,4178.974358,4611.282051,3892.307693,4035.897435
63,4382.051282,4510.769230,4531.282051,4257.948717,4497.435897,4174.871794,4443.076923,4207.692307,4217.948717,4475.897435,4185.128205,4608.717948,3897.435898,4037.948717
64,4384.102564,4504.615384,4533.846153,4264.615384,4498.461538,4178.461538,4448.205128,4217.435897,4229.743589,4487.692307,4191.794871,4613.333333,3895.897436,4036.923076
65,4378.974358,4506.153846,4531.282051,4254.358974,4501.538461,4175.897435,4443.589743,4210.256410,4215.897435,4488.717948,4183.076923,4609.230769,3888.205129,4023.076923
66,4376.410256,4513.846153,4524.615384,4247.692307,4499.487179,4171.282051,4432.820512,4196.923076,4202.564102,4472.307692,4166.153846,4602.051282,3882.051283,4011.794871
67,4384.615384,4521.025641,4531.282051,4258.461538,4502.564102,4175.897435,4436.923076,4206.666666,4212.820512,4474.871794,4171.794871,4610.769230,3892.820513,4026.153846
68,4389.230769,4524.615384,4539.487179,4265.641025,4508.717948,4183.589743,4446.153846,4216.923076,4222.564102,4483.589743,4190.256410,4621.025641,3909.743590,4041.538461
69,4383.076923,4522.051282,4531.282051,4263.076923,4507.179487,4181.538461,4440.000000,4207.692307,4218.461538,4476.923076,4185.641025,4615.384615,3906.153847,4030.256410
70,4379.487179,4515.897435,4527.692307,4256.923076,4500.512820,4174.871794,4428.205128,4194.871794,4212.307692,4471.794871,4175.897435,4610.256410,3892.820513,4013.846153
71,4381.025641,4510.256410,4530.256410,4250.769230,4498.974358,4172.820512,4427.179487,4187.179487,4201.538461,4474.871794,4187.692307,4614.871794,3889.743590,4019.487179
72,4380.000000,4505.641025,4528.717948,4250.256410,4500.000000,4175.897435,4430.769230,4187.692307,4193.846153,4474.358974,4188.205128,4617.948717,3900.000000,4030.256410
73,4383.589743,4511.794871,4531.794871,4255.897435,4501.538461,4175.384615,4430.256410,4196.410256,4204.615384,4475.384615,4172.820512,4614.871794,3909.230770,4027.692307
74,4386.666666,4520.512820,4533.846153,4255.897435,4499.487179,4168.717948,4426.153846,4202.564102,4217.435897,4485.128205,4176.923076,4611.794871,3907.692308,4019.487179
75,4377.435897,4510.769230,4523.589743,4252.820512,4493.846153,4169.743589,4423.589743,4201.538461,4218.461538,4487.179487,4181.538461,4605.128205,3899.487180,4015.897435
76,4368.717948,4494.871794,4517.435897,4247.179487,4491.794871,4171.282051,4426.153846,4202.051282,4217.435897,4479.487179,4170.256410,4604.102564,3894.358975,4022.051282
77,4372.820512,4498.974358,4525.641025,4243.076923,4498.461538,4169.230769,4429.743589,4203.076923,4216.410256,4482.564102,4170.769230,4611.794871,3894.358975,4027.179487
78,4380.512820,4515.897435,4530.769230,4253.846153,4499.487179,4171.282051,4431.282051,4204.615384,4213.846153,4489.743589,4190.769230,4617.948717,3895.897436,4023.589743
79,4379.487179,4519.487179,4528.717948,4264.615384,4491.282051,4169.743589,4429.230769,4205.128205,4212.820512,4475.897435,4189.230769,4616.410256,3903.076924,4023.076923
80,4376.923076,4511.282051,4526.666666,4263.076923,4489.743589,4168.205128,4425.641025,4201.025641,4214.871794,4460.512820,4168.717948,4611.282051,3905.128206,4024.102564
81,4376.923076,4507.692307,4524.615384,4262.051282,4494.871794,4170.256410,4425.641025,4202.564102,4215.897435,4476.923076,4175.897435,4610.769230,3902.051283,4021.025641
82,4377.435897,4508.205128,4527.179487,4266.153846,4496.923076,4169.230769,4429.743589,4212.307692,4216.923076,4495.897435,4194.358974,4617.948717,3906.153847,4022.564102
83,4378.974358,4508.205128,4532.307692,4266.153846,4499.487179,4169.230769,4432.307692,4217.435897,4220.000000,4492.820512,4187.179487,4622.051282,3916.923077,4029.230769
84,4380.512820,4514.358974,4530.769230,4264.102564,4504.615384,4175.897435,4431.794871,4213.846153,4218.461538,4486.153846,4176.923076,4620.000000,3913.333334,4028.717948
85,4376.923076,4521.025641,4525.641025,4261.538461,4504.615384,4177.435897,4431.794871,4212.307692,4214.871794,4483.076923,4183.076923,4617.948717,3898.461539,4024.102564
86,4370.769230,4512.820512,4523.589743,4258.974358,4497.435897,4170.769230,4430.769230,4214.358974,4216.410256,4478.974358,4181.538461,4618.461538,3901.025642,4020.000000
87,4374.358974,4505.641025,4527.692307,4260.512820,4491.794871,4167.179487,4429.743589,4210.256410,4218.974358,4484.615384,4176.410256,4619.487179,3913.846154,4015.384615
88,4380.000000,4511.794871,4531.282051,4256.410256,4492.307692,4169.230769,4429.743589,4206.666666,4216.410256,4489.230769,4184.615384,4620.512820,3915.384616,4023.589743
89,4381.538461,4510.769230,4530.256410,4252.820512,4497.435897,4172.307692,4429.743589,4211.282051,4214.358974,4480.512820,4187.179487,4622.564102,3916.923077,4037.435897
90,4380.000000,4506.666666,4528.205128,4259.487179,4500.000000,4173.333333,4437.435897,4218.461538,4221.025641,4483.589743,4183.076923,4622.051282,3923.076924,4034.871794
91,4377.435897,4515.384615,4526.666666,4264.615384,4498.974358,4172.307692,4439.487179,4220.512820,4232.307692,4493.846153,4190.256410,4615.384615,3915.384616,4020.512820
92,4377.435897,4520.512820,4528.717948,4262.051282,4496.410256,4170.256410,4431.282051,4217.435897,4233.333333,4489.230769,4188.717948,4614.358974,3912.820513,4018.461538
93,4377.948717,4511.282051,4530.769230,4257.948717,4496.410256,4169.230769,4430.256410,4215.384615,4221.538461,4485.128205,4172.307692,4619.487179,3927.179488,4028.717948
94,4380.512820,4513.846153,4529.743589,4258.461538,4500.512820,4172.307692,4435.897435,4223.076923,4222.051282,4496.923076,4181.538461,4618.461538,3931.282052,4033.333333
95,4380.512820,4521.025641,4529.743589,4262.051282,4504.615384,4176.923076,4438.461538,4230.769230,4232.820512,4503.076923,4204.102564,4615.897435,3925.128206,4028.205128
96,4376.410256,4513.846153,4530.256410,4263.589743,4500.000000,4173.333333,4436.410256,4226.666666,4233.846153,4493.846153,4198.461538,4614.871794,3920.000000,4021.538461
97,4372.307692,4508.717948,4527.179487,4259.487179,4490.256410,4165.641025,4430.769230,4221.538461,4232.307692,4486.153846,4183.076923,4609.230769,3912.820513,4021.025641
98,4371.282051,4511.282051,4523.076923,4252.820512,4489.230769,4166.153846,4425.128205,4222.051282,4235.897435,4485.128205,4178.461538,4606.666666,3909.230770,4021.025641
99,4372.820512,4509.743589,4524.615384,4248.205128,4495.897435,4170.256410,4427.692307,4217.948717,4233.333333,4488.717948,4171.282051,4612.307692,3921.025642,4021.025641
100,4376.923076,4509.743589,4529.230769,4252.307692,4497.435897,4168.205128,4431.282051,4216.923076,4228.717948,4494.871794,4182.564102,4616.410256,3932.307693,4032.307692
101,4382.564102,4517.948717,4534.358974,4265.641025,4497.948717,4169.743589,4432.307692,4221.538461,4231.282051,4495.897435,4207.179487,4615.897435,3931.282052,4040.000000
102,4383.076923,4523.076923,4535.384615,4267.692307,4501.538461,4176.410256,4435.384615,4218.461538,4231.282051,4494.358974,4198.974358,4616.923076,3925.641026,4027.692307
103,4378.461538,4517.948717,4528.717948,4250.769230,4505.641025,4173.333333,4432.307692,4214.871794,4228.205128,4488.717948,4181.025641,4613.333333,3916.410257,4015.384615
104,4376.923076,4512.307692,4528.717948,4247.692307,4506.153846,4172.307692,4428.717948,4218.461538,4230.769230,4478.461538,4186.153846,4610.769230,3910.769231,4023.076923
105,4382.564102,4517.435897,4535.897435,4267.692307,4506.153846,4180.512820,4434.871794,4218.974358,4233.333333,4481.538461,4188.717948,4617.948717,3921.538462,4036.410256
106,4386.153846,4527.179487,4538.461538,4274.871794,4506.153846,4181.538461,4439.487179,4218.461538,4229.230769,4497.435897,4183.589743,4622.051282,3934.358975,4033.846153
107,4377.948717,4522.564102,4530.256410,4262.564102,4506.666666,4172.820512,4433.333333,4217.435897,4220.512820,4495.384615,4186.666666,4613.333333,3927.179488,4022.051282
108,4370.769230,4509.743589,4523.589743,4258.461538,4501.538461,4168.205128,4432.307692,4213.333333,4218.461538,4484.615384,4186.153846,4606.666666,3914.358975,4016.410256
109,4376.410256,4509.743589,4531.794871,4269.230769,4495.384615,4173.333333,4443.076923,4217.435897,4233.333333,4495.384615,4187.692307,4613.846153,3922.051283,4023.589743
110,4383.076923,4517.948717,4540.512820,4275.897435,4500.512820,4177.948717,4447.179487,4232.820512,4248.717948,4504.102564,4201.025641,4620.000000,3930.769231,4034.871794
111,4385.128205,4522.051282,4536.923076,4271.794871,4509.230769,4179.487179,4440.512820,4233.846153,4244.615384,4497.948717,4196.923076,4616.923076,3927.692308,4035.384615
112,4387.179487,4522.051282,4536.923076,4264.102564,4509.230769,4181.538461,4441.538461,4220.512820,4233.846153,4497.948717,4179.487179,4615.897435,3933.333334,4030.769230
113,4387.692307,4523.076923,4540.512820,4265.641025,4507.179487,4184.102564,4443.589743,4216.410256,4229.743589,4498.461538,4187.179487,4617.948717,3937.948718,4030.256410
114,4386.153846,4524.102564,4534.358974,4270.256410,4509.743589,4185.128205,4441.025641,4221.025641,4229.230769,4497.948717,4204.615384,4615.384615,3932.820513,4035.897435
115,4384.615384,4525.128205,4530.769230,4266.666666,4507.179487,4180.512820,4442.051282,4224.102564,4231.794871,4504.615384,4203.076923,4610.256410,3934.871795,4035.384615
116,4378.974358,4518.974358,4531.794871,4261.025641,4497.948717,4172.820512,4441.538461,4221.538461,4235.897435,4501.025641,4193.846153,4605.128205,3937.948718,4024.615384
117,4373.846153,4509.743589,4528.717948,4262.564102,4496.923076,4170.256410,4436.923076,4217.435897,4235.384615,4487.179487,4189.743589,4599.487179,3922.564103,4018.461538
118,4380.512820,4517.435897,4531.282051,4270.769230,4505.128205,4180.000000,4438.974358,4216.410256,4231.282051,4495.384615,4186.666666,4602.564102,3921.538462,4027.179487
119,4387.692307,4532.820512,4538.974358,4280.000000,4508.717948,4184.615384,4441.538461,4218.974358,4228.717948,4511.794871,4182.051282,4611.794871,3941.025642,4042.051282
120,4389.743589,4535.384615,4541.025641,4278.974358,4506.153846,4179.487179,4442.564102,4225.641025,4231.282051,4506.153846,4184.102564,4616.410256,3944.615385,4042.564102
121,4392.820512,4536.923076,4543.076923,4267.179487,4508.205128,4183.589743,4447.692307,4232.820512,4244.615384,4502.564102,4201.538461,4621.538461,3941.538462,4036.923076
122,4392.307692,4539.487179,4549.743589,4269.743589,4513.846153,4189.230769,4450.256410,4232.820512,4252.307692,4508.717948,4215.384615,4626.666666,3944.615385,4037.948717
123,4389.743589,4533.333333,4550.256410,4286.153846,4514.871794,4186.153846,4450.769230,4227.179487,4238.974358,4500.512820,4207.179487,4626.666666,3939.487180,4041.025641
124,4394.358974,4531.794871,4549.230769,4292.820512,4510.769230,4184.615384,4456.410256,4228.717948,4229.230769,4493.333333,4202.564102,4628.205128,3939.487180,4047.692307
125,4400.512820,4541.538461,4555.897435,4290.256410,4507.692307,4186.153846,4462.564102,4233.846153,4237.948717,4508.205128,4203.589743,4632.307692,3953.846154,4053.846153
126,4397.435897,4540.000000,4556.410256,4285.641025,4507.692307,4186.153846,4460.000000,4229.230769,4240.512820,4515.384615,4193.333333,4631.282051,3952.820513,4043.589743
127,4391.282051,4530.769230,4545.128205,4277.435897,4510.256410,4185.641025,4452.820512,4224.615384,4237.948717,4511.794871,4193.846153,4627.692307,3940.512821,4035.384615
128,4394.871794,4534.358974,4544.615384,4278.974358,4514.358974,4187.179487,4453.333333,4229.230769,4246.153846,4512.307692,4210.769230,4628.205128,3948.717949,4053.333333
129,4400.512820,4541.538461,4551.794871,4290.769230,4514.871794,4187.692307,4461.025641,4237.948717,4254.358974,4510.256410,4225.641025,4634.358974,3960.512821,4064.615384
130,4397.435897,4539.487179,4548.717948,4286.666666,4509.743589,4186.666666,4457.948717,4237.435897,4250.256410,4510.769230,4223.589743,4634.871794,3960.000000,4046.153846
131,4388.205128,4535.384615,4540.000000,4274.358974,4503.589743,4179.487179,4444.102564,4226.153846,4237.948717,4510.256410,4195.384615,4622.564102,3949.230770,4033.333333
132,4383.076923,4528.717948,4535.384615,4275.897435,4502.564102,4172.820512,4441.538461,4216.923076,4229.230769,4500.512820,4177.435897,4611.282051,3933.846154,4038.461538
133,4381.538461,4518.461538,4532.307692,4277.435897,4501.025641,4173.333333,4443.589743,4214.871794,4226.666666,4496.410256,4193.846153,4611.282051,3928.205129,4038.974358
134,4378.974358,4515.897435,4532.307692,4269.743589,4497.435897,4173.333333,4440.512820,4216.410256,4232.820512,4502.051282,4206.153846,4615.384615,3935.897436,4030.769230
135,4380.000000,4527.692307,4536.923076,4272.307692,4500.000000,4175.384615,4440.512820,4223.589743,4239.487179,4492.307692,4201.538461,4618.461538,3937.435898,4029.230769
136,4383.076923,4536.410256,4539.487179,4276.923076,4505.641025,4180.000000,4445.641025,4230.256410,4240.512820,4486.153846,4203.076923,4621.025641,3936.410257,4034.871794
137,4381.025641,4531.282051,4537.435897,4274.358974,4508.205128,4185.128205,4446.153846,4225.128205,4234.358974,4497.435897,4201.025641,4618.974358,3941.025642,4035.897435
138,4372.307692,4517.948717,4529.230769,4269.743589,4505.128205,4180.512820,4437.948717,4214.358974,4225.128205,4493.846153,4181.538461,4610.256410,3932.820513,4028.205128
139,4371.282051,4518.974358,4526.153846,4269.230769,4505.641025,4172.307692,4434.871794,4213.333333,4225.128205,4488.717948,4169.743589,4607.179487,3924.615385,4024.615384
140,4385.128205,4536.923076,4538.461538,4278.461538,4507.179487,4176.923076,4441.538461,4218.461538,4235.384615,4503.076923,4189.743589,4620.000000,3937.948718,4034.871794
141,4392.307692,4541.025641,4544.102564,4286.153846,4506.666666,4186.666666,4445.641025,4220.000000,4236.923076,4505.128205,4209.230769,4630.256410,3944.102565,4044.615384
142,4383.076923,4532.307692,4535.897435,4282.051282,4509.743589,4186.153846,4441.538461,4216.923076,4229.230769,4490.256410,4193.846153,4623.076923,3935.384616,4039.487179
143,4379.487179,4531.794871,4533.846153,4277.435897,4514.871794,4182.564102,4442.051282,4216.923076,4227.179487,4494.358974,4187.179487,4617.948717,3936.410257,4034.358974
144,4383.589743,4529.743589,4536.923076,4274.871794,4513.846153,4188.205128,4444.102564,4217.435897,4224.102564,4502.051282,4202.051282,4621.025641,3941.538462,4033.846153
145,4382.564102,4527.692307,4538.974358,4274.871794,4506.666666,4185.641025,4440.000000,4221.025641,4229.230769,4499.487179,4197.435897,4624.102564,3943.589744,4031.282051
146,4383.589743,4531.794871,4540.512820,4276.923076,4506.666666,4179.487179,4440.512820,4229.230769,4246.666666,4504.615384,4196.923076,4628.717948,3952.307693,4037.948717
147,4388.205128,4530.256410,4538.974358,4273.333333,4511.282051,4183.589743,4441.025641,4228.205128,4243.589743,4503.589743,4212.307692,4628.717948,3954.358975,4047.692307
148,4388.205128,4528.717948,4537.435897,4268.205128,4508.717948,4185.641025,4436.410256,4218.461538,4228.717948,4496.923076,4206.666666,4620.512820,3940.512821,4044.615384
149,4385.128205,4533.846153,4536.410256,4271.794871,4505.128205,4180.000000,4436.410256,4217.435897,4231.794871,4500.512820,4192.820512,4623.076923,3938.461539,4033.846153
150,4385.128205,4534.358974,4537.435897,4276.410256,4507.179487,4180.512820,4437.435897,4219.487179,4236.410256,4503.076923,4198.461538,4630.256410,3954.358975,4034.871794
151,4387.692307,4532.307692,4538.461538,4274.871794,4508.717948,4183.589743,4439.487179,4217.435897,4232.820512,4499.487179,4200.512820,4629.230769,3956.410257,4040.512820
152,4385.641025,4528.717948,4536.410256,4269.743589,4505.128205,4176.410256,4441.538461,4216.410256,4230.769230,4498.974358,4191.282051,4625.641025,3943.076924,4040.512820
153,4380.512820,4527.179487,4534.871794,4271.794871,4503.589743,4174.358974,4438.974358,4218.461538,4231.282051,4492.307692,4191.794871,4625.641025,3937.948718,4039.487179
154,4381.025641,4530.769230,4538.974358,4283.076923,4508.205128,4181.025641,4439.487179,4223.589743,4233.333333,4489.230769,4203.076923,4627.692307,3942.564103,4036.410256
155,4381.025641,4529.743589,4536.923076,4282.564102,4509.743589,4180.000000,4436.923076,4223.076923,4235.897435,4498.974358,4207.692307,4627.179487,3943.076924,4034.358974
156,4377.948717,4527.692307,4531.794871,4274.871794,4504.615384,4176.410256,4429.743589,4221.025641,4238.461538,4505.641025,4198.461538,4625.641025,3946.666667,4038.974358
157,4377.948717,4530.769230,4534.871794,4278.461538,4503.076923,4181.025641,4432.307692,4223.589743,4241.025641,4504.615384,4193.333333,4627.179487,3951.282052,4045.641025
158,4380.512820,4533.846153,4539.487179,4276.923076,4512.820512,4185.641025,4442.051282,4226.666666,4237.948717,4504.102564,4193.846153,4631.794871,3952.307693,4043.076923
159,4383.589743,4533.846153,4537.948717,4273.846153,4516.410256,4186.153846,4441.025641,4227.692307,4234.358974,4507.692307,4192.820512,4634.871794,3954.358975,4034.871794
160,4388.717948,4533.333333,4537.435897,4284.615384,4512.307692,4186.153846,4440.000000,4224.615384,4238.461538,4508.205128,4205.641025,4637.435897,3949.743590,4037.435897
161,4389.743589,4528.717948,4538.974358,4286.666666,4511.794871,4183.589743,4442.564102,4216.923076,4238.974358,4501.538461,4218.461538,4637.948717,3941.025642,4044.615384
162,4387.179487,4525.641025,4537.435897,4273.846153,4510.256410,4184.615384,4441.025641,4214.358974,4233.333333,4502.051282,4207.692307,4632.307692,3942.564103,4047.179487
163,4389.230769,4532.820512,4536.410256,4272.307692,4512.307692,4187.692307,4443.076923,4218.461538,4235.384615,4509.743589,4193.846153,4633.846153,3946.666667,4044.615384
164,4392.820512,4543.076923,4538.974358,4280.000000,4516.410256,4187.692307,4446.153846,4216.410256,4234.871794,4504.102564,4194.871794,4637.948717,3932.820513,4039.487179
165,4389.743589,4536.923076,4533.846153,4271.794871,4515.384615,4185.128205,4437.435897,4212.820512,4224.615384,4493.333333,4186.666666,4630.256410,3914.358975,4032.820512
166,4389.743589,4523.076923,4529.743589,4262.564102,4509.230769,4184.102564,4431.794871,4213.333333,4220.000000,4496.923076,4178.461538,4626.153846,3913.333334,4030.769230
167,4396.410256,4531.794871,4536.923076,4266.666666,4507.179487,4184.102564,4438.461538,4214.871794,4229.743589,4500.000000,4198.974358,4633.846153,3921.538462,4039.487179
168,4403.589743,4542.564102,4541.025641,4269.743589,4510.769230,4184.102564,4442.564102,4222.564102,4240.000000,4498.974358,4214.358974,4637.435897,3924.102565,4048.205128
169,4409.743589,4538.461538,4542.051282,4274.358974,4516.923076,4186.666666,4445.128205,4231.794871,4242.051282,4504.615384,4204.615384,4638.461538,3925.128206,4052.820512
170,4410.256410,4538.974358,4546.153846,4282.051282,4515.897435,4187.692307,4447.692307,4228.717948,4237.435897,4502.051282,4202.564102,4642.051282,3928.717949,4051.794871
171,4402.051282,4536.923076,4543.076923,4273.333333,4505.641025,4183.589743,4438.461538,4215.384615,4225.128205,4488.205128,4200.512820,4638.461538,3927.179488,4045.128205
172,4396.410256,4530.256410,4536.923076,4262.564102,4506.153846,4181.025641,4433.333333,4213.846153,4217.435897,4489.230769,4189.230769,4631.794871,3917.435898,4041.538461
173,4392.307692,4523.589743,4535.897435,4267.692307,4510.769230,4183.589743,4439.487179,4220.000000,4224.102564,4497.435897,4187.179487,4630.769230,3912.307693,4039.487179
174,4389.230769,4516.923076,4533.846153,4267.179487,4507.179487,4183.076923,4437.948717,4217.948717,4228.205128,4488.205128,4188.717948,4630.256410,3916.410257,4034.358974
175,4392.307692,4525.128205,4532.820512,4262.051282,4506.153846,4182.051282,4432.307692,4214.358974,4229.743589,4486.153846,4183.589743,4630.769230,3920.512821,4034.358974
176,4393.846153,4540.000000,4537.435897,4264.615384,4507.179487,4185.128205,4433.846153,4216.410256,4232.820512,4502.564102,4194.358974,4633.846153,3921.025642,4039.487179
177,4388.717948,4534.871794,4538.461538,4265.641025,4505.641025,4182.564102,4431.282051,4216.923076,4228.205128,4506.153846,4208.205128,4631.282051,3925.128206,4040.512820
178,4386.153846,4521.538461,4530.256410,4261.025641,4505.641025,4177.948717,4426.153846,4213.333333,4215.897435,4492.307692,4189.743589,4626.666666,3928.717949,4036.410256
179,4391.794871,4518.461538,4527.179487,4258.974358,4504.102564,4177.948717,4428.205128,4213.333333,4215.384615,4490.256410,4178.974358,4631.282051,3923.589744,4031.282051
180,4395.384615,4523.589743,4535.384615,4265.128205,4504.102564,4178.461538,4432.820512,4218.461538,4228.717948,4491.794871,4201.538461,4642.051282,3920.512821,4034.871794
181,4390.769230,4532.307692,4536.923076,4267.692307,4506.153846,4176.410256,4431.794871,4217.948717,4232.307692,4482.051282,4206.153846,4640.512820,3925.128206,4043.076923
182,4389.230769,4535.384615,4531.794871,4264.615384,4502.051282,4172.820512,4426.666666,4214.358974,4230.769230,4488.717948,4183.076923,4636.410256,3929.230770,4037.948717
183,4397.435897,4529.230769,4534.871794,4262.051282,4500.000000,4171.794871,4427.179487,4217.948717,4231.282051,4510.769230,4181.025641,4644.102564,3936.923077,4032.820512
184,4397.435897,4522.051282,4535.384615,4262.564102,4502.051282,4171.794871,4429.743589,4216.923076,4222.051282,4508.717948,4194.358974,4644.102564,3935.384616,4041.025641
185,4385.641025,4520.512820,4532.307692,4265.641025,4497.948717,4168.205128,4423.076923,4202.564102,4211.282051,4492.307692,4190.256410,4636.923076,3919.487180,4042.564102
186,4384.615384,4521.025641,4534.871794,4265.641025,4497.435897,4173.333333,4422.051282,4200.512820,4217.435897,4487.692307,4183.076923,4641.025641,3915.897436,4036.410256
187,4394.871794,4520.000000,4536.410256,4260.512820,4501.538461,4180.000000,4427.692307,4214.871794,4228.717948,4488.717948,4186.153846,4649.230769,3929.743590,4033.846153
188,4397.948717,4528.717948,4534.358974,4258.974358,4499.487179,4174.871794,4428.717948,4218.461538,4230.769230,4490.769230,4187.692307,4647.692307,3932.307693,4031.794871
189,4392.820512,4535.897435,4536.923076,4263.076923,4501.025641,4174.358974,4426.666666,4212.307692,4228.717948,4491.794871,4188.717948,4642.564102,3924.615385,4032.820512
190,4391.282051,4527.179487,4536.410256,4263.076923,4508.717948,4182.564102,4426.153846,4212.307692,4221.025641,4491.282051,4194.871794,4641.538461,3924.615385,4041.025641
191,4396.410256,4526.153846,4535.384615,4262.564102,4507.692307,4182.051282,4430.769230,4215.897435,4216.923076,4498.461538,4205.128205,4645.641025,3927.692308,4044.102564
192,4397.435897,4532.820512,4539.487179,4265.641025,4505.128205,4179.487179,4438.461538,4215.384615,4225.641025,4505.128205,4205.128205,4650.256410,3934.871795,4037.948717
193,4396.410256,4528.717948,4542.564102,4266.153846,4509.230769,4186.153846,4442.564102,4216.923076,4232.820512,4501.025641,4197.435897,4650.769230,3942.564103,4040.000000
194,4397.948717,4531.794871,4543.076923,4269.230769,4507.692307,4186.153846,4443.076923,4225.128205,4236.410256,4499.487179,4201.538461,4652.307692,3939.487180,4049.230769
195,4397.435897,4538.461538,4541.025641,4268.717948,4506.666666,4183.076923,4443.589743,4231.282051,4240.512820,4505.128205,4213.333333,4653.846153,3939.487180,4050.769230
196,4394.871794,4530.769230,4538.461538,4267.179487,4509.743589,4185.128205,4445.128205,4229.743589,4237.948717,4507.179487,4209.743589,4653.846153,3945.641026,4044.102564
197,4394.871794,4528.205128,4540.512820,4270.256410,4509.230769,4185.128205,4445.128205,4230.256410,4231.794871,4505.128205,4193.846153,4653.333333,3941.538462,4039.487179
198,4396.923076,4538.974358,4546.153846,4271.282051,4507.179487,4184.615384,4444.102564,4231.794871,4231.282051,4504.102564,4198.974358,4654.871794,3938.974359,4044.615384
199,4401.538461,4539.487179,4550.769230,4272.820512,4514.871794,4186.666666,4444.615384,4230.769230,4237.948717,4506.153846,4217.435897,4660.000000,3951.794872,4055.384615
200,4403.589743,4534.358974,4554.358974,4278.974358,4521.538461,4190.256410,4448.717948,4233.846153,4244.615384,4510.256410,4221.025641,4664.615384,3955.384616,4057.435897
201,4402.051282,4540.000000,4551.282051,4281.025641,4513.846153,4186.153846,4449.230769,4234.871794,4240.512820,4507.179487,4216.923076,4663.076923,3946.153847,4047.692307
202,4403.076923,4539.487179,4550.256410,4278.461538,4505.641025,4182.051282,4445.641025,4231.282051,4237.948717,4505.128205,4212.820512,4660.000000,3944.615385,4050.256410
203,4404.102564,4527.692307,4551.794871,4277.948717,4509.230769,4185.128205,4443.076923,4231.794871,4243.589743,4506.666666,4206.666666,4658.974358,3945.641026,4052.820512
204,4399.487179,4523.589743,4543.076923,4268.717948,4510.769230,4184.615384,4442.051282,4232.820512,4236.410256,4505.641025,4198.461538,4654.358974,3937.948718,4040.000000
205,4395.384615,4537.435897,4540.000000,4263.076923,4506.666666,4182.051282,4442.564102,4229.230769,4224.615384,4497.948717,4197.948717,4651.282051,3935.897436,4035.897435
206,4397.435897,4544.102564,4549.230769,4278.461538,4506.153846,4183.589743,4444.615384,4224.102564,4229.230769,4492.820512,4206.153846,4654.871794,3943.589744,4043.589743
207,4397.948717,4534.871794,4546.666666,4282.564102,4508.205128,4183.589743,4441.538461,4218.461538,4233.846153,4493.846153,4207.692307,4655.384615,3940.512821,4042.051282
208,4394.358974,4532.820512,4534.871794,4266.153846,4507.692307,4181.538461,4436.410256,4216.410256,4229.743589,4494.871794,4200.000000,4646.666666,3928.205129,4034.871794
209,4396.410256,4536.923076,4536.410256,4267.179487,4504.102564,4183.076923,4439.487179,4218.461538,4230.256410,4498.461538,4196.923076,4642.564102,3927.692308,4038.461538
210,4400.000000,4536.923076,4545.641025,4282.564102,4504.615384,4183.076923,4446.666666,4218.461538,4232.820512,4503.076923,4201.538461,4651.794871,3938.974359,4043.076923
211,4399.487179,4536.410256,4549.230769,4283.589743,4513.333333,4187.692307,4444.102564,4218.974358,4233.846153,4505.128205,4207.179487,4656.923076,3946.153847,4043.076923
212,4405.128205,4544.102564,4555.384615,4283.589743,4522.564102,4200.000000,4445.641025,4227.179487,4240.512820,4509.230769,4217.435897,4658.461538,3952.307693,4051.282051
213,4412.820512,4554.871794,4560.000000,4290.256410,4524.615384,4200.512820,4457.948717,4237.948717,4248.205128,4514.358974,4217.948717,4664.102564,3956.923077,4060.512820
214,4407.692307,4553.846153,4554.358974,4287.692307,4521.538461,4193.846153,4457.435897,4234.871794,4247.179487,4508.717948,4208.205128,4658.974358,3954.358975,4059.487179
215,4396.923076,4541.025641,4548.717948,4279.487179,4517.948717,4190.769230,4445.128205,4220.000000,4240.000000,4503.589743,4212.820512,4641.538461,3947.692308,4048.205128
216,4396.410256,4535.897435,4548.717948,4281.538461,4520.000000,4192.307692,4442.564102,4214.358974,4235.384615,4508.717948,4215.384615,4637.435897,3942.564103,4039.487179
217,4399.487179,4542.564102,4546.666666,4283.589743,4523.589743,4195.384615,4446.666666,4219.487179,4233.333333,4507.179487,4202.564102,4645.128205,3942.564103,4039.487179
218,4395.897435,4537.948717,4542.564102,4278.461538,4518.974358,4192.820512,4446.666666,4218.974358,4227.692307,4497.435897,4196.923076,4643.589743,3942.051283,4042.051282
219,4388.205128,4524.615384,4538.974358,4273.846153,4509.230769,4183.589743,4442.051282,4212.820512,4221.538461,4490.256410,4204.615384,4634.358974,3931.282052,4036.410256
220,4388.717948,4526.666666,4540.512820,4276.923076,4505.641025,4180.512820,4442.051282,4211.282051,4224.615384,4485.641025,4200.512820,4633.846153,3927.692308,4030.769230
221,4396.410256,4537.948717,4545.641025,4283.589743,4508.205128,4186.153846,4450.256410,4216.923076,4232.820512,4486.666666,4195.897435,4642.564102,3941.538462,4037.948717
222,4393.846153,4537.948717,4544.615384,4280.000000,4514.871794,4186.153846,4452.820512,4218.461538,4230.256410,4496.923076,4207.692307,4646.153846,3943.589744,4043.589743
223,4390.769230,4528.717948,4545.128205,4276.410256,4518.974358,4185.641025,4450.256410,4217.435897,4226.666666,4505.128205,4213.846153,4643.076923,3939.487180,4043.076923
224,4394.871794,4527.692307,4548.717948,4280.000000,4520.000000,4190.256410,4451.282051,4217.948717,4232.820512,4501.538461,4205.128205,4640.512820,3947.692308,4042.564102
225,4391.282051,4533.333333,4545.128205,4280.512820,4519.487179,4188.717948,4448.205128,4216.923076,4232.820512,4490.769230,4195.384615,4636.410256,3941.538462,4033.333333
226,4387.692307,4538.461538,4542.564102,4279.487179,4514.358974,4183.589743,4444.102564,4211.794871,4227.179487,4489.743589,4197.435897,4634.358974,3924.615385,4026.153846
227,4395.897435,4538.974358,4549.743589,4288.205128,4510.256410,4189.743589,4449.230769,4218.974358,4234.871794,4504.102564,4209.743589,4641.025641,3939.487180,4038.461538
228,4401.025641,4538.974358,4551.794871,4296.410256,4516.923076,4198.974358,4452.307692,4231.794871,4248.717948,4508.717948,4216.410256,4648.205128,3961.538462,4055.384615
229,4396.410256,4539.487179,4547.692307,4293.846153,4525.128205,4194.871794,4445.641025,4227.692307,4243.076923,4501.538461,4213.333333,4644.102564,3953.846154,4051.794871
230,4395.897435,4535.384615,4545.641025,4290.256410,4518.974358,4190.256410,4443.589743,4217.435897,4229.743589,4500.512820,4208.717948,4637.948717,3943.076924,4039.487179
231,4395.384615,4535.897435,4539.487179,4286.666666,4509.230769,4189.230769,4443.076923,4217.948717,4228.205128,4497.948717,4204.615384,4637.435897,3946.153847,4036.410256
232,4390.769230,4539.487179,4534.871794,4285.641025,4512.820512,4186.153846,4442.564102,4219.487179,4230.256410,4494.358974,4205.641025,4635.384615,3949.230770,4040.000000
233,4391.282051,4538.461538,4541.025641,4289.743589,4520.000000,4184.102564,4442.564102,4214.358974,4230.769230,4499.487179,4213.846153,4634.358974,3949.230770,4042.564102
234,4396.410256,4539.487179,4545.128205,4286.666666,4517.948717,4188.717948,4442.051282,4213.846153,4231.794871,4500.000000,4217.435897,4636.923076,3950.769231,4045.641025
235,4397.435897,4541.025641,4543.589743,4281.025641,4516.410256,4194.871794,4441.538461,4216.410256,4232.820512,4496.923076,4214.358974,4639.487179,3953.846154,4045.128205
236,4396.410256,4537.948717,4546.153846,4290.769230,4522.051282,4194.358974,4442.564102,4214.871794,4231.282051,4505.641025,4211.282051,4641.538461,3956.410257,4041.538461
237,4399.487179,4539.487179,4553.846153,4301.025641,4522.564102,4194.871794,4444.615384,4217.435897,4237.948717,4512.820512,4211.794871,4644.102564,3963.076924,4048.205128
238,4401.025641,4545.128205,4555.897435,4294.358974,4520.000000,4196.410256,4443.589743,4217.948717,4243.076923,4508.717948,4219.487179,4642.051282,3968.205129,4056.410256
239,4397.948717,4540.512820,4550.769230,4291.794871,4522.051282,4196.923076,4441.025641,4213.846153,4237.948717,4504.102564,4225.641025,4638.974358,3964.615385,4051.282051
240,4396.410256,4537.948717,4548.205128,4296.410256,4523.589743,4197.435897,4443.076923,4220.512820,4243.076923,4503.589743,4221.025641,4638.974358,3957.435898,4042.051282
241,4395.897435,4538.974358,4549.743589,4288.717948,4520.512820,4196.410256,4446.153846,4231.282051,4254.871794,4508.205128,4211.794871,4637.948717,3958.461539,4042.564102
242,4392.307692,4536.923076,4547.179487,4278.974358,4517.948717,4188.717948,4441.538461,4223.589743,4245.128205,4512.307692,4209.743589,4638.974358,3961.025642,4046.666666
243,4389.230769,4534.871794,4542.564102,4281.538461,4516.410256,4183.589743,4439.487179,4214.358974,4229.743589,4505.128205,4214.358974,4640.000000,3950.256411,4044.102564
244,4387.692307,4531.794871,4541.538461,4286.153846,4512.820512,4187.692307,4440.512820,4217.948717,4234.871794,4494.358974,4208.717948,4634.358974,3942.564103,4033.333333
245,4384.615384,4525.641025,4540.512820,4284.102564,4508.717948,4186.153846,4432.307692,4216.923076,4233.846153,4495.384615,4198.461538,4629.230769,3950.256411,4023.589743
246,4384.102564,4521.025641,4535.897435,4278.974358,4506.153846,4183.589743,4426.153846,4212.820512,4222.564102,4500.000000,4210.256410,4629.743589,3949.743590,4025.641025
247,4387.692307,4525.128205,4539.487179,4278.974358,4506.153846,4184.615384,4429.743589,4218.974358,4237.948717,4500.000000,4229.230769,4634.871794,3948.717949,4037.948717
248,4389.230769,4531.282051,4545.128205,4287.692307,4512.307692,4185.641025,4433.333333,4220.512820,4250.256410,4500.512820,4216.410256,4637.948717,3959.487180,4045.128205
249,4388.205128,4532.307692,4541.025641,4292.307692,4523.076923,4188.717948,4436.923076,4214.871794,4231.282051,4501.025641,4201.538461,4634.871794,3964.615385,4038.461538
250,4386.153846,4526.153846,4538.974358,4283.589743,4522.564102,4189.743589,4438.461538,4214.358974,4219.487179,4500.512820,4210.256410,4633.333333,3955.384616,4026.153846
251,4380.512820,4516.923076,4537.948717,4275.897435,4510.769230,4185.128205,4431.282051,4215.897435,4227.179487,4501.025641,4216.923076,4632.307692,3949.230770,4025.641025
252,4383.076923,4519.487179,4536.923076,4280.000000,4506.666666,4182.051282,4427.692307,4215.384615,4235.897435,4509.230769,4214.871794,4632.307692,3955.384616,4040.512820
253,4395.897435,4534.358974,4546.153846,4288.205128,4510.256410,4184.615384,4431.794871,4218.461538,4245.128205,4518.461538,4216.410256,4641.538461,3970.256411,4056.923076
254,4397.948717,4536.410256,4553.846153,4287.692307,4507.692307,4186.666666,4432.307692,4218.974358,4245.641025,4512.307692,4220.000000,4646.153846,3974.358975,4053.333333
255,4390.256410,4528.717948,4547.692307,4290.256410,4510.256410,4185.641025,4430.256410,4214.358974,4233.846153,4500.512820,4216.923076,4638.461538,3960.512821,4034.871794
256,4391.794871,4529.743589,4544.102564,4294.871794,4515.384615,4184.102564,4429.743589,4213.333333,4227.179487,4503.076923,4212.307692,4633.846153,3959.487180,4033.846153
257,4397.435897,4530.769230,4549.230769,4289.743589,4513.333333,4185.641025,4428.717948,4214.871794,4228.717948,4512.307692,4215.897435,4636.410256,3969.743590,4047.179487
258,4392.820512,4531.282051,4552.820512,4287.692307,4513.846153,4190.256410,4434.871794,4216.410256,4233.333333,4507.692307,4228.205128,4636.410256,3964.615385,4048.717948
259,4387.179487,4534.871794,4553.333333,4295.384615,4515.897435,4190.256410,4441.538461,4217.948717,4241.538461,4501.538461,4224.102564,4634.358974,3950.256411,4036.410256
