,AF3,F7,F3,FC5,T7,P7,O1,O2,P8,T8,FC6,F4,F8,AF4
0,4387.179487,4524.102564,4534.871794,4217.948717,4530.256410,4184.102564,4428.717948,4185.641025,4233.846153,4543.589743,4204.102564,4644.615384,4002.051282,4054.358974
1,4385.641025,4524.102564,4534.358974,4215.897435,4539.487179,4186.666666,4428.205128,4186.153846,4234.358974,4522.564102,4203.076923,4646.153846,4000.000000,4053.846153
2,4382.564102,4512.820512,4525.128205,4212.307692,4535.384615,4181.538461,4424.615384,4182.564102,4230.256410,4511.794871,4193.846153,4638.461538,3984.615385,4050.769230
3,4385.641025,4517.435897,4525.641025,4216.923076,4534.358974,4186.666666,4436.410256,4190.256410,4231.282051,4515.384615,4194.871794,4641.025641,3990.769231,4063.076923
4,4394.871794,4528.717948,4535.897435,4223.589743,4541.025641,4196.410256,4444.615384,4194.358974,4233.846153,4511.282051,4202.564102,4648.205128,4005.641025,4067.179487
5,4395.897435,4527.179487,4534.358974,4220.000000,4541.025641,4192.820512,4433.333333,4184.102564,4231.794871,4509.743589,4202.564102,4644.102564,4003.076923,4058.461538
6,4391.282051,4522.564102,4527.692307,4217.435897,4537.435897,4186.666666,4426.666666,4177.948717,4228.205128,4511.282051,4209.230769,4642.564102,3995.897436,4066.153846
7,4396.923076,4525.641025,4535.897435,4216.923076,4537.948717,4187.692307,4431.794871,4184.615384,4230.256410,4509.230769,4218.461538,4650.769230,4000.000000,4077.435897
8,4402.564102,4525.641025,4542.564102,4209.230769,4535.897435,4185.128205,4428.717948,4189.230769,4237.435897,4507.692307,4205.641025,4648.205128,4002.564102,4065.128205
9,4390.769230,4520.000000,4528.205128,4201.025641,4533.846153,4183.076923,4423.076923,4181.538461,4231.794871,4506.153846,4190.769230,4635.897435,3991.282052,4051.282051
10,4378.461538,4515.384615,4516.410256,4202.051282,4534.358974,4185.641025,4427.179487,4175.897435,4223.589743,4505.128205,4200.000000,4634.871794,3983.076924,4055.897435
11,4386.666666,4519.487179,4525.128205,4202.564102,4535.384615,4184.102564,4429.743589,4181.538461,4229.230769,4504.615384,4201.538461,4640.512820,3988.717949,4058.974358
12,4396.923076,4522.564102,4530.256410,4198.461538,4534.358974,4184.102564,4429.743589,4183.589743,4229.743589,4493.846153,4189.230769,4639.487179,3991.282052,4054.358974
13,4390.769230,4523.076923,4527.692307,4199.487179,4535.384615,4185.128205,4429.230769,4177.948717,4222.564102,4488.717948,4193.333333,4640.512820,3985.128206,4057.948717
14,4388.205128,4517.948717,4530.256410,4196.410256,4534.358974,4183.076923,4429.230769,4180.512820,4228.205128,4505.128205,4203.589743,4647.179487,3985.641026,4056.923076
15,4393.333333,4510.256410,4531.794871,4188.717948,4528.205128,4183.589743,4430.256410,4185.128205,4236.923076,4513.333333,4204.102564,4647.179487,3993.846154,4044.102564
16,4390.769230,4514.871794,4526.666666,4189.743589,4525.128205,4182.564102,4428.717948,4184.102564,4234.871794,4505.128205,4203.076923,4642.564102,3994.871795,4046.153846
17,4387.692307,4522.051282,4523.076923,4192.820512,4527.692307,4180.000000,4427.692307,4183.589743,4231.282051,4494.871794,4197.435897,4640.000000,3989.743590,4060.000000
18,4386.153846,4513.846153,4520.512820,4188.717948,4526.153846,4181.538461,4427.692307,4178.461538,4225.128205,4473.846153,4184.102564,4635.897435,3978.461539,4051.282051
19,4377.948717,4502.051282,4513.846153,4190.256410,4523.076923,4177.948717,4425.128205,4165.641025,4212.820512,4452.307692,4179.487179,4630.769230,3968.205129,4030.256410
20,4377.948717,4508.205128,4514.871794,4199.487179,4524.615384,4177.948717,4426.666666,4167.692307,4212.307692,4458.974358,4191.282051,4632.820512,3977.948718,4032.820512
21,4384.102564,4518.461538,4524.615384,4201.025641,4526.153846,4184.102564,4431.282051,4181.025641,4221.538461,4471.282051,4198.974358,4638.974358,3989.230770,4045.641025
22,4383.076923,4510.256410,4522.051282,4193.846153,4522.564102,4177.948717,4426.666666,4176.410256,4222.051282,4458.974358,4190.256410,4637.948717,3977.948718,4044.615384
23,4387.179487,4504.615384,4515.384615,4200.000000,4526.666666,4174.358974,4421.538461,4168.717948,4221.538461,4452.820512,4188.205128,4633.333333,3969.743590,4041.025641
24,4393.846153,4517.948717,4517.948717,4210.769230,4531.282051,4181.025641,4426.153846,4174.871794,4228.205128,4456.923076,4196.923076,4636.923076,3980.000000,4045.128205
25,4392.307692,4527.692307,4521.538461,4210.769230,4526.666666,4180.000000,4429.230769,4182.564102,4233.846153,4454.871794,4196.923076,4641.538461,3986.666667,4050.769230
26,4383.589743,4518.461538,4522.051282,4204.615384,4524.102564,4176.923076,4427.179487,4183.076923,4231.282051,4464.102564,4196.410256,4637.948717,3982.564103,4050.769230
27,4381.025641,4516.410256,4521.538461,4204.102564,4532.820512,4185.128205,4428.205128,4178.974358,4226.153846,4472.307692,4200.512820,4635.384615,3986.666667,4049.230769
28,4391.282051,4524.102564,4521.538461,4212.307692,4537.948717,4187.179487,4429.743589,4177.948717,4228.205128,4473.333333,4196.923076,4642.051282,3994.871795,4049.743589
29,4399.487179,4521.538461,4526.666666,4218.461538,4534.358974,4181.025641,4426.666666,4176.410256,4229.230769,4480.512820,4195.384615,4647.692307,3989.743590,4055.384615
30,4396.923076,4522.564102,4532.820512,4220.512820,4533.846153,4183.076923,4425.128205,4175.897435,4227.692307,4476.923076,4200.000000,4647.692307,3983.076924,4061.025641
31,4395.897435,4527.692307,4532.307692,4224.102564,4536.410256,4184.102564,4431.794871,4181.025641,4227.692307,4458.461538,4201.025641,4646.666666,3986.666667,4060.512820
32,4398.974358,4521.025641,4526.153846,4226.666666,4536.923076,4185.128205,4433.333333,4186.153846,4227.692307,4455.897435,4202.051282,4642.051282,3990.256411,4056.923076
33,4392.820512,4513.846153,4523.076923,4217.948717,4536.923076,4186.666666,4428.717948,4182.564102,4225.641025,4466.153846,4196.410256,4637.435897,3980.512821,4047.692307
34,4389.230769,4513.846153,4523.076923,4204.102564,4538.974358,4185.128205,4431.794871,4177.948717,4222.051282,4472.820512,4181.025641,4638.461538,3971.282052,4040.000000
35,4389.743589,4511.794871,4521.025641,4198.974358,4534.871794,4183.589743,4430.769230,4174.358974,4216.410256,4468.717948,4180.512820,4634.871794,3972.307693,4041.538461
36,4382.051282,4505.128205,4516.410256,4202.051282,4527.692307,4183.076923,4422.051282,4165.641025,4210.769230,4455.897435,4192.307692,4628.205128,3980.000000,4047.179487
37,4383.076923,4505.641025,4524.102564,4210.256410,4529.743589,4181.538461,4430.769230,4174.358974,4222.564102,4460.512820,4192.307692,4634.871794,3990.256411,4051.282051
38,4396.923076,4513.846153,4533.846153,4219.487179,4541.025641,4189.743589,4447.692307,4192.307692,4235.897435,4474.358974,4190.769230,4646.153846,3993.333334,4051.282051
39,4399.487179,4520.000000,4527.179487,4217.435897,4547.692307,4201.538461,4446.666666,4188.717948,4231.282051,4467.692307,4199.487179,4642.051282,3988.717949,4045.128205
40,4393.846153,4523.589743,4523.076923,4203.589743,4544.102564,4196.923076,4437.435897,4180.000000,4228.205128,4469.743589,4199.487179,4634.358974,3980.512821,4044.615384
41,4398.461538,4522.564102,4533.333333,4205.641025,4538.461538,4186.153846,4435.897435,4185.128205,4235.384615,4493.333333,4194.358974,4637.948717,3979.487180,4053.846153
42,4393.333333,4510.769230,4531.794871,4214.358974,4532.307692,4182.564102,4429.230769,4182.564102,4229.230769,4492.820512,4192.307692,4639.487179,3981.538462,4049.743589
43,4377.435897,4501.538461,4521.025641,4208.717948,4529.230769,4181.538461,4424.615384,4171.794871,4215.897435,4473.333333,4188.717948,4630.256410,3978.461539,4034.358974
44,4385.128205,4511.282051,4524.102564,4208.205128,4532.820512,4182.564102,4434.871794,4177.948717,4223.076923,4480.512820,4185.641025,4631.282051,3978.461539,4040.000000
45,4401.025641,4523.076923,4528.205128,4210.769230,4538.974358,4186.666666,4442.564102,4189.743589,4228.717948,4494.358974,4191.794871,4640.512820,3982.564103,4056.410256
46,4397.435897,4517.948717,4520.512820,4203.076923,4540.000000,4188.205128,4439.487179,4184.615384,4223.589743,4489.230769,4197.435897,4640.000000,3984.102565,4047.692307
47,4391.794871,4517.948717,4518.974358,4201.538461,4536.923076,4184.102564,4434.358974,4179.487179,4228.205128,4483.589743,4190.769230,4636.923076,3985.128206,4031.282051
48,4394.871794,4524.102564,4521.538461,4209.230769,4540.000000,4185.641025,4435.897435,4184.102564,4230.769230,4483.076923,4190.256410,4639.487179,3990.256411,4045.128205
49,4395.384615,4522.564102,4522.051282,4205.128205,4544.615384,4193.333333,4438.461538,4184.615384,4223.589743,4475.897435,4198.974358,4638.461538,3994.358975,4061.538461
50,4399.487179,4520.512820,4527.692307,4201.538461,4545.641025,4193.846153,4440.512820,4182.564102,4227.692307,4473.333333,4203.076923,4639.487179,3995.897436,4056.923076
51,4407.179487,4524.102564,4533.333333,4204.615384,4540.512820,4185.128205,4439.487179,4188.717948,4234.871794,4480.512820,4206.153846,4647.692307,3997.435898,4055.897435
52,4402.051282,4524.102564,4529.743589,4200.512820,4535.897435,4182.564102,4431.794871,4193.333333,4232.307692,4493.333333,4207.179487,4649.743589,3992.307693,4057.948717
53,4396.923076,4523.076923,4527.179487,4198.461538,4538.974358,4187.179487,4429.743589,4188.205128,4230.256410,4495.384615,4196.923076,4646.666666,3991.282052,4051.282051
54,4400.000000,4524.102564,4529.230769,4201.025641,4541.538461,4187.692307,4435.384615,4183.589743,4230.769230,4477.948717,4191.794871,4647.692307,3995.897436,4050.769230
55,4400.000000,4522.051282,4527.179487,4203.076923,4539.487179,4187.692307,4437.948717,4185.128205,4230.256410,4464.102564,4202.051282,4649.230769,3992.820513,4060.000000
56,4397.948717,4512.820512,4519.487179,4201.025641,4538.974358,4187.692307,4434.871794,4184.102564,4222.051282,4465.641025,4201.025641,4643.076923,3981.538462,4055.384615
57,4395.384615,4504.102564,4515.384615,4198.461538,4538.974358,4184.615384,4438.461538,4185.641025,4216.410256,4465.641025,4193.846153,4637.435897,3976.923077,4040.512820
58,4394.358974,4508.717948,4518.461538,4200.512820,4537.435897,4184.615384,4446.666666,4196.923076,4229.230769,4476.923076,4206.153846,4644.102564,3985.128206,4045.128205
59,4396.923076,4511.282051,4523.589743,4203.076923,4535.897435,4187.179487,4443.589743,4203.076923,4238.974358,4493.846153,4211.794871,4649.230769,3992.307693,4054.871794
60,4396.923076,4506.153846,4523.589743,4198.461538,4536.923076,4185.128205,4438.461538,4192.820512,4230.769230,4483.076923,4193.333333,4642.051282,3986.153847,4048.205128
61,4396.410256,4517.435897,4523.589743,4196.923076,4540.000000,4185.128205,4442.564102,4192.820512,4230.769230,4482.564102,4186.666666,4642.051282,3980.000000,4042.051282
62,4397.435897,4527.692307,4523.076923,4199.487179,4541.538461,4190.769230,4445.641025,4199.487179,4238.974358,4501.025641,4198.461538,4646.153846,3980.512821,4048.205128
63,4393.846153,4514.358974,4516.410256,4191.282051,4538.974358,4189.230769,4443.076923,4190.256410,4227.692307,4495.897435,4204.102564,4640.000000,3980.000000,4047.692307
64,4394.871794,4509.230769,4517.435897,4186.666666,4537.948717,4186.666666,4444.615384,4190.769230,4221.538461,4502.051282,4200.000000,4639.487179,3985.128206,4048.717948
65,4403.076923,4518.974358,4527.179487,4197.435897,4539.487179,4190.769230,4447.692307,4203.589743,4231.282051,4528.205128,4192.307692,4645.641025,3993.333334,4052.307692
66,4391.794871,4512.307692,4521.538461,4200.512820,4538.461538,4189.230769,4436.923076,4195.897435,4229.230769,4520.512820,4188.205128,4638.461538,3983.076924,4031.794871
67,4374.358974,4502.051282,4507.692307,4195.384615,4537.435897,4182.051282,4424.615384,4177.948717,4220.512820,4508.205128,4192.307692,4631.794871,3965.641026,4018.974358
68,4384.615384,4508.205128,4514.358974,4198.974358,4533.846153,4183.589743,4427.692307,4181.538461,4223.076923,4525.641025,4199.487179,4634.871794,3970.769231,4041.538461
69,4398.461538,4512.307692,4521.538461,4203.076923,4532.307692,4184.615384,4431.794871,4188.205128,4226.153846,4520.000000,4198.974358,4634.871794,3985.641026,4052.820512
70,4390.256410,4506.666666,4511.282051,4201.025641,4531.794871,4176.410256,4426.666666,4183.076923,4218.974358,4496.410256,4200.512820,4631.794871,3982.051283,4036.923076
71,4382.051282,4505.641025,4509.743589,4201.025641,4528.205128,4175.897435,4427.179487,4182.564102,4217.435897,4502.564102,4203.589743,4633.333333,3969.743590,4032.307692
72,4387.692307,4506.153846,4522.051282,4201.538461,4531.282051,4182.564102,4436.923076,4188.717948,4224.615384,4513.333333,4197.435897,4638.461538,3972.820513,4038.974358
73,4396.410256,4509.230769,4526.153846,4207.692307,4542.051282,4189.230769,4442.564102,4199.487179,4232.307692,4521.025641,4195.897435,4647.179487,3991.794872,4053.333333
74,4401.025641,4516.923076,4521.538461,4219.487179,4544.615384,4194.358974,4444.102564,4203.589743,4234.871794,4545.128205,4203.076923,4648.717948,3998.461539,4062.564102
75,4396.923076,4515.384615,4517.948717,4216.410256,4538.461538,4191.794871,4440.512820,4192.307692,4226.153846,4557.435897,4210.256410,4641.538461,3987.179488,4047.179487
76,4388.205128,4507.179487,4516.923076,4200.512820,4539.487179,4185.128205,4433.333333,4182.564102,4220.000000,4540.512820,4209.230769,4640.512820,3978.461539,4033.333333
77,4388.205128,4505.128205,4520.512820,4201.025641,4541.538461,4184.615384,4433.846153,4190.256410,4225.128205,4541.025641,4202.051282,4646.153846,3978.461539,4044.615384
78,4391.794871,4508.717948,4523.076923,4214.871794,4537.435897,4187.179487,4441.538461,4197.435897,4232.307692,4556.923076,4198.461538,4648.205128,3985.128206,4055.384615
79,4396.410256,4513.846153,4524.102564,4222.051282,4540.000000,4190.256410,4448.205128,4191.794871,4232.307692,4537.948717,4199.487179,4649.230769,3994.358975,4048.717948
80,4404.615384,4524.102564,4527.692307,4229.230769,4548.717948,4196.410256,4448.717948,4186.666666,4229.743589,4512.820512,4208.717948,4653.846153,3996.923077,4046.666666
81,4407.692307,4523.589743,4526.153846,4234.358974,4545.128205,4194.358974,4440.000000,4183.589743,4223.076923,4521.538461,4220.512820,4651.794871,3995.384616,4057.948717
82,4398.974358,4514.871794,4519.487179,4224.615384,4528.205128,4180.512820,4426.666666,4173.846153,4212.820512,4527.179487,4215.384615,4644.615384,3987.692308,4062.564102
83,4388.717948,4514.358974,4520.512820,4214.358974,4518.974358,4171.282051,4424.615384,4168.717948,4212.820512,4517.948717,4198.974358,4642.051282,3975.897436,4049.743589
84,4387.692307,4514.358974,4520.000000,4219.487179,4524.102564,4170.256410,4428.717948,4174.358974,4221.025641,4526.153846,4201.025641,4645.128205,3981.538462,4042.564102
85,4390.256410,4507.692307,4512.820512,4224.102564,4527.179487,4174.358974,4425.641025,4172.820512,4217.435897,4525.641025,4203.076923,4644.102564,3989.743590,4046.153846
86,4383.076923,4498.974358,4506.153846,4216.410256,4524.102564,4177.435897,4423.589743,4157.948717,4204.615384,4502.051282,4186.666666,4631.282051,3972.820513,4039.487179
87,4380.000000,4498.974358,4505.128205,4210.769230,4528.205128,4181.538461,4426.153846,4157.435897,4205.641025,4503.076923,4188.205128,4626.666666,3966.666667,4036.923076
88,4388.717948,4513.333333,4516.410256,4223.076923,4536.923076,4187.179487,4428.717948,4173.846153,4222.564102,4526.153846,4212.307692,4641.538461,3996.410257,4048.717948
89,4396.410256,4526.153846,4528.717948,4237.948717,4540.000000,4189.230769,4432.307692,4182.564102,4237.435897,4531.282051,4224.615384,4654.358974,4013.846153,4057.435897
90,4393.333333,4521.025641,4521.538461,4233.846153,4537.948717,4186.666666,4431.282051,4175.384615,4232.307692,4530.769230,4214.871794,4648.717948,3996.923077,4054.871794
91,4393.846153,4514.358974,4513.333333,4224.102564,4539.487179,4186.666666,4425.641025,4169.230769,4220.512820,4540.512820,4199.487179,4640.512820,3985.641026,4052.307692
92,4404.102564,4525.641025,4525.641025,4232.307692,4541.025641,4189.230769,4433.333333,4179.487179,4225.128205,4540.512820,4205.641025,4649.743589,3996.410257,4054.871794
93,4403.589743,4529.743589,4532.820512,4237.948717,4537.948717,4186.666666,4442.051282,4188.205128,4234.358974,4536.923076,4226.153846,4659.487179,4007.179487,4057.435897
94,4390.769230,4514.358974,4522.051282,4226.153846,4535.897435,4183.589743,4432.820512,4181.538461,4233.846153,4541.538461,4221.025641,4650.256410,3996.410257,4054.358974
95,4391.282051,4513.333333,4520.512820,4222.564102,4538.974358,4188.717948,4432.307692,4175.897435,4230.256410,4531.282051,4201.538461,4641.025641,3985.641026,4051.282051
96,4396.923076,4523.076923,4523.589743,4224.102564,4540.512820,4191.794871,4440.000000,4176.410256,4223.589743,4502.051282,4194.871794,4641.538461,3981.538462,4044.615384
97,4390.769230,4514.871794,4520.000000,4215.384615,4530.769230,4182.564102,4434.871794,4171.282051,4215.384615,4491.282051,4192.820512,4641.025641,3976.410257,4034.358974
98,4390.769230,4502.564102,4522.564102,4211.794871,4523.589743,4178.461538,4429.743589,4167.692307,4216.923076,4501.025641,4197.948717,4642.564102,3981.538462,4041.025641
99,4390.256410,4505.128205,4525.641025,4218.461538,4523.076923,4184.102564,4432.820512,4169.230769,4216.923076,4493.846153,4207.692307,4644.102564,3984.615385,4050.769230
100,4380.000000,4512.307692,4519.487179,4216.923076,4523.589743,4182.564102,4427.692307,4167.692307,4210.769230,4482.051282,4200.512820,4637.435897,3973.333334,4037.435897
101,4386.153846,4514.871794,4522.051282,4214.358974,4528.717948,4180.512820,4427.179487,4176.410256,4220.000000,4495.384615,4188.717948,4642.051282,3971.794872,4033.333333
102,4402.564102,4516.923076,4535.897435,4220.512820,4530.256410,4186.153846,4439.487179,4190.256410,4237.948717,4512.820512,4195.897435,4654.871794,3988.205129,4051.282051
103,4395.384615,4510.769230,4530.256410,4218.461538,4522.051282,4180.000000,4437.948717,4183.589743,4231.794871,4513.333333,4200.000000,4647.692307,3989.230770,4046.666666
104,4381.538461,4505.128205,4520.000000,4210.256410,4518.974358,4171.282051,4428.717948,4169.743589,4216.410256,4511.282051,4196.923076,4635.897435,3976.410257,4029.743589
105,4390.769230,4513.846153,4530.256410,4216.410256,4524.615384,4179.487179,4433.846153,4173.333333,4221.538461,4509.230769,4203.076923,4645.641025,3980.512821,4046.666666
106,4401.025641,4518.461538,4541.025641,4227.179487,4525.641025,4188.717948,4441.025641,4177.948717,4230.769230,4507.179487,4216.410256,4659.487179,3992.307693,4064.615384
107,4394.871794,4511.794871,4533.333333,4222.564102,4524.615384,4185.128205,4435.897435,4174.358974,4225.641025,4509.230769,4222.051282,4654.358974,3989.230770,4049.743589
108,4389.230769,4511.794871,4526.153846,4213.846153,4522.051282,4179.487179,4431.282051,4176.410256,4224.102564,4505.128205,4206.666666,4649.230769,3985.641026,4038.461538
109,4392.307692,4516.923076,4528.717948,4217.948717,4520.512820,4177.435897,4432.820512,4180.512820,4231.794871,4509.743589,4187.179487,4651.794871,3987.692308,4044.615384
110,4391.282051,4508.205128,4523.589743,4217.435897,4522.051282,4171.282051,4427.692307,4172.307692,4224.615384,4516.923076,4184.615384,4643.589743,3978.974359,4048.205128
111,4390.256410,4505.641025,4521.538461,4214.871794,4515.384615,4166.666666,4421.025641,4163.589743,4211.282051,4496.923076,4195.384615,4637.948717,3975.897436,4047.692307
112,4401.538461,4522.051282,4533.846153,4228.717948,4510.256410,4171.794871,4431.794871,4170.769230,4220.000000,4492.820512,4209.743589,4652.307692,3997.435898,4052.307692
113,4411.282051,4528.717948,4538.461538,4240.000000,4518.461538,4180.512820,4443.589743,4177.435897,4232.307692,4519.487179,4218.974358,4662.051282,4012.820512,4059.487179
114,4404.102564,4519.487179,4529.230769,4234.871794,4526.666666,4184.615384,4435.897435,4173.333333,4228.205128,4520.000000,4205.641025,4652.820512,3994.871795,4060.512820
115,4388.205128,4510.256410,4522.051282,4228.717948,4522.564102,4183.076923,4429.743589,4169.743589,4224.102564,4506.153846,4190.769230,4646.666666,3977.948718,4051.282051
116,4389.743589,4515.384615,4528.205128,4237.948717,4521.025641,4183.076923,4437.948717,4177.948717,4234.871794,4520.512820,4207.179487,4652.820512,3989.743590,4047.179487
117,4405.128205,4529.230769,4535.897435,4245.641025,4526.666666,4185.641025,4439.487179,4188.205128,4241.025641,4522.564102,4223.589743,4658.974358,4004.102564,4059.487179
118,4402.564102,4526.153846,4534.358974,4234.871794,4524.615384,4186.153846,4433.333333,4182.051282,4231.794871,4502.051282,4207.692307,4656.923076,3996.410257,4060.512820
119,4396.410256,4517.435897,4528.717948,4230.256410,4519.487179,4180.000000,4433.333333,4169.230769,4226.666666,4505.128205,4197.948717,4651.282051,3988.717949,4051.282051
120,4398.461538,4521.538461,4526.666666,4245.128205,4520.000000,4175.384615,4434.871794,4169.230769,4232.820512,4512.307692,4205.641025,4646.666666,3993.333334,4049.230769
121,4393.333333,4525.128205,4526.153846,4251.794871,4522.051282,4179.487179,4431.794871,4171.282051,4232.307692,4501.025641,4198.974358,4642.564102,3988.717949,4040.000000
122,4390.769230,4520.512820,4526.153846,4246.153846,4520.512820,4183.076923,4429.743589,4171.282051,4225.128205,4503.589743,4195.897435,4643.589743,3981.025642,4034.358974
123,4400.000000,4523.589743,4531.282051,4250.769230,4524.102564,4184.615384,4434.358974,4179.487179,4230.256410,4511.794871,4214.871794,4652.820512,3986.153847,4050.769230
124,4400.000000,4521.538461,4530.256410,4249.230769,4522.564102,4180.512820,4437.948717,4181.538461,4233.846153,4498.974358,4215.384615,4656.410256,3986.666667,4055.384615
125,4382.564102,4508.205128,4517.435897,4231.794871,4511.282051,4170.256410,4430.769230,4164.615384,4217.435897,4491.794871,4186.666666,4644.615384,3973.333334,4035.384615
126,4378.974358,4509.743589,4514.358974,4231.282051,4512.820512,4173.333333,4428.205128,4158.974358,4209.743589,4507.692307,4175.897435,4635.897435,3968.717949,4027.179487
127,4390.769230,4521.025641,4521.538461,4249.230769,4525.128205,4186.666666,4434.871794,4170.256410,4220.000000,4509.743589,4188.205128,4643.589743,3977.435898,4033.846153
128,4388.205128,4516.923076,4521.538461,4251.794871,4524.615384,4181.538461,4430.256410,4169.743589,4218.974358,4490.256410,4191.282051,4645.128205,3980.512821,4034.871794
129,4382.564102,4513.333333,4523.076923,4241.538461,4513.333333,4166.666666,4421.538461,4166.153846,4216.923076,4489.743589,4199.487179,4639.487179,3983.589744,4042.564102
130,4393.333333,4525.128205,4532.820512,4245.128205,4513.846153,4171.794871,4429.230769,4172.307692,4233.846153,4507.179487,4219.487179,4649.743589,3992.820513,4050.256410
131,4394.871794,4528.205128,4532.307692,4251.794871,4521.538461,4183.076923,4433.846153,4170.769230,4235.384615,4507.692307,4216.410256,4658.974358,3988.205129,4041.538461
132,4383.076923,4516.410256,4525.128205,4242.051282,4521.538461,4184.102564,4428.717948,4164.615384,4218.974358,4497.435897,4197.948717,4647.692307,3976.923077,4035.897435
133,4389.230769,4513.333333,4528.717948,4232.307692,4519.487179,4182.051282,4434.358974,4168.205128,4218.974358,4495.897435,4192.307692,4640.512820,3981.025642,4042.051282
134,4399.487179,4517.435897,4531.794871,4233.846153,4521.538461,4183.076923,4438.974358,4169.230769,4222.564102,4491.794871,4196.410256,4646.153846,3984.102565,4045.641025
135,4397.435897,4527.179487,4532.307692,4240.512820,4524.102564,4185.128205,4435.897435,4169.743589,4222.564102,4488.205128,4205.641025,4651.794871,3978.974359,4046.666666
136,4401.025641,4536.923076,4540.512820,4248.205128,4524.102564,4185.128205,4439.487179,4182.051282,4236.410256,4501.538461,4218.461538,4657.435897,3986.153847,4050.769230
137,4403.076923,4531.282051,4540.512820,4244.615384,4524.615384,4184.615384,4442.564102,4186.666666,4241.538461,4503.589743,4216.410256,4658.974358,3994.358975,4050.256410
138,4398.974358,4524.102564,4531.282051,4233.333333,4523.589743,4183.589743,4438.974358,4176.923076,4230.769230,4488.205128,4203.589743,4653.846153,3987.692308,4051.794871
139,4404.615384,4531.282051,4535.384615,4238.461538,4523.589743,4186.153846,4442.051282,4182.051282,4236.410256,4488.717948,4207.179487,4656.410256,3984.615385,4060.000000
140,4410.769230,4536.923076,4542.051282,4246.666666,4525.641025,4188.205128,4448.717948,4190.769230,4247.692307,4494.358974,4221.025641,4661.538461,3993.846154,4055.897435
141,4401.538461,4525.128205,4532.820512,4235.897435,4524.102564,4186.153846,4443.589743,4177.435897,4233.846153,4484.102564,4218.974358,4656.410256,3991.794872,4043.589743
142,4392.820512,4517.435897,4526.153846,4228.717948,4524.102564,4185.128205,4441.025641,4165.128205,4218.974358,4483.076923,4205.128205,4649.230769,3978.461539,4040.000000
143,4397.435897,4528.717948,4533.846153,4234.871794,4526.666666,4185.641025,4444.615384,4175.897435,4224.615384,4494.871794,4203.076923,4649.743589,3980.000000,4047.692307
144,4403.589743,4534.358974,4540.000000,4231.794871,4522.564102,4184.102564,4443.076923,4181.025641,4230.256410,4494.358974,4215.384615,4658.974358,3992.820513,4057.435897
145,4408.717948,4533.846153,4542.564102,4230.256410,4521.025641,4183.076923,4444.102564,4174.358974,4229.743589,4490.256410,4221.538461,4668.717948,3999.487180,4064.102564
146,4413.846153,4534.358974,4541.538461,4238.974358,4526.666666,4188.205128,4450.256410,4177.948717,4231.282051,4490.769230,4219.487179,4668.205128,3991.794872,4061.025641
147,4403.076923,4527.692307,4534.871794,4225.128205,4522.564102,4183.589743,4443.589743,4178.974358,4223.589743,4481.025641,4216.410256,4657.435897,3974.871795,4044.615384
148,4389.230769,4519.487179,4527.692307,4201.538461,4513.333333,4170.256410,4427.179487,4166.666666,4213.846153,4472.820512,4206.666666,4650.256410,3968.205129,4033.846153
149,4395.384615,4522.051282,4525.641025,4206.666666,4516.410256,4172.820512,4429.743589,4167.179487,4215.897435,4478.461538,4198.974358,4650.769230,3977.435898,4041.538461
150,4406.153846,4523.076923,4527.692307,4217.948717,4521.538461,4183.589743,4441.025641,4183.076923,4227.179487,4490.769230,4199.487179,4653.846153,3984.615385,4048.717948
151,4408.205128,4523.076923,4535.897435,4215.384615,4518.974358,4182.564102,4441.025641,4190.769230,4241.025641,4505.641025,4200.512820,4659.487179,3983.076924,4045.641025
152,4408.717948,4533.846153,4541.538461,4212.820512,4520.000000,4181.025641,4443.076923,4190.256410,4242.051282,4504.615384,4203.589743,4664.102564,3980.512821,4043.589743
153,4402.564102,4533.333333,4536.923076,4211.794871,4524.102564,4186.666666,4446.666666,4188.205128,4225.641025,4486.153846,4209.743589,4658.974358,3977.435898,4047.692307
154,4396.923076,4522.051282,4534.871794,4203.589743,4521.538461,4185.641025,4442.051282,4183.589743,4220.000000,4482.564102,4205.641025,4651.282051,3982.051283,4049.743589
155,4404.615384,4522.564102,4536.923076,4199.487179,4519.487179,4182.564102,4441.538461,4183.076923,4233.846153,4498.974358,4195.384615,4650.769230,3987.692308,4048.717948
156,4408.205128,4525.128205,4533.846153,4206.666666,4521.025641,4184.102564,4446.153846,4187.179487,4238.974358,4498.461538,4199.487179,4652.307692,3981.025642,4049.230769
157,4397.435897,4523.076923,4531.282051,4211.282051,4522.564102,4184.102564,4442.564102,4186.153846,4228.717948,4486.666666,4204.102564,4648.717948,3972.820513,4049.743589
158,4390.256410,4522.051282,4529.230769,4204.102564,4523.076923,4184.615384,4437.435897,4176.923076,4220.000000,4487.179487,4192.820512,4643.589743,3974.358975,4040.000000
159,4394.871794,4519.487179,4527.179487,4198.974358,4520.512820,4183.589743,4438.461538,4174.358974,4219.487179,4491.794871,4186.153846,4646.153846,3984.102565,4033.333333
160,4399.487179,4519.487179,4528.717948,4208.205128,4521.538461,4183.589743,4441.538461,4180.512820,4227.179487,4490.769230,4195.384615,4651.794871,3988.205129,4044.615384
161,4399.487179,4521.538461,4532.307692,4213.846153,4524.102564,4184.615384,4443.589743,4185.128205,4232.820512,4494.358974,4207.692307,4651.282051,3979.487180,4055.897435
162,4404.102564,4524.615384,4535.897435,4204.615384,4523.076923,4183.589743,4445.641025,4189.743589,4233.846153,4505.641025,4213.846153,4653.333333,3977.948718,4051.794871
163,4402.051282,4524.102564,4534.358974,4199.487179,4520.512820,4183.589743,4445.128205,4191.794871,4232.820512,4501.538461,4213.846153,4654.358974,3992.307693,4045.641025
164,4389.230769,4512.820512,4524.102564,4199.487179,4522.051282,4184.615384,4442.051282,4187.179487,4226.666666,4492.820512,4197.435897,4648.717948,3991.794872,4044.615384
165,4384.102564,4500.512820,4522.564102,4198.461538,4523.589743,4184.102564,4441.025641,4181.025641,4217.948717,4497.948717,4182.051282,4644.102564,3975.384616,4040.000000
166,4388.205128,4505.641025,4529.743589,4203.589743,4523.076923,4182.564102,4441.538461,4179.487179,4216.410256,4493.333333,4189.743589,4644.102564,3967.692308,4037.948717
167,4397.948717,4523.076923,4531.794871,4222.051282,4522.564102,4183.589743,4443.076923,4181.025641,4220.512820,4484.615384,4201.025641,4645.128205,3973.846154,4043.589743
168,4409.230769,4537.435897,4533.333333,4233.333333,4524.615384,4186.666666,4445.128205,4185.641025,4229.230769,4501.538461,4201.538461,4653.333333,3988.205129,4049.230769
169,4407.179487,4536.923076,4542.564102,4224.102564,4526.666666,4187.179487,4445.641025,4188.205128,4235.897435,4516.923076,4203.589743,4662.564102,4000.000000,4057.435897
170,4400.000000,4526.666666,4544.615384,4214.871794,4525.128205,4186.153846,4445.641025,4186.666666,4236.923076,4503.076923,4209.230769,4661.025641,3992.820513,4061.538461
171,4399.487179,4523.076923,4535.897435,4221.025641,4524.615384,4186.666666,4447.179487,4188.205128,4237.948717,4495.897435,4209.230769,4653.846153,3975.384616,4048.717948
172,4400.000000,4520.512820,4530.256410,4225.641025,4523.589743,4183.589743,4441.538461,4180.000000,4227.179487,4491.794871,4198.461538,4647.692307,3974.871795,4034.871794
173,4403.076923,4521.025641,4532.820512,4226.666666,4519.487179,4181.538461,4436.410256,4169.743589,4215.897435,4484.615384,4198.461538,4649.743589,3987.179488,4043.589743
174,4413.846153,4536.410256,4543.076923,4238.974358,4524.102564,4187.179487,4448.717948,4186.666666,4230.769230,4505.641025,4219.487179,4664.615384,3998.974359,4065.641025
175,4415.897435,4540.000000,4544.102564,4241.025641,4533.846153,4189.743589,4455.897435,4203.076923,4244.102564,4520.000000,4233.333333,4671.282051,3999.487180,4071.282051
176,4404.615384,4526.153846,4535.897435,4230.256410,4530.256410,4186.153846,4446.153846,4191.282051,4233.333333,4499.487179,4223.076923,4658.461538,3986.153847,4059.487179
177,4401.538461,4521.025641,4538.461538,4235.897435,4522.564102,4186.666666,4441.538461,4181.025641,4228.205128,4494.358974,4202.051282,4650.769230,3976.410257,4049.230769
178,4400.512820,4525.128205,4538.461538,4243.076923,4521.538461,4182.051282,4438.461538,4175.897435,4225.128205,4498.974358,4182.051282,4649.743589,3977.435898,4043.076923
179,4393.333333,4524.615384,4526.153846,4233.333333,4518.974358,4173.333333,4427.692307,4163.589743,4208.717948,4475.897435,4182.564102,4644.102564,3974.871795,4040.512820
180,4391.282051,4521.025641,4525.641025,4228.717948,4517.435897,4174.871794,4424.102564,4162.051282,4206.153846,4471.794871,4197.948717,4642.051282,3968.717949,4043.076923
181,4394.871794,4515.384615,4533.846153,4235.897435,4521.538461,4180.512820,4431.794871,4170.256410,4217.435897,4497.435897,4198.461538,4647.179487,3972.307693,4043.589743
182,4396.410256,4514.871794,4531.282051,4235.384615,4522.051282,4182.051282,4437.948717,4172.820512,4221.025641,4496.410256,4189.743589,4651.794871,3978.461539,4043.589743
183,4395.897435,4523.076923,4530.769230,4237.948717,4521.538461,4184.102564,4443.589743,4181.025641,4228.717948,4487.179487,4190.769230,4649.743589,3978.974359,4052.307692
184,4394.871794,4524.615384,4532.820512,4246.666666,4521.538461,4183.589743,4445.128205,4186.153846,4235.384615,4494.358974,4194.871794,4645.128205,3977.948718,4048.205128
185,4396.410256,4522.564102,4529.743589,4247.692307,4520.000000,4179.487179,4440.000000,4181.025641,4228.205128,4491.282051,4201.538461,4647.179487,3975.897436,4040.512820
186,4403.076923,4524.102564,4532.820512,4247.179487,4520.512820,4181.538461,4441.538461,4183.589743,4226.153846,4490.769230,4207.692307,4654.871794,3977.948718,4053.333333
187,4403.076923,4522.051282,4536.923076,4245.641025,4521.025641,4183.076923,4445.641025,4187.179487,4231.794871,4506.666666,4201.538461,4655.384615,3986.153847,4058.974358
188,4394.871794,4517.435897,4533.846153,4245.641025,4521.025641,4182.564102,4444.615384,4183.589743,4230.769230,4506.153846,4198.461538,4651.794871,3990.769231,4048.717948
189,4395.384615,4523.076923,4532.307692,4249.230769,4524.615384,4186.666666,4443.076923,4185.128205,4229.743589,4492.307692,4202.564102,4653.333333,3981.538462,4050.769230
190,4398.974358,4527.692307,4533.333333,4251.794871,4525.641025,4187.692307,4443.076923,4186.153846,4232.307692,4493.846153,4198.461538,4652.307692,3971.282052,4052.820512
191,4390.769230,4514.871794,4527.692307,4248.717948,4523.076923,4185.128205,4443.076923,4177.948717,4226.666666,4498.461538,4190.769230,4645.128205,3969.230770,4037.948717
192,4381.538461,4505.641025,4521.025641,4245.128205,4523.076923,4186.153846,4443.589743,4174.358974,4218.461538,4489.230769,4188.205128,4642.051282,3975.384616,4031.282051
193,4386.153846,4514.871794,4530.256410,4244.102564,4523.076923,4187.692307,4445.641025,4183.076923,4228.717948,4487.179487,4203.076923,4647.179487,3983.076924,4041.538461
194,4394.871794,4528.205128,4546.153846,4250.769230,4523.589743,4185.128205,4447.692307,4196.410256,4240.512820,4498.461538,4218.461538,4656.410256,3985.641026,4057.948717
195,4391.794871,4523.589743,4546.153846,4251.794871,4523.076923,4182.051282,4448.205128,4198.461538,4233.333333,4502.564102,4210.256410,4656.410256,3975.897436,4060.512820
196,4380.512820,4506.666666,4533.333333,4236.410256,4518.974358,4182.051282,4442.051282,4189.230769,4227.692307,4496.410256,4188.717948,4645.641025,3961.025642,4041.538461
197,4384.102564,4507.179487,4533.846153,4235.897435,4524.102564,4184.615384,4442.051282,4185.641025,4234.871794,4492.820512,4182.564102,4643.076923,3966.666667,4036.410256
198,4398.461538,4524.615384,4547.179487,4254.358974,4533.846153,4186.153846,4448.717948,4188.717948,4231.282051,4492.307692,4195.384615,4651.794871,3985.128206,4058.461538
199,4394.358974,4528.205128,4549.230769,4255.384615,4528.717948,4185.128205,4440.512820,4177.948717,4216.923076,4490.769230,4205.128205,4649.743589,3981.025642,4059.487179
200,4383.076923,4517.948717,4544.102564,4243.076923,4518.974358,4183.076923,4428.205128,4169.743589,4215.897435,4487.179487,4200.000000,4642.564102,3966.153847,4042.051282
201,4391.282051,4519.487179,4547.179487,4246.666666,4523.076923,4178.974358,4436.923076,4182.051282,4224.615384,4489.230769,4198.974358,4648.717948,3970.256411,4046.153846
202,4402.564102,4530.256410,4555.384615,4254.871794,4526.666666,4178.974358,4448.205128,4183.076923,4223.589743,4492.820512,4204.615384,4652.307692,3978.974359,4055.384615
203,4397.435897,4530.256410,4556.410256,4250.256410,4521.025641,4178.974358,4437.948717,4163.589743,4213.846153,4485.128205,4196.923076,4644.615384,3970.769231,4051.794871
204,4391.794871,4523.076923,4550.256410,4245.128205,4519.487179,4172.820512,4426.153846,4154.871794,4209.743589,4477.948717,4186.153846,4641.538461,3964.102565,4049.230769
205,4386.666666,4518.974358,4549.743589,4246.666666,4521.025641,4174.358974,4427.692307,4164.102564,4214.358974,4483.076923,4193.333333,4641.025641,3967.692308,4045.128205
206,4380.512820,4520.512820,4551.794871,4247.692307,4523.589743,4180.512820,4430.256410,4169.743589,4218.974358,4481.538461,4200.000000,4639.487179,3968.717949,4040.000000
207,4387.179487,4523.589743,4551.794871,4248.717948,4524.102564,4182.051282,4432.820512,4172.307692,4222.564102,4478.461538,4197.948717,4643.076923,3971.794872,4048.717948
208,4401.538461,4524.615384,4557.948717,4257.435897,4523.589743,4181.538461,4434.871794,4177.948717,4229.230769,4494.358974,4206.666666,4650.256410,3977.948718,4062.051282
209,4400.512820,4531.794871,4567.179487,4267.692307,4524.102564,4179.487179,4431.794871,4180.512820,4231.794871,4503.076923,4218.461538,4654.358974,3983.589744,4065.128205
210,4391.794871,4537.435897,4567.692307,4265.128205,4523.076923,4175.384615,4428.717948,4174.358974,4224.102564,4491.282051,4217.435897,4655.384615,3984.615385,4060.000000
211,4392.820512,4530.256410,4564.615384,4257.435897,4524.102564,4179.487179,4429.230769,4168.205128,4217.948717,4490.256410,4210.256410,4652.820512,3978.974359,4054.871794
212,4394.358974,4522.564102,4564.615384,4261.538461,4525.128205,4185.128205,4430.769230,4174.871794,4225.128205,4494.358974,4208.205128,4647.692307,3976.923077,4054.358974
213,4389.230769,4521.538461,4561.538461,4263.589743,4521.538461,4181.538461,4434.358974,4178.461538,4228.717948,4483.589743,4210.769230,4644.615384,3975.384616,4051.282051
214,4387.692307,4522.564102,4557.435897,4251.794871,4521.025641,4181.538461,4441.025641,4174.358974,4227.692307,4488.205128,4213.846153,4645.128205,3973.846154,4046.153846
215,4390.256410,4521.538461,4558.461538,4249.230769,4530.256410,4185.641025,4447.692307,4180.512820,4237.948717,4506.666666,4220.512820,4651.282051,3982.564103,4047.692307
216,4387.692307,4520.512820,4563.589743,4263.589743,4531.282051,4182.564102,4446.153846,4187.692307,4242.051282,4504.615384,4218.974358,4652.820512,3984.615385,4052.307692
217,4385.128205,4520.000000,4563.589743,4267.692307,4524.102564,4183.076923,4441.538461,4177.948717,4228.717948,4491.282051,4203.076923,4645.641025,3967.179488,4050.769230
218,4390.256410,4522.051282,4560.512820,4261.025641,4523.076923,4184.102564,4438.974358,4172.820512,4223.076923,4487.692307,4193.846153,4644.102564,3963.076924,4052.307692
219,4396.410256,4525.128205,4562.564102,4264.615384,4523.589743,4176.923076,4434.871794,4181.538461,4230.769230,4489.743589,4208.717948,4652.820512,3985.641026,4059.487179
220,4396.923076,4525.641025,4568.717948,4276.410256,4523.589743,4174.358974,4435.384615,4189.230769,4236.923076,4501.025641,4225.128205,4660.512820,3996.410257,4061.538461
221,4396.410256,4533.333333,4576.410256,4286.153846,4531.282051,4184.615384,4446.153846,4195.384615,4242.051282,4521.025641,4221.025641,4664.615384,3995.897436,4063.076923
222,4400.000000,4540.512820,4580.000000,4291.282051,4538.974358,4188.205128,4451.794871,4197.435897,4243.589743,4526.666666,4215.384615,4663.589743,3995.384616,4068.205128
223,4401.025641,4537.948717,4573.333333,4286.666666,4536.410256,4182.564102,4440.000000,4184.102564,4233.846153,4512.307692,4213.333333,4653.846153,3981.025642,4064.102564
224,4392.820512,4534.358974,4559.487179,4280.000000,4534.871794,4183.076923,4427.179487,4168.717948,4222.564102,4493.846153,4203.076923,4642.564102,3966.153847,4047.179487
225,4385.641025,4537.948717,4555.384615,4287.179487,4538.461538,4185.641025,4429.743589,4168.717948,4221.025641,4494.358974,4202.564102,4641.538461,3972.820513,4042.564102
226,4390.769230,4537.435897,4563.076923,4302.051282,4532.820512,4184.102564,4441.538461,4182.051282,4228.717948,4504.102564,4212.820512,4647.692307,3984.615385,4057.948717
227,4398.974358,4530.256410,4565.641025,4302.564102,4526.666666,4184.102564,4448.717948,4188.717948,4234.871794,4498.974358,4210.256410,4652.307692,3980.000000,4065.641025
228,4394.358974,4527.179487,4561.538461,4291.282051,4527.179487,4182.051282,4445.128205,4181.538461,4229.230769,4493.333333,4206.666666,4652.307692,3974.871795,4056.410256
229,4393.333333,4531.794871,4563.076923,4292.307692,4526.153846,4181.538461,4443.076923,4180.512820,4225.641025,4504.102564,4218.461538,4655.384615,3985.641026,4053.846153
230,4407.692307,4541.025641,4570.769230,4307.692307,4528.717948,4183.589743,4445.128205,4188.717948,4237.948717,4508.205128,4220.512820,4661.025641,3996.923077,4065.128205
231,4414.358974,4542.564102,4572.820512,4312.307692,4535.384615,4184.615384,4442.051282,4188.717948,4243.076923,4504.102564,4212.307692,4664.615384,3995.897436,4073.846153
232,4411.282051,4541.538461,4568.717948,4310.256410,4536.410256,4183.589743,4442.051282,4191.282051,4237.948717,4507.692307,4220.000000,4668.205128,3994.358975,4077.435897
233,4412.820512,4544.615384,4570.256410,4313.333333,4534.358974,4184.615384,4445.641025,4198.974358,4238.974358,4507.179487,4229.230769,4669.743589,3995.384616,4071.282051
234,4412.307692,4541.538461,4573.333333,4315.897435,4538.461538,4187.179487,4445.641025,4192.820512,4238.974358,4502.051282,4221.025641,4666.666666,3992.307693,4058.974358
235,4411.794871,4540.000000,4574.358974,4312.820512,4540.000000,4186.153846,4445.128205,4186.153846,4237.435897,4511.282051,4214.871794,4668.205128,3998.461539,4069.743589
236,4413.846153,4546.666666,4571.794871,4309.743589,4534.871794,4184.102564,4446.153846,4193.846153,4242.564102,4520.512820,4225.641025,4674.358974,4007.179487,4086.666666
237,4413.333333,4549.230769,4569.230769,4310.769230,4536.410256,4186.666666,4446.153846,4196.410256,4244.615384,4515.897435,4237.435897,4671.794871,4002.051282,4078.974358
238,4412.307692,4545.641025,4568.205128,4309.743589,4539.487179,4188.205128,4443.589743,4188.717948,4238.974358,4510.769230,4234.358974,4662.564102,3990.256411,4061.538461
239,4412.820512,4539.487179,4565.641025,4305.128205,4534.871794,4185.128205,4440.512820,4187.179487,4236.923076,4508.717948,4226.153846,4660.512820,3993.846154,4061.538461
240,4405.128205,4533.846153,4560.512820,4299.487179,4531.282051,4183.076923,4440.512820,4184.615384,4229.743589,4496.410256,4226.666666,4661.538461,3999.487180,4064.615384
241,4392.820512,4531.794871,4552.307692,4291.282051,4531.794871,4183.076923,4438.461538,4169.743589,4213.333333,4481.025641,4218.974358,4653.333333,3980.000000,4054.871794
242,4396.410256,4537.948717,4553.846153,4292.307692,4532.307692,4183.589743,4435.384615,4166.153846,4211.794871,4488.205128,4203.076923,4648.717948,3971.282052,4051.282051
243,4410.256410,4544.615384,4561.025641,4304.615384,4534.358974,4186.666666,4440.000000,4181.025641,4227.179487,4507.692307,4209.743589,4655.384615,3990.769231,4062.564102
244,4412.820512,4546.153846,4561.025641,4306.666666,4537.435897,4188.717948,4444.615384,4189.743589,4235.384615,4505.128205,4221.538461,4657.435897,3996.410257,4067.692307
245,4403.589743,4543.076923,4557.948717,4298.461538,4537.435897,4187.179487,4444.102564,4187.692307,4234.358974,4498.974358,4222.051282,4654.871794,3987.692308,4065.128205
246,4400.000000,4541.025641,4559.487179,4295.897435,4537.948717,4187.692307,4448.205128,4193.333333,4237.948717,4507.179487,4231.794871,4657.948717,3992.307693,4065.641025
247,4398.461538,4536.410256,4555.897435,4290.256410,4529.230769,4180.000000,4443.589743,4195.384615,4240.512820,4500.000000,4229.743589,4657.435897,3997.948718,4061.538461
248,4398.974358,4527.179487,4547.692307,4278.461538,4520.000000,4172.820512,4434.871794,4184.102564,4231.794871,4495.897435,4207.692307,4652.307692,3994.871795,4053.333333
249,4407.179487,4531.282051,4550.256410,4279.487179,4527.179487,4181.025641,4437.948717,4176.923076,4228.717948,4519.487179,4216.410256,4657.435897,3998.461539,4058.974358
250,4406.153846,4541.538461,4552.820512,4283.589743,4531.794871,4184.102564,4438.461538,4178.461538,4233.333333,4522.564102,4238.461538,4661.538461,3995.384616,4066.153846
251,4393.846153,4536.410256,4546.666666,4278.461538,4521.025641,4175.897435,4432.307692,4177.435897,4231.794871,4495.897435,4226.666666,4652.307692,3983.589744,4060.000000
252,4396.410256,4534.358974,4544.615384,4276.410256,4520.000000,4177.948717,4434.358974,4172.307692,4229.230769,4491.282051,4205.641025,4646.666666,3982.564103,4050.256410
253,4406.153846,4540.512820,4551.794871,4279.487179,4530.769230,4186.153846,4438.461538,4173.846153,4230.769230,4495.897435,4202.564102,4653.846153,3988.717949,4052.307692
254,4406.153846,4540.000000,4554.871794,4280.512820,4536.410256,4185.128205,4439.487179,4179.487179,4229.743589,4494.358974,4214.358974,4661.025641,3990.769231,4066.666666
255,4403.076923,4537.948717,4551.282051,4281.538461,4535.897435,4183.076923,4443.589743,4185.128205,4230.256410,4507.179487,4232.820512,4658.974358,3992.307693,4073.846153
256,4398.974358,4540.512820,4551.794871,4283.076923,4535.384615,4184.102564,4445.128205,4188.205128,4237.948717,4506.153846,4235.897435,4656.410256,3996.410257,4065.641025
257,4400.000000,4541.025641,4552.820512,4282.564102,4533.846153,4184.615384,4444.102564,4189.743589,4242.564102,4488.717948,4221.538461,4660.000000,3995.897436,4059.487179
258,4411.282051,4538.974358,4554.871794,4280.512820,4536.410256,4186.666666,4446.666666,4190.256410,4242.051282,4497.948717,4216.410256,4664.615384,3990.769231,4061.025641
259,4409.743589,4537.435897,4558.461538,4278.974358,4533.333333,4184.615384,4447.179487,4186.666666,4234.871794,4506.153846,4216.923076,4662.564102,3986.666667,4061.538461
