,AF3,F7,F3,FC5,T7,P7,O1,O2,P8,T8,FC6,F4,F8,AF4
0,4306.153846,4541.025641,4549.743589,4293.333333,4477.435897,4197.435897,4445.641025,4231.794871,4278.461538,4518.461538,4233.333333,4647.692307,3870.769231,4017.948717
1,4301.538461,4540.512820,4539.487179,4271.794871,4476.923076,4195.384615,4444.102564,4232.307692,4278.974358,4505.641025,4220.512820,4637.435897,3865.641026,4018.974358
2,4297.435897,4541.025641,4537.435897,4273.333333,4485.128205,4199.487179,4445.641025,4231.794871,4276.410256,4513.846153,4210.769230,4632.820512,3866.666667,4013.846153
3,4295.897435,4535.897435,4539.487179,4285.128205,4484.102564,4202.051282,4453.846153,4232.820512,4281.538461,4524.102564,4222.051282,4638.974358,3866.153847,4008.205128
4,4298.461538,4537.435897,4543.076923,4287.692307,4476.410256,4199.487179,4455.897435,4240.000000,4290.769230,4519.487179,4233.846153,4644.615384,3872.307693,4014.871794
5,4307.692307,4551.794871,4551.794871,4293.333333,4476.923076,4200.512820,4453.846153,4247.179487,4289.230769,4518.461538,4235.897435,4646.666666,3880.000000,4027.179487
6,4310.769230,4555.384615,4554.358974,4295.384615,4484.102564,4203.076923,4456.923076,4247.692307,4287.692307,4523.076923,4231.794871,4648.205128,3880.512821,4024.615384
7,4303.076923,4537.948717,4546.153846,4284.102564,4485.641025,4201.538461,4460.512820,4242.564102,4291.282051,4524.615384,4226.666666,4647.692307,3877.948718,4016.923076
8,4294.871794,4524.102564,4539.487179,4276.410256,4480.000000,4199.487179,4457.948717,4235.897435,4285.128205,4521.025641,4232.820512,4643.076923,3872.820513,4018.461538
9,4290.256410,4526.666666,4537.435897,4273.846153,4473.846153,4197.435897,4453.846153,4230.769230,4274.871794,4509.743589,4232.820512,4635.897435,3864.615385,4016.410256
10,4290.769230,4532.307692,4536.923076,4274.358974,4473.846153,4197.948717,4453.846153,4229.230769,4274.871794,4500.512820,4216.923076,4630.769230,3861.025642,4009.230769
11,4296.923076,4534.358974,4536.923076,4283.589743,4475.384615,4199.487179,4455.897435,4230.256410,4276.923076,4506.666666,4216.410256,4632.820512,3866.153847,4016.410256
12,4307.179487,4545.641025,4541.025641,4286.153846,4473.846153,4200.000000,4458.974358,4232.307692,4278.974358,4521.538461,4233.846153,4639.487179,3875.897436,4028.205128
13,4310.769230,4555.897435,4546.153846,4281.538461,4480.512820,4200.512820,4458.974358,4234.871794,4284.615384,4527.179487,4240.000000,4645.128205,3883.589744,4026.666666
14,4303.076923,4544.615384,4543.076923,4278.461538,4486.153846,4199.487179,4452.307692,4230.769230,4280.512820,4517.435897,4231.282051,4639.487179,3880.512821,4020.000000
15,4294.358974,4531.794871,4535.384615,4277.948717,4480.000000,4196.923076,4447.692307,4225.128205,4271.282051,4505.641025,4219.487179,4630.256410,3871.794872,4016.410256
16,4293.846153,4537.948717,4534.358974,4275.897435,4473.333333,4197.948717,4453.846153,4227.179487,4274.358974,4506.666666,4218.461538,4628.205128,3862.051283,4014.358974
17,4295.384615,4537.948717,4535.897435,4278.974358,4470.256410,4199.487179,4458.974358,4232.820512,4281.538461,4515.897435,4232.307692,4630.256410,3856.923077,4016.410256
18,4291.794871,4530.769230,4535.897435,4284.102564,4470.769230,4198.974358,4456.410256,4233.333333,4282.051282,4524.615384,4235.384615,4632.307692,3870.256411,4020.000000
19,4292.820512,4537.948717,4538.974358,4280.512820,4482.051282,4200.000000,4456.923076,4234.871794,4285.128205,4525.128205,4222.564102,4632.307692,3886.153847,4019.487179
20,4298.974358,4545.641025,4541.538461,4281.025641,4486.666666,4200.512820,4460.512820,4243.076923,4290.256410,4518.974358,4225.641025,4634.358974,3878.461539,4022.051282
21,4304.615384,4537.435897,4540.512820,4285.641025,4480.512820,4200.512820,4459.487179,4247.692307,4293.333333,4517.435897,4237.948717,4640.000000,3862.051283,4028.205128
22,4310.769230,4535.897435,4546.666666,4288.717948,4482.051282,4203.589743,4459.487179,4249.230769,4296.410256,4522.564102,4234.871794,4641.538461,3867.179488,4032.820512
23,4311.794871,4552.820512,4552.820512,4295.897435,4485.128205,4204.615384,4464.615384,4251.282051,4293.333333,4525.128205,4230.769230,4637.435897,3878.461539,4035.384615
24,4301.025641,4547.179487,4540.512820,4289.230769,4477.435897,4201.025641,4463.076923,4244.615384,4282.051282,4520.512820,4233.846153,4630.769230,3871.794872,4026.153846
25,4290.256410,4522.564102,4529.230769,4264.615384,4474.358974,4194.871794,4454.871794,4231.282051,4275.384615,4509.230769,4231.794871,4626.153846,3855.897436,4009.743589
26,4294.358974,4524.102564,4534.871794,4266.153846,4477.435897,4192.307692,4453.846153,4231.282051,4278.974358,4506.153846,4229.230769,4627.692307,3851.282052,4013.846153
27,4307.179487,4542.564102,4545.641025,4292.307692,4474.871794,4195.897435,4458.974358,4242.051282,4285.641025,4516.410256,4230.769230,4634.871794,3864.102565,4029.230769
28,4312.820512,4544.615384,4549.743589,4291.282051,4474.871794,4200.000000,4457.948717,4240.512820,4288.205128,4516.410256,4230.769230,4638.461538,3873.333334,4030.256410
29,4307.692307,4539.487179,4547.692307,4278.974358,4476.923076,4201.538461,4456.923076,4232.307692,4281.538461,4505.128205,4231.282051,4636.923076,3868.205129,4024.615384
30,4295.384615,4533.333333,4539.487179,4283.076923,4478.461538,4200.512820,4459.487179,4231.282051,4276.410256,4503.589743,4230.256410,4632.820512,3857.948718,4016.410256
31,4291.794871,4525.641025,4534.358974,4278.974358,4480.000000,4199.487179,4460.000000,4233.333333,4276.923076,4503.076923,4220.512820,4626.153846,3849.743590,4008.717948
32,4296.410256,4526.153846,4538.461538,4275.384615,4478.461538,4201.025641,4458.461538,4230.769230,4278.461538,4500.000000,4210.256410,4619.487179,3844.615385,4009.230769
33,4290.256410,4527.692307,4533.846153,4280.512820,4476.923076,4197.948717,4454.358974,4224.102564,4278.461538,4506.153846,4211.282051,4617.435897,3846.153847,4010.769230
34,4276.410256,4522.564102,4522.564102,4270.769230,4473.333333,4188.717948,4446.666666,4218.461538,4269.743589,4502.564102,4216.410256,4613.846153,3849.230770,4003.589743
35,4273.333333,4520.000000,4519.487179,4260.512820,4471.282051,4183.076923,4443.076923,4210.769230,4255.897435,4486.666666,4207.179487,4607.692307,3846.666667,3992.307693
36,4276.923076,4521.538461,4521.538461,4266.666666,4472.820512,4183.076923,4443.589743,4207.179487,4252.820512,4483.589743,4196.410256,4603.589743,3836.923077,3988.205129
37,4279.487179,4519.487179,4522.564102,4267.179487,4475.384615,4188.717948,4445.641025,4212.307692,4258.974358,4495.384615,4205.128205,4603.076923,3828.717949,3990.769231
38,4278.974358,4514.871794,4521.025641,4263.589743,4475.384615,4193.846153,4450.256410,4215.897435,4263.076923,4501.538461,4212.307692,4607.179487,3836.923077,3996.923077
39,4280.000000,4523.076923,4521.025641,4275.897435,4472.307692,4192.820512,4454.871794,4213.846153,4267.692307,4501.025641,4209.230769,4613.333333,3849.230770,4000.512820
40,4281.025641,4534.871794,4523.589743,4285.641025,4471.282051,4194.871794,4457.435897,4218.461538,4274.358974,4506.153846,4210.256410,4616.923076,3850.769231,4003.076923
41,4282.051282,4528.205128,4526.153846,4276.410256,4477.435897,4201.538461,4459.487179,4231.282051,4280.000000,4506.666666,4216.410256,4615.897435,3851.282052,4005.128205
42,4283.076923,4517.948717,4523.589743,4272.307692,4482.564102,4202.564102,4458.974358,4235.384615,4283.076923,4504.102564,4225.641025,4616.923076,3855.897436,4003.589743
43,4281.538461,4519.487179,4526.153846,4277.948717,4478.974358,4199.487179,4455.384615,4233.333333,4283.589743,4511.794871,4235.384615,4618.461538,3857.435898,4004.615384
44,4281.538461,4524.102564,4530.256410,4276.410256,4477.435897,4200.512820,4456.410256,4232.820512,4283.589743,4518.461538,4224.615384,4617.948717,3861.025642,4009.743589
45,4286.666666,4528.717948,4530.256410,4272.307692,4477.435897,4202.564102,4461.025641,4234.358974,4285.641025,4513.846153,4206.153846,4618.461538,3863.589744,4012.820512
46,4292.820512,4529.230769,4535.897435,4282.051282,4475.897435,4201.025641,4455.897435,4232.307692,4286.153846,4512.820512,4218.461538,4618.461538,3855.897436,4009.743589
47,4286.666666,4521.538461,4536.410256,4282.564102,4475.384615,4191.282051,4444.102564,4222.051282,4277.435897,4512.307692,4235.897435,4616.410256,3846.666667,4003.589743
48,4281.025641,4520.512820,4524.615384,4261.025641,4469.230769,4182.051282,4439.487179,4212.820512,4267.179487,4498.461538,4221.025641,4613.846153,3843.076924,3995.897436
49,4286.666666,4529.230769,4518.974358,4259.487179,4464.102564,4187.692307,4442.051282,4216.923076,4271.794871,4495.384615,4201.538461,4614.358974,3844.615385,3994.871795
50,4287.692307,4525.128205,4528.717948,4280.512820,4469.743589,4198.461538,4444.615384,4223.589743,4280.000000,4506.153846,4206.153846,4618.461538,3845.128206,4001.538461
51,4286.666666,4516.410256,4536.923076,4283.589743,4474.871794,4199.487179,4446.153846,4225.128205,4279.487179,4507.692307,4218.974358,4622.564102,3846.153847,4003.589743
52,4293.333333,4526.666666,4536.923076,4277.435897,4473.846153,4198.974358,4447.179487,4229.743589,4277.948717,4507.692307,4222.051282,4629.743589,3853.846154,3998.974359
53,4291.794871,4535.897435,4535.897435,4283.589743,4475.384615,4200.512820,4449.743589,4234.871794,4280.512820,4508.205128,4213.846153,4634.358974,3853.333334,3994.871795
54,4279.487179,4527.692307,4535.897435,4284.102564,4479.487179,4201.025641,4454.358974,4232.820512,4280.512820,4495.897435,4202.051282,4632.307692,3839.487180,3991.794872
55,4280.000000,4520.000000,4537.948717,4277.948717,4481.538461,4207.179487,4458.461538,4237.435897,4281.538461,4490.769230,4207.692307,4634.358974,3838.461539,3994.358975
56,4288.717948,4524.102564,4538.461538,4281.025641,4481.538461,4215.897435,4460.512820,4248.717948,4286.153846,4507.692307,4224.615384,4643.076923,3845.641026,3995.897436
57,4288.205128,4528.717948,4540.000000,4280.000000,4478.974358,4218.461538,4460.000000,4253.333333,4287.179487,4514.358974,4226.153846,4648.205128,3846.666667,3994.871795
58,4285.641025,4523.589743,4540.512820,4279.487179,4475.384615,4213.333333,4461.538461,4247.179487,4285.641025,4503.589743,4215.384615,4644.615384,3843.076924,3997.435898
59,4276.923076,4511.282051,4534.358974,4280.512820,4474.358974,4204.615384,4457.435897,4237.948717,4282.051282,4505.128205,4205.128205,4635.384615,3835.897436,3991.282052
60,4264.615384,4505.128205,4523.589743,4269.230769,4470.769230,4198.461538,4445.641025,4238.461538,4277.435897,4508.205128,4197.948717,4630.256410,3824.102565,3974.871795
61,4264.615384,4510.769230,4521.538461,4258.974358,4464.615384,4199.487179,4447.179487,4242.051282,4280.000000,4494.358974,4200.512820,4632.307692,3816.410257,3971.282052
62,4271.794871,4509.743589,4524.102564,4264.102564,4464.102564,4201.025641,4455.897435,4244.102564,4284.102564,4493.333333,4206.153846,4633.846153,3820.000000,3978.461539
63,4274.358974,4503.076923,4527.179487,4264.615384,4471.282051,4198.974358,4450.769230,4241.538461,4281.538461,4507.179487,4201.538461,4633.333333,3825.641026,3975.897436
64,4272.820512,4512.820512,4528.717948,4262.564102,4475.897435,4201.538461,4446.153846,4234.358974,4276.923076,4501.538461,4197.435897,4633.333333,3831.794872,3972.820513
65,4271.794871,4525.128205,4526.666666,4276.923076,4475.384615,4204.615384,4453.333333,4234.871794,4278.974358,4492.820512,4206.666666,4631.794871,3830.769231,3977.948718
66,4272.820512,4524.102564,4529.743589,4279.487179,4476.923076,4202.564102,4456.410256,4245.128205,4285.641025,4506.666666,4212.820512,4634.358974,3829.743590,3981.025642
67,4273.333333,4518.974358,4534.871794,4263.076923,4476.410256,4200.512820,4454.871794,4250.256410,4290.256410,4514.358974,4209.230769,4639.487179,3832.820513,3979.487180
68,4271.282051,4521.538461,4530.769230,4265.641025,4473.846153,4200.000000,4460.000000,4247.692307,4291.794871,4505.641025,4211.282051,4637.948717,3835.384616,3982.564103
69,4269.230769,4522.564102,4523.076923,4276.410256,4473.333333,4201.025641,4456.923076,4246.153846,4288.717948,4506.666666,4220.000000,4632.307692,3836.923077,3983.076924
70,4267.179487,4512.820512,4522.051282,4267.692307,4475.384615,4201.025641,4446.666666,4240.512820,4280.512820,4508.205128,4218.974358,4629.743589,3832.820513,3974.358975
71,4264.615384,4504.102564,4522.564102,4260.512820,4475.897435,4202.564102,4445.128205,4235.897435,4277.948717,4503.589743,4207.692307,4629.743589,3831.282052,3970.769231
72,4265.128205,4507.692307,4521.538461,4265.641025,4475.384615,4202.051282,4446.153846,4240.000000,4284.102564,4510.256410,4202.564102,4630.769230,3833.846154,3974.871795
73,4265.641025,4520.000000,4522.051282,4260.000000,4474.358974,4197.948717,4444.615384,4239.487179,4283.589743,4506.666666,4205.128205,4631.282051,3841.025642,3973.846154
74,4265.128205,4521.538461,4522.051282,4255.897435,4469.743589,4194.871794,4444.102564,4234.358974,4277.948717,4493.333333,4211.282051,4632.820512,3845.128206,3973.333334
75,4267.179487,4511.794871,4524.615384,4266.666666,4467.692307,4197.948717,4445.641025,4236.410256,4280.000000,4500.000000,4211.794871,4631.794871,3841.538462,3976.410257
76,4262.564102,4502.564102,4524.102564,4266.153846,4473.846153,4197.948717,4445.128205,4233.846153,4277.435897,4509.743589,4203.589743,4625.641025,3835.897436,3972.820513
77,4258.974358,4502.051282,4521.025641,4258.461538,4475.384615,4193.333333,4445.128205,4229.743589,4272.307692,4504.615384,4206.153846,4624.102564,3833.846154,3973.333334
78,4270.769230,4512.820512,4525.641025,4263.076923,4471.794871,4195.897435,4447.179487,4238.461538,4279.487179,4504.615384,4216.410256,4631.282051,3840.512821,3986.666667
79,4274.871794,4521.538461,4528.205128,4267.179487,4473.846153,4200.512820,4445.641025,4243.589743,4286.666666,4505.641025,4211.794871,4635.384615,3845.128206,3988.717949
80,4266.666666,4523.076923,4525.641025,4264.102564,4475.897435,4198.974358,4444.615384,4235.897435,4283.076923,4499.487179,4202.564102,4630.256410,3844.102565,3980.512821
81,4263.589743,4518.461538,4523.589743,4265.128205,4474.358974,4197.948717,4444.615384,4236.410256,4278.974358,4505.128205,4212.820512,4623.589743,3839.487180,3981.538462
82,4265.128205,4509.743589,4522.564102,4265.641025,4478.461538,4199.487179,4444.102564,4247.692307,4279.487179,4513.333333,4217.435897,4621.025641,3842.051283,3987.179488
83,4268.205128,4508.717948,4522.564102,4264.102564,4482.564102,4202.051282,4449.230769,4247.692307,4285.128205,4511.282051,4205.641025,4626.666666,3847.179488,3988.205129
84,4271.282051,4520.512820,4524.615384,4262.564102,4478.974358,4203.076923,4458.461538,4244.615384,4287.692307,4505.641025,4212.820512,4634.358974,3844.102565,3989.743590
85,4269.230769,4528.205128,4523.589743,4259.487179,4475.897435,4204.102564,4457.435897,4247.179487,4283.589743,4502.051282,4220.000000,4630.256410,3842.051283,3990.769231
86,4264.615384,4517.948717,4521.538461,4260.512820,4474.358974,4202.564102,4447.179487,4242.051282,4277.435897,4503.076923,4205.641025,4620.512820,3842.051283,3984.615385
87,4265.641025,4506.153846,4519.487179,4263.076923,4474.358974,4196.410256,4442.051282,4227.692307,4272.820512,4500.000000,4196.923076,4617.435897,3836.410257,3978.461539
88,4268.205128,4509.230769,4517.948717,4264.102564,4475.384615,4193.333333,4442.051282,4221.025641,4268.717948,4496.410256,4206.153846,4616.410256,3829.230770,3980.512821
89,4271.794871,4519.487179,4521.025641,4263.076923,4475.897435,4197.948717,4442.051282,4227.692307,4267.692307,4500.000000,4214.871794,4618.974358,3839.487180,3986.153847
90,4277.435897,4522.564102,4523.589743,4262.564102,4475.897435,4202.051282,4444.102564,4233.333333,4274.358974,4504.615384,4215.897435,4629.230769,3850.769231,3989.743590
91,4278.461538,4520.000000,4524.615384,4268.717948,4477.435897,4201.025641,4445.641025,4231.282051,4278.974358,4501.025641,4214.871794,4633.846153,3845.641026,3988.717949
92,4278.461538,4524.102564,4530.256410,4272.307692,4477.948717,4202.051282,4445.641025,4232.307692,4280.000000,4502.051282,4215.897435,4629.230769,3841.538462,3989.743590
93,4282.051282,4528.205128,4532.820512,4274.358974,4477.948717,4205.128205,4446.666666,4237.948717,4280.000000,4511.282051,4220.000000,4631.282051,3846.153847,3994.358975
94,4279.487179,4525.641025,4526.153846,4282.564102,4477.948717,4198.461538,4441.025641,4231.794871,4276.923076,4505.128205,4216.410256,4631.794871,3851.282052,3993.333334
95,4268.205128,4522.051282,4521.538461,4270.256410,4476.410256,4192.820512,4435.384615,4222.051282,4272.820512,4497.435897,4204.615384,4622.051282,3846.666667,3987.692308
96,4260.512820,4517.948717,4522.564102,4248.717948,4473.846153,4196.410256,4438.461538,4225.128205,4273.333333,4500.000000,4203.076923,4618.461538,3831.794872,3985.128206
97,4268.205128,4519.487179,4523.076923,4264.615384,4474.358974,4202.051282,4445.128205,4229.743589,4278.974358,4498.974358,4213.846153,4627.692307,3831.794872,3988.205129
98,4275.384615,4528.205128,4524.615384,4290.769230,4480.512820,4202.051282,4441.025641,4225.128205,4273.333333,4500.000000,4222.564102,4632.307692,3850.256411,3993.846154
99,4268.205128,4522.564102,4524.615384,4280.000000,4485.128205,4198.461538,4431.282051,4217.435897,4262.051282,4501.538461,4210.769230,4620.000000,3846.666667,3990.769231
100,4261.025641,4508.717948,4520.512820,4267.179487,4480.000000,4197.948717,4433.333333,4217.435897,4261.538461,4494.871794,4196.923076,4613.333333,3828.717949,3979.487180
101,4264.102564,4515.897435,4522.564102,4270.256410,4475.897435,4201.538461,4444.102564,4225.128205,4270.256410,4497.435897,4208.205128,4626.153846,3834.871795,3982.564103
102,4275.384615,4527.692307,4530.769230,4265.128205,4480.512820,4203.589743,4449.230769,4234.871794,4279.487179,4507.692307,4227.692307,4637.435897,3846.153847,3997.435898
103,4278.974358,4520.000000,4530.256410,4269.230769,4480.000000,4200.000000,4444.102564,4235.384615,4281.025641,4500.000000,4219.487179,4629.743589,3842.564103,3996.410257
104,4272.820512,4519.487179,4524.102564,4276.923076,4472.820512,4197.948717,4442.564102,4231.282051,4280.000000,4495.897435,4197.948717,4621.538461,3843.076924,3987.692308
105,4265.641025,4526.153846,4522.051282,4269.230769,4474.358974,4198.974358,4446.666666,4233.333333,4280.512820,4510.256410,4201.538461,4624.102564,3841.538462,3990.256411
106,4261.025641,4511.794871,4522.564102,4261.538461,4474.871794,4194.358974,4441.025641,4231.794871,4278.461538,4508.717948,4217.435897,4621.538461,3828.205129,3989.743590
107,4266.153846,4503.076923,4522.051282,4265.128205,4465.641025,4186.666666,4433.333333,4228.717948,4274.871794,4500.512820,4218.974358,4618.974358,3832.820513,3984.615385
108,4276.410256,4518.974358,4522.564102,4264.615384,4461.025641,4187.692307,4437.948717,4230.256410,4276.410256,4506.153846,4207.179487,4624.102564,3851.794872,3992.307693
109,4281.025641,4527.692307,4526.153846,4261.025641,4466.666666,4196.410256,4445.641025,4231.794871,4279.487179,4507.179487,4205.641025,4630.256410,3853.846154,4005.128205
110,4275.384615,4522.051282,4525.641025,4268.717948,4474.358974,4201.538461,4444.615384,4232.307692,4279.487179,4503.076923,4222.564102,4628.717948,3847.179488,4003.589743
111,4272.307692,4521.025641,4523.076923,4274.871794,4476.923076,4200.512820,4443.589743,4232.820512,4283.076923,4512.307692,4236.923076,4626.153846,3845.128206,3996.923077
112,4275.897435,4521.025641,4529.230769,4277.435897,4474.358974,4197.948717,4446.153846,4232.307692,4285.641025,4520.000000,4223.589743,4630.256410,3847.692308,3998.974359
113,4282.564102,4522.564102,4537.948717,4281.538461,4474.871794,4202.564102,4447.179487,4232.307692,4283.589743,4512.820512,4203.589743,4633.333333,3854.358975,4004.615384
114,4284.102564,4527.692307,4530.769230,4268.717948,4475.897435,4202.564102,4445.128205,4231.282051,4281.538461,4505.128205,4212.820512,4628.717948,3853.846154,4004.615384
115,4269.230769,4513.846153,4518.974358,4248.205128,4467.179487,4189.230769,4441.025641,4221.538461,4271.794871,4496.923076,4221.538461,4617.948717,3837.435898,3992.820513
116,4258.974358,4499.487179,4516.410256,4249.743589,4461.025641,4184.615384,4439.487179,4214.358974,4265.128205,4491.794871,4209.230769,4611.282051,3830.769231,3983.589744
117,4274.358974,4516.923076,4522.564102,4269.743589,4470.256410,4198.461538,4445.128205,4226.153846,4276.923076,4503.589743,4209.230769,4621.025641,3844.615385,3994.358975
118,4288.717948,4534.358974,4528.205128,4280.512820,4480.512820,4206.153846,4448.717948,4236.923076,4285.641025,4512.820512,4219.487179,4631.794871,3853.846154,4007.692307
119,4282.564102,4527.179487,4525.641025,4278.461538,4481.025641,4201.538461,4447.692307,4232.820512,4277.435897,4507.179487,4214.358974,4625.641025,3855.384616,4006.153846
120,4275.384615,4520.512820,4520.512820,4270.769230,4476.923076,4200.512820,4447.692307,4231.794871,4276.410256,4504.615384,4213.846153,4615.384615,3852.820513,4000.000000
121,4278.974358,4527.692307,4521.538461,4264.615384,4475.384615,4201.025641,4446.666666,4233.846153,4283.076923,4501.538461,4220.000000,4616.410256,3847.692308,3999.487180
122,4280.000000,4522.051282,4524.102564,4266.153846,4474.871794,4199.487179,4444.102564,4229.230769,4282.051282,4498.461538,4214.358974,4620.512820,3850.769231,4001.025641
123,4276.410256,4507.692307,4522.564102,4267.179487,4474.358974,4197.435897,4444.615384,4229.230769,4280.512820,4508.717948,4212.820512,4616.923076,3854.871795,4001.025641
124,4274.358974,4510.256410,4522.051282,4266.666666,4471.282051,4191.794871,4443.589743,4228.717948,4275.384615,4505.641025,4220.000000,4613.333333,3839.487180,3993.846154
125,4275.384615,4525.641025,4519.487179,4265.128205,4463.589743,4185.641025,4438.461538,4217.948717,4265.128205,4490.256410,4211.794871,4612.820512,3826.153847,3989.230770
126,4277.948717,4527.692307,4518.974358,4262.051282,4455.897435,4185.128205,4438.974358,4217.435897,4270.256410,4494.871794,4197.948717,4615.384615,3837.435898,3994.358975
127,4278.461538,4519.487179,4522.564102,4265.641025,4463.589743,4192.820512,4443.589743,4225.128205,4279.487179,4500.000000,4201.538461,4617.435897,3847.692308,4000.512820
128,4281.025641,4523.589743,4524.615384,4269.743589,4475.384615,4199.487179,4443.076923,4218.974358,4270.256410,4486.666666,4208.205128,4616.410256,3843.076924,4002.564102
129,4282.564102,4528.205128,4524.102564,4265.128205,4475.897435,4198.974358,4442.051282,4219.487179,4267.692307,4490.256410,4208.717948,4616.923076,3840.512821,4005.128205
130,4278.461538,4521.538461,4523.589743,4259.487179,4473.333333,4195.897435,4443.589743,4228.717948,4277.948717,4502.051282,4210.256410,4615.897435,3838.461539,4002.564102
131,4276.410256,4518.461538,4524.102564,4264.102564,4469.230769,4196.410256,4444.102564,4224.615384,4280.512820,4501.025641,4207.692307,4615.384615,3835.384616,3998.461539
132,4278.461538,4522.051282,4523.076923,4273.846153,4466.666666,4192.820512,4442.564102,4221.538461,4276.923076,4497.948717,4202.564102,4615.897435,3833.846154,3997.948718
133,4275.384615,4518.461538,4520.000000,4268.717948,4471.282051,4182.564102,4434.871794,4221.538461,4268.205128,4492.820512,4201.025641,4612.307692,3831.282052,3994.871795
134,4274.871794,4513.846153,4521.025641,4259.487179,4475.897435,4187.692307,4430.256410,4216.410256,4263.589743,4491.282051,4202.051282,4611.794871,3836.923077,3995.897436
135,4281.025641,4520.000000,4525.128205,4266.666666,4471.282051,4196.923076,4440.000000,4222.564102,4274.871794,4500.000000,4208.717948,4616.410256,3846.666667,4004.102564
136,4282.564102,4527.179487,4524.102564,4271.282051,4467.692307,4192.820512,4446.153846,4235.384615,4282.564102,4504.102564,4222.051282,4618.461538,3842.051283,4006.666666
137,4277.435897,4526.666666,4518.974358,4260.512820,4464.615384,4188.717948,4437.435897,4233.333333,4275.897435,4502.564102,4223.076923,4612.820512,3836.923077,4002.564102
138,4277.435897,4517.948717,4518.974358,4262.564102,4460.000000,4191.794871,4437.948717,4228.205128,4277.435897,4505.641025,4205.641025,4612.307692,3846.153847,3997.948718
139,4280.000000,4510.256410,4521.538461,4264.615384,4464.102564,4190.256410,4443.076923,4228.717948,4279.487179,4496.410256,4189.230769,4613.333333,3850.256411,3995.384616
140,4277.435897,4515.384615,4519.487179,4254.871794,4471.282051,4184.102564,4436.923076,4218.974358,4265.641025,4486.153846,4195.897435,4606.666666,3845.128206,3992.820513
141,4277.948717,4526.666666,4518.974358,4258.974358,4472.820512,4190.769230,4436.410256,4218.461538,4266.666666,4502.564102,4219.487179,4608.205128,3839.487180,3991.794872
142,4278.974358,4526.153846,4520.000000,4267.179487,4473.846153,4197.948717,4443.589743,4226.666666,4278.461538,4512.820512,4217.435897,4613.846153,3829.743590,3987.692308
143,4277.948717,4518.974358,4520.512820,4270.769230,4478.461538,4197.948717,4442.051282,4222.051282,4271.282051,4501.025641,4189.230769,4610.769230,3831.282052,3984.615385
144,4287.179487,4522.564102,4523.076923,4280.512820,4480.000000,4200.000000,4441.025641,4221.025641,4266.666666,4496.410256,4187.179487,4613.333333,3849.230770,3990.769231
145,4297.948717,4530.769230,4526.153846,4278.974358,4477.948717,4201.538461,4446.666666,4233.333333,4279.487179,4505.128205,4209.230769,4625.641025,3850.769231,3996.410257
146,4295.384615,4532.820512,4530.256410,4267.692307,4476.410256,4202.051282,4451.794871,4236.923076,4283.589743,4507.179487,4220.512820,4631.282051,3839.487180,3992.307693
147,4293.333333,4528.717948,4535.897435,4274.871794,4475.897435,4200.000000,4454.871794,4230.769230,4276.923076,4503.076923,4214.871794,4631.794871,3843.589744,3990.256411
148,4297.948717,4524.102564,4538.974358,4282.051282,4476.410256,4201.025641,4453.846153,4231.282051,4279.487179,4508.205128,4205.128205,4640.000000,3850.769231,3996.410257
149,4297.948717,4526.153846,4535.384615,4274.358974,4474.871794,4202.564102,4447.692307,4233.846153,4282.564102,4513.846153,4207.179487,4640.512820,3846.666667,4000.000000
150,4295.897435,4533.333333,4530.769230,4275.384615,4474.358974,4198.974358,4443.589743,4228.205128,4274.358974,4505.128205,4214.871794,4636.410256,3841.025642,3994.358975
151,4297.435897,4531.794871,4524.615384,4280.000000,4474.358974,4194.871794,4441.538461,4221.025641,4266.153846,4491.794871,4210.256410,4637.435897,3840.512821,3990.256411
152,4293.846153,4520.512820,4522.051282,4278.974358,4475.384615,4196.923076,4442.564102,4221.538461,4268.717948,4497.435897,4196.410256,4638.461538,3844.615385,3988.717949
153,4293.846153,4523.589743,4533.333333,4280.512820,4475.384615,4202.564102,4444.615384,4231.282051,4279.487179,4509.743589,4195.897435,4644.102564,3846.666667,3989.743590
154,4300.512820,4543.076923,4540.000000,4280.000000,4476.923076,4201.538461,4443.076923,4234.871794,4284.102564,4513.333333,4210.769230,4648.205128,3846.666667,3993.333334
155,4298.974358,4541.025641,4529.743589,4278.461538,4481.538461,4198.461538,4443.076923,4223.076923,4276.410256,4511.282051,4217.435897,4640.000000,3842.051283,3992.307693
156,4291.794871,4523.589743,4524.102564,4279.487179,4481.025641,4200.000000,4445.128205,4214.871794,4266.153846,4499.487179,4207.692307,4635.384615,3836.410257,3986.153847
157,4294.358974,4526.666666,4533.333333,4280.512820,4476.923076,4202.051282,4447.179487,4223.589743,4268.717948,4493.846153,4205.128205,4646.666666,3841.538462,3991.282052
158,4298.974358,4538.461538,4539.487179,4281.538461,4477.435897,4201.025641,4448.205128,4234.358974,4280.000000,4510.256410,4214.358974,4650.256410,3848.717949,4001.538461
159,4295.897435,4539.487179,4533.333333,4276.923076,4476.410256,4200.512820,4445.128205,4233.333333,4280.512820,4519.487179,4214.358974,4641.025641,3843.589744,3997.948718
160,4294.871794,4534.871794,4530.256410,4268.717948,4473.846153,4200.000000,4442.564102,4229.230769,4274.871794,4509.743589,4211.282051,4639.487179,3838.461539,3990.769231
161,4297.948717,4527.179487,4533.846153,4273.846153,4476.923076,4201.538461,4444.102564,4231.282051,4278.974358,4508.205128,4216.410256,4646.153846,3846.666667,3992.820513
162,4297.435897,4525.641025,4538.461538,4283.076923,4479.487179,4202.564102,4445.641025,4233.333333,4282.564102,4513.846153,4217.948717,4649.743589,3848.717949,3994.358975
163,4300.512820,4540.000000,4541.025641,4281.538461,4477.948717,4202.051282,4446.153846,4233.846153,4280.000000,4507.692307,4216.923076,4649.230769,3845.128206,3996.410257
164,4309.743589,4550.256410,4539.487179,4280.000000,4477.948717,4202.051282,4446.153846,4233.846153,4278.461538,4506.153846,4218.461538,4651.794871,3848.717949,4004.615384
165,4311.282051,4543.076923,4537.948717,4282.564102,4478.461538,4200.512820,4444.102564,4233.846153,4283.589743,4515.897435,4215.384615,4656.410256,3848.717949,4006.153846
166,4301.025641,4536.410256,4540.512820,4281.025641,4478.974358,4200.512820,4443.589743,4235.384615,4290.256410,4520.512820,4213.333333,4653.846153,3847.179488,3997.435898
167,4294.871794,4540.000000,4537.435897,4278.974358,4478.461538,4202.051282,4445.641025,4232.307692,4286.153846,4518.461538,4218.461538,4646.666666,3847.692308,3995.897436
168,4296.410256,4538.461538,4530.256410,4281.538461,4476.410256,4201.025641,4444.102564,4227.179487,4278.974358,4516.410256,4217.948717,4644.102564,3843.076924,3993.846154
169,4300.000000,4534.871794,4533.846153,4276.923076,4475.897435,4198.461538,4441.025641,4228.205128,4281.538461,4522.564102,4209.230769,4646.666666,3837.948718,3991.794872
170,4307.179487,4542.564102,4542.051282,4270.769230,4475.897435,4198.461538,4440.512820,4232.820512,4285.128205,4527.179487,4209.743589,4648.717948,3836.923077,3997.948718
171,4305.128205,4549.743589,4537.948717,4275.384615,4473.846153,4198.974358,4442.051282,4231.794871,4277.948717,4514.871794,4219.487179,4645.641025,3833.333334,3999.487180
172,4294.871794,4542.051282,4535.897435,4281.538461,4481.025641,4200.512820,4443.589743,4231.282051,4274.871794,4506.153846,4221.538461,4645.128205,3837.948718,3993.333334
173,4294.358974,4536.923076,4540.512820,4282.051282,4488.717948,4202.564102,4445.641025,4235.384615,4281.025641,4515.897435,4217.435897,4648.205128,3849.230770,3996.923077
174,4298.461538,4538.974358,4537.435897,4281.538461,4482.564102,4201.538461,4445.128205,4232.820512,4278.461538,4519.487179,4213.333333,4643.589743,3844.102565,3997.948718
175,4295.384615,4536.410256,4534.358974,4276.923076,4478.461538,4201.538461,4444.102564,4230.256410,4274.871794,4505.128205,4213.333333,4637.435897,3829.743590,3987.692308
176,4294.871794,4537.435897,4538.974358,4273.333333,4486.153846,4203.589743,4445.641025,4232.307692,4275.897435,4502.564102,4218.974358,4641.538461,3829.743590,3989.230770
177,4295.897435,4540.512820,4534.871794,4278.974358,4491.282051,4201.025641,4444.102564,4226.153846,4272.820512,4513.333333,4212.307692,4639.487179,3833.333334,3995.384616
178,4293.333333,4535.897435,4526.666666,4280.000000,4489.230769,4198.461538,4439.487179,4214.871794,4268.205128,4514.871794,4197.435897,4631.794871,3824.615385,3989.230770
179,4291.794871,4536.410256,4533.333333,4277.435897,4486.153846,4201.538461,4441.538461,4212.820512,4267.179487,4509.743589,4204.102564,4633.333333,3817.435898,3987.179488
180,4294.871794,4544.615384,4540.000000,4281.025641,4485.128205,4206.666666,4448.717948,4224.615384,4272.307692,4509.743589,4218.461538,4637.435897,3817.948718,3993.846154
181,4295.384615,4547.692307,4529.743589,4273.333333,4482.564102,4206.153846,4447.692307,4232.820512,4275.384615,4505.641025,4215.384615,4634.871794,3816.923077,3996.410257
182,4285.641025,4535.384615,4520.512820,4260.000000,4478.974358,4200.512820,4442.051282,4224.102564,4270.769230,4494.358974,4201.025641,4629.230769,3814.871795,3989.743590
183,4278.461538,4520.512820,4519.487179,4265.128205,4474.358974,4196.923076,4441.538461,4215.897435,4267.692307,4493.333333,4192.307692,4622.564102,3814.358975,3983.076924
184,4286.153846,4524.615384,4523.076923,4275.897435,4475.897435,4198.974358,4444.102564,4226.153846,4272.820512,4503.589743,4201.025641,4625.128205,3814.871795,3988.717949
185,4297.435897,4541.025641,4529.230769,4278.974358,4480.000000,4203.589743,4445.128205,4237.948717,4286.666666,4515.384615,4220.512820,4639.487179,3820.512821,4000.000000
186,4297.435897,4542.051282,4529.743589,4274.358974,4478.461538,4202.564102,4445.641025,4235.384615,4292.820512,4523.076923,4223.076923,4644.102564,3830.256411,4004.615384
187,4291.282051,4533.846153,4523.589743,4263.076923,4475.384615,4197.435897,4437.948717,4229.230769,4285.128205,4514.358974,4213.333333,4634.871794,3835.384616,4004.102564
188,4290.256410,4538.974358,4521.025641,4263.076923,4476.410256,4196.923076,4427.692307,4228.205128,4278.974358,4506.666666,4217.435897,4631.282051,3832.820513,4003.589743
189,4294.871794,4538.461538,4524.615384,4278.974358,4477.948717,4200.000000,4433.846153,4229.743589,4285.641025,4518.974358,4216.923076,4634.358974,3822.564103,4002.564102
190,4293.846153,4526.666666,4523.076923,4275.384615,4475.897435,4199.487179,4437.435897,4228.205128,4285.128205,4520.000000,4201.538461,4632.820512,3812.820513,3994.358975
191,4290.256410,4529.230769,4523.589743,4254.871794,4474.358974,4198.974358,4430.769230,4224.615384,4273.846153,4504.102564,4200.000000,4630.256410,3813.846154,3992.307693
192,4292.307692,4541.538461,4531.794871,4261.538461,4473.846153,4197.435897,4434.871794,4227.179487,4272.820512,4503.076923,4206.153846,4631.282051,3812.307693,3997.948718
193,4295.897435,4541.538461,4536.410256,4283.076923,4473.333333,4194.871794,4440.512820,4230.256410,4274.358974,4507.692307,4207.179487,4632.307692,3806.666667,4001.025641
194,4295.384615,4537.948717,4535.384615,4282.564102,4475.384615,4195.897435,4435.384615,4226.153846,4271.794871,4503.076923,4211.794871,4635.897435,3809.743590,4001.025641
195,4297.948717,4538.974358,4538.461538,4277.948717,4475.384615,4199.487179,4437.948717,4227.179487,4274.871794,4506.153846,4211.794871,4638.461538,3816.410257,4004.615384
196,4298.461538,4538.974358,4538.974358,4278.461538,4473.333333,4201.538461,4446.666666,4230.769230,4277.948717,4509.743589,4202.051282,4636.410256,3816.923077,4003.076923
197,4289.230769,4537.948717,4527.692307,4269.230769,4473.333333,4195.384615,4439.487179,4221.538461,4268.717948,4500.512820,4197.435897,4629.743589,3807.179488,3993.333334
198,4282.051282,4538.974358,4520.512820,4266.153846,4473.333333,4191.282051,4427.692307,4210.256410,4257.948717,4494.358974,4198.461538,4623.589743,3790.769231,3990.256411
199,4287.692307,4537.948717,4523.589743,4275.897435,4473.333333,4196.410256,4431.282051,4213.333333,4262.051282,4498.974358,4198.461538,4626.666666,3792.307693,3995.897436
200,4297.435897,4535.897435,4525.128205,4280.000000,4473.846153,4203.076923,4440.512820,4220.000000,4268.205128,4507.179487,4203.076923,4631.794871,3811.794872,4003.076923
201,4293.846153,4537.435897,4524.102564,4275.384615,4474.358974,4200.000000,4442.051282,4218.461538,4264.615384,4509.230769,4205.641025,4627.692307,3815.384616,4004.615384
202,4282.051282,4535.897435,4521.538461,4270.256410,4473.333333,4190.769230,4434.358974,4214.871794,4261.025641,4501.025641,4197.948717,4618.461538,3798.974359,3998.461539
203,4280.000000,4528.717948,4520.000000,4265.641025,4471.282051,4187.179487,4427.692307,4213.846153,4262.051282,4495.384615,4195.897435,4615.384615,3785.641026,3995.897436
204,4288.205128,4530.256410,4522.051282,4263.076923,4470.256410,4190.256410,4431.794871,4215.384615,4264.615384,4501.538461,4212.307692,4622.564102,3783.076924,4001.025641
205,4297.948717,4540.000000,4526.153846,4268.205128,4472.820512,4198.461538,4442.051282,4220.512820,4268.717948,4508.717948,4223.076923,4632.307692,3790.256411,4008.205128
206,4296.923076,4542.051282,4524.615384,4275.384615,4475.897435,4198.461538,4440.000000,4218.974358,4267.179487,4504.615384,4207.692307,4628.717948,3795.897436,4004.615384
207,4289.743589,4537.948717,4523.076923,4274.358974,4475.384615,4189.743589,4434.358974,4213.846153,4263.589743,4502.051282,4191.794871,4618.974358,3788.205129,3998.461539
208,4287.692307,4538.974358,4523.076923,4267.692307,4472.820512,4190.256410,4436.923076,4214.358974,4265.641025,4507.179487,4197.435897,4619.487179,3778.974359,4002.051282
209,4292.307692,4534.871794,4522.564102,4263.589743,4472.307692,4194.358974,4437.948717,4216.410256,4264.615384,4509.743589,4208.205128,4623.076923,3778.974359,4005.128205
210,4294.358974,4531.282051,4526.666666,4265.128205,4475.384615,4194.358974,4438.974358,4215.897435,4264.102564,4507.692307,4210.256410,4625.128205,3788.717949,4006.666666
211,4293.333333,4544.102564,4529.743589,4272.820512,4476.410256,4196.410256,4443.589743,4215.897435,4267.179487,4501.538461,4200.000000,4627.179487,3798.461539,4007.179487
212,4293.846153,4554.871794,4525.128205,4278.974358,4475.384615,4200.000000,4442.051282,4216.410256,4266.666666,4501.025641,4195.384615,4624.102564,3793.333334,4006.153846
213,4292.307692,4546.153846,4522.564102,4276.410256,4479.487179,4198.461538,4440.000000,4217.948717,4267.692307,4515.384615,4210.769230,4619.487179,3783.076924,4005.128205
214,4288.717948,4535.897435,4524.615384,4274.871794,4482.051282,4198.974358,4442.564102,4215.897435,4268.205128,4522.564102,4214.358974,4618.461538,3780.000000,4004.615384
215,4287.692307,4537.948717,4521.025641,4277.435897,4477.948717,4202.564102,4442.051282,4209.230769,4262.564102,4511.794871,4197.435897,4614.871794,3778.974359,3999.487180
216,4292.820512,4543.589743,4522.051282,4275.897435,4484.102564,4199.487179,4442.051282,4211.282051,4264.615384,4501.025641,4198.461538,4616.923076,3782.051283,4002.051282
217,4301.538461,4552.307692,4537.948717,4275.384615,4490.256410,4199.487179,4446.153846,4225.641025,4277.435897,4505.641025,4213.846153,4629.230769,3801.025642,4018.461538
218,4306.666666,4561.538461,4542.564102,4278.974358,4481.025641,4202.564102,4449.230769,4234.358974,4282.564102,4520.000000,4223.076923,4637.948717,3809.743590,4026.666666
219,4303.589743,4553.846153,4529.743589,4283.076923,4473.846153,4199.487179,4447.692307,4227.179487,4276.923076,4525.641025,4229.230769,4634.358974,3789.743590,4020.000000
220,4297.435897,4538.461538,4521.538461,4280.512820,4480.000000,4198.974358,4444.615384,4216.923076,4270.256410,4515.897435,4220.512820,4628.205128,3773.333334,4015.897435
221,4303.076923,4536.923076,4525.128205,4273.333333,4480.512820,4201.025641,4449.230769,4221.538461,4270.256410,4508.717948,4202.564102,4629.743589,3781.025642,4019.487179
222,4311.282051,4541.025641,4530.256410,4269.743589,4476.410256,4201.025641,4458.974358,4230.256410,4274.871794,4508.205128,4207.692307,4631.794871,3795.384616,4023.076923
223,4304.615384,4540.512820,4535.384615,4274.358974,4477.948717,4200.512820,4457.435897,4231.794871,4281.025641,4509.230769,4224.615384,4633.846153,3798.974359,4023.076923
224,4295.897435,4534.871794,4537.435897,4280.000000,4475.384615,4198.974358,4445.641025,4232.820512,4282.564102,4517.435897,4222.564102,4632.307692,3787.179488,4020.000000
225,4296.410256,4525.641025,4528.205128,4277.435897,4468.205128,4190.256410,4442.051282,4227.692307,4273.846153,4518.974358,4208.205128,4624.615384,3773.333334,4011.794871
226,4295.897435,4523.589743,4521.538461,4270.256410,4468.205128,4186.153846,4444.615384,4222.051282,4268.205128,4512.820512,4207.692307,4620.000000,3773.333334,4008.717948
227,4295.384615,4534.871794,4530.256410,4266.153846,4466.153846,4186.666666,4444.102564,4226.153846,4274.871794,4520.512820,4215.384615,4626.153846,3785.128206,4016.923076
228,4301.025641,4542.564102,4540.000000,4269.743589,4462.051282,4188.205128,4445.128205,4232.820512,4283.589743,4527.179487,4216.923076,4631.794871,3791.282052,4021.538461
229,4304.102564,4538.461538,4538.974358,4276.410256,4469.230769,4194.871794,4450.256410,4230.769230,4285.128205,4517.948717,4218.461538,4633.333333,3786.666667,4018.461538
230,4302.564102,4532.820512,4535.897435,4273.846153,4473.333333,4192.820512,4447.692307,4223.076923,4281.538461,4517.435897,4221.025641,4632.307692,3783.589744,4017.948717
231,4297.435897,4533.846153,4535.897435,4268.717948,4461.538461,4182.564102,4442.051282,4221.025641,4276.923076,4523.076923,4220.000000,4626.153846,3784.615385,4018.974358
232,4296.410256,4539.487179,4536.923076,4272.820512,4461.538461,4188.717948,4450.256410,4226.666666,4274.871794,4520.000000,4217.435897,4624.102564,3785.128206,4016.410256
233,4303.589743,4542.051282,4541.025641,4282.564102,4476.410256,4202.564102,4461.538461,4234.358974,4280.512820,4523.589743,4216.923076,4629.230769,3787.179488,4018.461538
234,4302.564102,4536.923076,4538.974358,4282.051282,4478.461538,4201.538461,4460.512820,4232.820512,4281.538461,4525.641025,4215.897435,4626.666666,3786.666667,4020.000000
235,4290.769230,4533.333333,4527.179487,4271.282051,4473.846153,4194.358974,4452.307692,4221.025641,4271.282051,4518.974358,4211.794871,4617.435897,3773.846154,4012.307692
236,4289.743589,4536.923076,4520.000000,4268.717948,4474.358974,4193.846153,4447.179487,4216.923076,4268.717948,4520.000000,4209.743589,4612.820512,3768.717949,4006.153846
237,4301.025641,4538.461538,4525.641025,4276.410256,4473.333333,4196.923076,4447.179487,4224.102564,4275.897435,4525.128205,4208.205128,4618.461538,3784.615385,4010.256410
238,4305.641025,4535.897435,4527.692307,4280.512820,4474.871794,4198.461538,4444.102564,4223.589743,4269.743589,4517.435897,4206.153846,4624.615384,3789.743590,4009.743589
239,4302.564102,4540.512820,4526.666666,4278.974358,4478.974358,4197.948717,4440.000000,4219.487179,4265.641025,4522.564102,4210.256410,4629.743589,3786.153847,4008.205128
240,4306.153846,4552.307692,4535.384615,4279.487179,4478.461538,4202.051282,4450.256410,4232.307692,4286.153846,4536.410256,4226.153846,4641.538461,3794.358975,4016.923076
241,4314.871794,4562.051282,4542.564102,4281.025641,4480.512820,4206.666666,4457.435897,4240.000000,4294.871794,4534.871794,4236.923076,4651.794871,3794.358975,4024.615384
242,4317.435897,4556.923076,4540.000000,4284.615384,4485.641025,4204.102564,4450.769230,4232.820512,4282.564102,4529.743589,4231.282051,4650.256410,3792.307693,4021.538461
243,4311.282051,4542.051282,4537.435897,4288.717948,4482.051282,4203.076923,4453.333333,4233.846153,4283.076923,4530.769230,4221.538461,4648.205128,3803.589744,4014.871794
244,4303.589743,4546.153846,4539.487179,4285.128205,4474.358974,4203.589743,4458.461538,4237.948717,4285.641025,4531.282051,4213.846153,4650.256410,3802.564103,4010.769230
245,4304.615384,4564.615384,4537.948717,4283.076923,4475.384615,4202.051282,4448.717948,4231.282051,4278.461538,4529.743589,4215.384615,4648.205128,3781.538462,4010.769230
246,4308.205128,4565.128205,4532.307692,4284.102564,4476.410256,4200.000000,4443.589743,4223.589743,4276.923076,4527.692307,4217.435897,4646.666666,3771.282052,4011.282051
247,4304.102564,4554.358974,4530.256410,4280.512820,4471.282051,4197.435897,4445.641025,4219.487179,4269.743589,4514.871794,4202.051282,4647.179487,3773.333334,4008.205128
248,4299.487179,4554.871794,4534.871794,4279.487179,4471.794871,4197.435897,4443.076923,4215.897435,4259.487179,4502.564102,4197.435897,4646.666666,3765.128206,4004.102564
249,4306.666666,4556.410256,4540.512820,4287.179487,4473.846153,4200.512820,4447.692307,4220.512820,4269.743589,4510.256410,4217.435897,4653.333333,3753.846154,4010.256410
250,4311.282051,4557.948717,4540.000000,4286.153846,4470.256410,4201.025641,4451.282051,4230.256410,4283.589743,4521.538461,4221.025641,4657.948717,3754.358975,4017.435897
251,4303.076923,4558.461538,4538.461538,4279.487179,4472.307692,4200.512820,4445.128205,4227.692307,4276.923076,4524.615384,4204.102564,4652.820512,3762.051283,4012.307692
252,4296.410256,4544.615384,4536.923076,4280.512820,4472.820512,4201.025641,4443.076923,4215.897435,4264.615384,4518.974358,4204.615384,4646.666666,3752.820513,4003.589743
253,4295.384615,4533.846153,4532.820512,4281.538461,4460.000000,4194.871794,4443.076923,4212.307692,4258.461538,4502.051282,4209.743589,4644.102564,3731.794872,4001.025641
254,4295.384615,4544.102564,4533.846153,4283.589743,4456.410256,4190.769230,4442.564102,4217.948717,4260.000000,4490.256410,4206.153846,4645.641025,3738.461539,4003.589743
255,4296.410256,4555.897435,4539.487179,4293.333333,4471.794871,4199.487179,4447.179487,4225.641025,4271.794871,4508.205128,4209.230769,4650.769230,3755.384616,4006.153846
256,4296.923076,4552.307692,4538.974358,4289.230769,4477.435897,4203.589743,4449.230769,4230.256410,4282.051282,4529.230769,4205.641025,4649.743589,3745.641026,4006.666666
257,4294.358974,4549.230769,4536.410256,4277.435897,4471.794871,4199.487179,4443.589743,4229.230769,4278.461538,4528.205128,4206.153846,4646.666666,3730.769231,4008.717948
258,4297.435897,4556.923076,4538.974358,4290.769230,4475.384615,4202.051282,4446.666666,4230.769230,4278.461538,4528.205128,4226.666666,4654.358974,3737.435898,4013.333333
259,4295.897435,4560.000000,4540.512820,4301.025641,4477.435897,4204.615384,4453.846153,4233.333333,4285.641025,4528.717948,4229.743589,4657.948717,3741.538462,4011.794871
