,AF3,AF4,T7,T8,PZ
0,4314.358974,4277.948717,4278.461538,4307.179487,4267.692307
1,4301.538461,4268.717948,4257.948717,4285.128205,4305.128205
2,4298.461538,4273.333333,4248.717948,4307.692307,4259.487179
3,4300.000000,4267.179487,4255.897435,4325.128205,4267.692307
4,4293.846153,4249.743589,4263.076923,4308.205128,4285.641025
5,4283.589743,4251.794871,4268.205128,4300.512820,4244.615384
6,4272.820512,4256.410256,4268.205128,4291.794871,4283.076923
7,4285.641025,4265.641025,4271.794871,4294.358974,4262.051282
8,4281.538461,4265.641025,4259.487179,4301.538461,4262.051282
9,4265.641025,4257.435897,4266.153846,4311.794871,4280.000000
10,4267.692307,4253.333333,4283.076923,4312.307692,4246.153846
11,4272.307692,4258.974358,4269.230769,4293.846153,4293.846153
12,4283.589743,4283.589743,4272.820512,4307.692307,4270.769230
13,4274.871794,4273.333333,4281.538461,4316.410256,4253.333333
14,4266.153846,4255.384615,4278.461538,4309.230769,4287.692307
15,4274.871794,4268.205128,4275.897435,4310.769230,4251.282051
16,4268.205128,4268.717948,4265.128205,4287.179487,4282.564102
17,4278.461538,4276.410256,4278.461538,4275.897435,4287.179487
18,4284.102564,4287.692307,4275.897435,4297.948717,4275.384615
19,4277.948717,4288.205128,4262.564102,4317.948717,4292.307692
20,4284.102564,4289.230769,4281.538461,4319.487179,4260.512820
21,4271.794871,4279.487179,4280.000000,4300.512820,4296.923076
22,4268.205128,4278.974358,4265.128205,4294.871794,4282.564102
23,4268.717948,4270.256410,4257.948717,4288.717948,4255.897435
24,4265.641025,4269.743589,4263.589743,4297.435897,4299.487179
25,4278.974358,4299.487179,4282.051282,4325.641025,4270.769230
26,4274.358974,4297.435897,4267.179487,4309.230769,4289.743589
27,4277.948717,4284.615384,4263.589743,4290.256410,4286.153846
28,4289.743589,4288.205128,4286.153846,4301.538461,4269.743589
29,4286.153846,4288.205128,4286.153846,4315.897435,4316.923076
30,4286.666666,4292.307692,4273.846153,4332.820512,4271.794871
31,4275.384615,4284.102564,4258.974358,4313.846153,4283.076923
32,4273.333333,4284.615384,4260.000000,4289.230769,4303.076923
33,4277.435897,4289.230769,4256.923076,4298.974358,4263.589743
34,4274.358974,4275.384615,4246.153846,4312.820512,4285.128205
35,4278.461538,4273.846153,4260.512820,4309.230769,4254.358974
36,4263.076923,4269.230769,4256.410256,4275.897435,4263.589743
37,4262.564102,4268.717948,4256.923076,4276.410256,4278.974358
38,4281.025641,4281.025641,4269.230769,4302.564102,4250.769230
39,4277.435897,4279.487179,4256.923076,4285.641025,4291.794871
40,4282.564102,4278.461538,4258.974358,4285.128205,4266.666666
41,4283.076923,4272.307692,4261.538461,4298.461538,4267.179487
42,4284.102564,4277.948717,4264.102564,4304.102564,4290.256410
43,4293.333333,4284.102564,4273.333333,4304.102564,4253.846153
44,4287.692307,4273.333333,4272.307692,4285.641025,4293.846153
45,4290.769230,4282.564102,4273.333333,4297.435897,4269.230769
46,4286.666666,4279.487179,4255.897435,4308.717948,4251.794871
47,4281.538461,4270.256410,4253.333333,4289.743589,4286.153846
48,4286.153846,4280.000000,4265.641025,4285.641025,4251.282051
49,4281.025641,4273.333333,4251.794871,4295.897435,4277.948717
50,4288.205128,4274.358974,4256.923076,4301.025641,4269.230769
51,4282.564102,4275.897435,4259.487179,4286.666666,4254.871794
52,4271.794871,4262.051282,4252.307692,4282.564102,4278.974358
53,4279.487179,4256.923076,4260.512820,4273.846153,4244.102564
54,4266.666666,4254.871794,4244.615384,4243.589743,4273.333333
55,4262.564102,4253.846153,4236.923076,4271.282051,4259.487179
56,4262.564102,4240.512820,4241.538461,4301.538461,4238.461538
57,4250.256410,4224.615384,4234.358974,4268.205128,4275.897435
58,4254.358974,4233.333333,4243.076923,4257.948717,4240.000000
59,4258.974358,4250.769230,4245.641025,4275.897435,4272.307692
60,4270.769230,4281.538461,4244.102564,4290.769230,4282.051282
61,4280.512820,4300.512820,4248.205128,4289.230769,4255.897435
62,4279.487179,4296.410256,4249.743589,4274.358974,4297.435897
63,4286.666666,4302.564102,4257.435897,4272.307692,4263.589743
64,4281.025641,4295.897435,4251.282051,4276.923076,4278.461538
65,4279.487179,4291.794871,4256.923076,4303.076923,4286.666666
66,4285.641025,4293.846153,4264.102564,4314.358974,4247.692307
67,4286.153846,4284.102564,4254.358974,4290.769230,4287.179487
68,4288.717948,4292.820512,4249.743589,4286.153846,4260.000000
69,4276.923076,4287.692307,4232.307692,4281.025641,4257.948717
70,4277.435897,4270.769230,4237.435897,4280.512820,4269.743589
71,4278.461538,4262.051282,4245.641025,4271.794871,4234.871794
72,4264.102564,4248.717948,4228.205128,4247.692307,4262.051282
73,4279.487179,4254.871794,4245.641025,4261.538461,4241.025641
74,4287.692307,4263.076923,4255.384615,4265.128205,4257.948717
75,4286.666666,4270.769230,4246.153846,4266.153846,4281.025641
76,4297.435897,4272.307692,4249.743589,4288.717948,4237.948717
77,4293.846153,4260.000000,4247.692307,4273.846153,4275.384615
78,4301.538461,4273.333333,4256.923076,4267.179487,4258.974358
79,4301.538461,4270.769230,4254.358974,4271.282051,4254.358974
80,4292.307692,4254.871794,4249.230769,4257.435897,4281.538461
81,4298.461538,4267.179487,4261.538461,4273.846153,4236.923076
82,4292.307692,4258.974358,4252.307692,4299.487179,4270.256410
83,4291.282051,4250.769230,4243.589743,4300.000000,4264.615384
84,4292.307692,4261.025641,4245.128205,4281.538461,4247.179487
85,4298.974358,4268.717948,4257.435897,4283.589743,4281.025641
86,4310.769230,4264.102564,4272.307692,4291.282051,4252.820512
87,4298.461538,4253.846153,4260.000000,4272.307692,4278.974358
88,4299.487179,4262.564102,4258.461538,4288.717948,4267.179487
89,4302.051282,4252.820512,4254.358974,4297.948717,4247.692307
90,4297.435897,4243.076923,4247.692307,4270.256410,4285.128205
91,4310.769230,4267.179487,4262.051282,4277.435897,4247.692307
92,4307.692307,4266.666666,4258.461538,4290.256410,4270.256410
93,4304.102564,4257.435897,4261.538461,4295.384615,4269.743589
94,4304.615384,4257.435897,4268.717948,4302.051282,4242.051282
95,4297.435897,4254.358974,4263.076923,4289.743589,4283.589743
96,4302.051282,4263.589743,4266.153846,4283.076923,4243.589743
97,4292.307692,4258.974358,4254.358974,4276.410256,4248.205128
98,4287.692307,4255.384615,4252.820512,4268.205128,4262.051282
99,4289.230769,4264.615384,4257.435897,4270.256410,4232.820512
100,4278.974358,4258.461538,4253.333333,4276.923076,4264.102564
101,4283.076923,4261.025641,4273.846153,4283.076923,4243.076923
102,4284.102564,4272.307692,4269.230769,4273.846153,4261.538461
103,4294.358974,4287.692307,4262.564102,4281.538461,4278.974358
104,4302.051282,4287.692307,4275.897435,4291.794871,4247.179487
105,4286.153846,4269.230769,4264.615384,4286.153846,4285.128205
106,4290.256410,4268.205128,4257.435897,4294.871794,4254.871794
107,4284.102564,4266.666666,4254.358974,4270.256410,4252.307692
108,4269.743589,4270.256410,4256.923076,4253.333333,4271.282051
109,4270.769230,4271.282051,4258.461538,4271.794871,4226.666666
110,4266.153846,4253.846153,4248.205128,4270.769230,4261.025641
111,4271.282051,4264.102564,4260.000000,4288.717948,4244.102564
112,4273.333333,4268.205128,4258.461538,4282.564102,4239.487179
113,4273.846153,4258.461538,4247.179487,4249.743589,4271.282051
114,4274.358974,4266.153846,4246.666666,4266.153846,4224.615384
115,4263.589743,4262.564102,4251.282051,4291.794871,4254.358974
116,4283.589743,4270.256410,4274.358974,4299.487179,4260.000000
117,4294.871794,4283.076923,4263.076923,4285.641025,4247.179487
118,4280.512820,4272.307692,4242.051282,4281.538461,4264.102564
119,4281.538461,4260.512820,4264.102564,4283.076923,4228.205128
120,4279.487179,4258.461538,4271.794871,4258.974358,4267.692307
121,4285.641025,4273.846153,4268.717948,4276.410256,4258.974358
122,4298.974358,4279.487179,4277.435897,4300.512820,4242.051282
123,4304.615384,4280.000000,4282.051282,4276.410256,4292.820512
124,4297.948717,4281.025641,4270.769230,4272.820512,4251.282051
125,4277.435897,4257.435897,4245.641025,4292.820512,4252.820512
126,4287.692307,4260.512820,4256.923076,4289.743589,4258.461538
127,4294.871794,4274.358974,4265.128205,4257.435897,4246.666666
128,4281.025641,4262.051282,4244.615384,4252.307692,4275.897435
129,4289.230769,4259.487179,4249.230769,4279.487179,4233.846153
130,4287.692307,4256.923076,4251.282051,4274.358974,4260.512820
131,4289.230769,4260.000000,4254.871794,4275.897435,4272.820512
132,4298.974358,4268.205128,4266.666666,4290.256410,4238.461538
133,4292.820512,4265.128205,4264.615384,4277.948717,4287.179487
134,4294.358974,4269.743589,4263.076923,4276.410256,4254.871794
135,4293.333333,4260.000000,4257.948717,4274.358974,4254.871794
136,4297.435897,4252.820512,4265.128205,4272.307692,4284.615384
137,4292.307692,4257.435897,4261.025641,4265.641025,4248.717948
138,4274.871794,4248.205128,4237.948717,4243.589743,4264.102564
139,4293.846153,4251.282051,4254.871794,4252.820512,4244.615384
140,4303.076923,4255.384615,4271.282051,4266.666666,4259.487179
141,4293.333333,4256.923076,4262.051282,4276.410256,4271.794871
142,4295.897435,4253.846153,4250.769230,4266.153846,4224.102564
143,4291.282051,4239.487179,4239.487179,4224.102564,4260.512820
144,4293.846153,4242.564102,4253.846153,4244.102564,4241.538461
145,4293.846153,4237.435897,4259.487179,4282.051282,4240.000000
146,4293.333333,4235.384615,4248.205128,4254.871794,4269.743589
147,4292.820512,4251.794871,4245.641025,4234.358974,4222.051282
148,4273.846153,4240.000000,4238.974358,4244.102564,4253.333333
149,4278.461538,4230.256410,4249.743589,4251.794871,4247.692307
150,4285.641025,4237.948717,4249.743589,4246.666666,4232.307692
151,4275.384615,4242.051282,4239.487179,4247.692307,4261.538461
152,4280.512820,4239.487179,4248.717948,4250.769230,4223.076923
153,4287.692307,4229.743589,4254.358974,4243.589743,4257.435897
154,4304.615384,4249.743589,4269.230769,4256.410256,4263.589743
155,4309.230769,4266.666666,4265.641025,4273.846153,4246.666666
156,4297.948717,4257.948717,4249.230769,4276.923076,4275.897435
157,4301.538461,4255.384615,4256.923076,4260.000000,4234.358974
158,4302.051282,4244.615384,4259.487179,4229.230769,4264.615384
159,4313.333333,4253.333333,4274.358974,4256.923076,4280.512820
160,4316.410256,4271.282051,4272.820512,4286.666666,4249.230769
161,4303.589743,4263.589743,4246.153846,4265.641025,4275.384615
162,4313.846153,4263.589743,4252.820512,4270.769230,4249.230769
163,4310.256410,4264.102564,4260.000000,4274.871794,4269.743589
164,4303.076923,4261.538461,4264.615384,4263.589743,4268.717948
165,4309.743589,4256.923076,4271.794871,4264.615384,4234.871794
166,4312.307692,4254.871794,4264.615384,4270.769230,4278.974358
167,4315.384615,4262.564102,4264.102564,4271.794871,4251.794871
168,4305.641025,4251.282051,4257.435897,4243.076923,4253.333333
169,4310.769230,4254.871794,4265.641025,4252.820512,4267.692307
170,4315.897435,4262.564102,4267.179487,4294.358974,4238.461538
171,4298.461538,4244.615384,4247.179487,4278.461538,4278.461538
172,4307.179487,4256.410256,4258.461538,4261.025641,4249.743589
173,4305.128205,4258.974358,4261.025641,4271.282051,4242.564102
174,4294.358974,4234.358974,4248.717948,4282.051282,4256.923076
175,4302.051282,4232.307692,4249.743589,4275.897435,4222.051282
176,4297.435897,4238.974358,4245.128205,4246.666666,4265.128205
177,4300.512820,4244.102564,4255.384615,4236.410256,4243.076923
178,4300.512820,4237.948717,4265.641025,4237.435897,4232.820512
179,4293.333333,4235.384615,4259.487179,4247.179487,4259.487179
180,4297.948717,4242.564102,4250.256410,4268.717948,4213.333333
181,4298.461538,4230.769230,4243.076923,4267.692307,4250.256410
182,4303.076923,4233.846153,4264.102564,4258.461538,4255.897435
183,4305.128205,4246.666666,4271.794871,4254.871794,4245.128205
184,4313.333333,4251.794871,4265.128205,4266.153846,4275.897435
185,4320.000000,4250.769230,4270.769230,4266.666666,4241.025641
186,4297.435897,4234.358974,4256.923076,4236.923076,4261.025641
187,4302.051282,4243.076923,4257.948717,4250.256410,4252.820512
188,4314.358974,4250.769230,4265.641025,4272.307692,4247.179487
189,4299.487179,4245.128205,4262.564102,4255.384615,4285.641025
190,4301.025641,4261.025641,4271.794871,4254.871794,4238.461538
191,4307.692307,4256.410256,4277.948717,4253.846153,4271.794871
192,4312.307692,4254.358974,4290.256410,4258.974358,4289.743589
193,4302.564102,4270.769230,4275.897435,4275.897435,4249.230769
194,4290.769230,4271.794871,4252.307692,4278.974358,4276.923076
195,4302.051282,4267.179487,4271.282051,4283.076923,4250.256410
196,4296.923076,4261.538461,4280.000000,4276.923076,4267.692307
197,4297.435897,4270.256410,4272.820512,4273.846153,4274.871794
198,4302.564102,4274.871794,4272.307692,4270.769230,4241.025641
199,4292.307692,4267.179487,4273.333333,4264.615384,4279.487179
200,4291.282051,4269.743589,4278.461538,4281.538461,4255.384615
201,4288.205128,4263.589743,4264.102564,4277.948717,4261.538461
202,4302.051282,4268.717948,4266.153846,4270.769230,4274.871794
203,4313.846153,4277.948717,4274.871794,4271.794871,4243.589743
204,4294.871794,4269.743589,4260.512820,4269.230769,4277.435897
205,4296.923076,4278.461538,4274.871794,4294.358974,4248.717948
206,4294.871794,4273.333333,4274.871794,4283.076923,4249.743589
207,4276.923076,4254.871794,4251.794871,4248.205128,4260.000000
208,4274.871794,4247.692307,4253.846153,4258.974358,4215.384615
209,4273.333333,4243.589743,4259.487179,4270.256410,4263.076923
210,4282.564102,4265.128205,4267.179487,4279.487179,4250.769230
211,4288.205128,4272.820512,4265.128205,4272.307692,4244.615384
212,4287.692307,4266.153846,4266.666666,4260.000000,4274.358974
213,4292.307692,4278.461538,4273.846153,4281.538461,4231.794871
214,4290.769230,4275.897435,4263.076923,4300.512820,4264.102564
215,4300.512820,4274.871794,4266.153846,4298.974358,4254.871794
216,4291.282051,4273.333333,4263.589743,4278.974358,4232.820512
217,4277.948717,4265.128205,4256.410256,4276.923076,4262.564102
218,4289.743589,4262.051282,4271.794871,4290.256410,4235.384615
219,4286.153846,4250.769230,4266.153846,4257.435897,4265.641025
220,4285.128205,4248.205128,4260.512820,4241.538461,4253.333333
221,4286.666666,4245.641025,4260.000000,4265.641025,4230.256410
222,4287.692307,4247.179487,4262.051282,4280.000000,4272.307692
223,4296.923076,4265.128205,4273.333333,4273.333333,4241.538461
224,4292.820512,4267.179487,4266.666666,4261.025641,4256.923076
225,4306.153846,4262.051282,4274.358974,4283.589743,4255.897435
226,4309.743589,4245.641025,4281.538461,4286.153846,4238.974358
227,4282.564102,4235.897435,4266.153846,4254.871794,4274.358974
228,4280.512820,4256.923076,4267.179487,4267.692307,4228.205128
229,4288.717948,4252.307692,4269.743589,4284.102564,4251.794871
230,4298.461538,4250.256410,4275.384615,4281.025641,4271.794871
231,4298.461538,4269.230769,4275.897435,4278.974358,4236.410256
232,4292.307692,4265.128205,4264.615384,4282.564102,4276.923076
233,4308.205128,4264.102564,4272.307692,4286.666666,4254.358974
234,4302.051282,4268.205128,4272.307692,4257.948717,4258.974358
235,4288.717948,4265.641025,4273.846153,4250.256410,4273.333333
236,4294.871794,4251.794871,4275.384615,4278.974358,4238.974358
237,4294.871794,4242.564102,4267.179487,4275.384615,4275.384615
238,4304.615384,4266.153846,4281.025641,4266.153846,4256.923076
239,4307.692307,4270.256410,4278.461538,4265.128205,4260.000000
240,4307.692307,4256.923076,4271.282051,4268.205128,4275.384615
241,4301.538461,4248.717948,4271.282051,4261.538461,4228.205128
242,4280.512820,4234.358974,4253.333333,4241.538461,4253.333333
243,4288.205128,4241.538461,4264.615384,4252.307692,4232.307692
244,4297.435897,4249.230769,4280.000000,4254.358974,4235.897435
245,4300.512820,4253.846153,4278.461538,4256.923076,4272.307692
246,4307.692307,4264.102564,4270.256410,4288.205128,4227.179487
247,4301.538461,4257.435897,4258.974358,4287.179487,4254.358974
248,4306.153846,4257.435897,4274.358974,4255.384615,4247.692307
249,4300.000000,4253.846153,4285.128205,4229.743589,4237.948717
250,4296.923076,4250.769230,4280.512820,4247.179487,4271.282051
251,4323.589743,4263.076923,4289.743589,4290.256410,4237.948717
252,4318.461538,4253.333333,4287.692307,4284.615384,4272.307692
253,4308.205128,4255.384615,4287.179487,4275.384615,4264.615384
254,4317.435897,4272.307692,4285.128205,4274.871794,4240.000000
255,4322.564102,4268.205128,4283.076923,4261.025641,4282.564102
