,AF3,AF4,T7,T8,PZ
0,4295.897435,4288.717948,4286.666666,4300.000000,4267.692307
1,4302.564102,4296.923076,4284.615384,4270.256410,4267.179487
2,4295.384615,4287.692307,4259.487179,4245.641025,4257.435897
3,4306.153846,4291.794871,4267.179487,4289.230769,4265.128205
4,4307.692307,4287.692307,4282.051282,4305.128205,4264.102564
5,4311.282051,4300.000000,4297.435897,4281.025641,4274.358974
6,4307.179487,4302.564102,4290.769230,4267.692307,4276.923076
7,4292.820512,4272.307692,4267.692307,4270.256410,4261.025641
8,4304.615384,4280.512820,4282.051282,4286.666666,4272.820512
9,4305.128205,4297.435897,4288.717948,4274.871794,4275.384615
10,4312.820512,4309.743589,4295.897435,4286.666666,4280.000000
11,4323.589743,4317.948717,4298.974358,4317.435897,4290.256410
12,4305.641025,4300.000000,4276.923076,4302.564102,4278.461538
13,4302.564102,4290.769230,4290.769230,4286.153846,4282.051282
14,4294.871794,4280.000000,4298.461538,4279.487179,4276.410256
15,4291.794871,4285.641025,4285.641025,4281.538461,4266.666666
16,4302.564102,4297.435897,4282.051282,4277.948717,4266.666666
17,4291.282051,4276.923076,4283.076923,4260.512820,4258.461538
18,4290.256410,4271.282051,4293.333333,4271.794871,4266.666666
19,4285.128205,4267.692307,4276.923076,4267.179487,4265.128205
20,4287.692307,4275.897435,4270.256410,4257.948717,4272.307692
21,4303.076923,4297.435897,4289.230769,4285.128205,4289.743589
22,4299.487179,4284.102564,4296.410256,4291.794871,4280.000000
23,4313.846153,4286.666666,4311.282051,4292.820512,4286.666666
24,4309.743589,4290.256410,4289.230769,4283.589743,4280.000000
25,4287.179487,4283.076923,4262.051282,4272.307692,4259.487179
26,4291.282051,4292.307692,4291.794871,4284.615384,4270.256410
27,4302.564102,4285.128205,4311.282051,4274.358974,4278.461538
28,4318.974358,4287.692307,4304.102564,4278.974358,4280.000000
29,4305.641025,4283.076923,4276.923076,4284.615384,4265.641025
30,4292.820512,4278.461538,4267.179487,4272.820512,4260.000000
31,4318.461538,4298.461538,4294.871794,4284.615384,4283.589743
32,4312.307692,4292.307692,4291.794871,4292.307692,4279.487179
33,4298.974358,4289.743589,4286.666666,4306.666666,4274.871794
34,4301.025641,4290.256410,4285.641025,4296.410256,4269.743589
35,4297.435897,4274.358974,4270.256410,4265.641025,4251.794871
36,4297.435897,4274.871794,4273.333333,4277.948717,4255.384615
37,4289.743589,4267.692307,4270.256410,4282.051282,4250.769230
38,4309.230769,4278.974358,4289.230769,4278.461538,4254.358974
39,4323.076923,4294.871794,4305.128205,4279.487179,4260.000000
40,4300.000000,4281.538461,4285.128205,4269.743589,4252.820512
41,4302.051282,4278.974358,4293.846153,4270.769230,4267.179487
42,4300.000000,4268.717948,4301.025641,4262.051282,4268.717948
43,4294.871794,4268.205128,4300.000000,4275.384615,4269.230769
44,4300.000000,4282.051282,4309.230769,4287.692307,4277.435897
45,4303.589743,4281.538461,4311.282051,4266.666666,4272.820512
46,4318.974358,4291.794871,4321.025641,4278.461538,4283.589743
47,4303.076923,4285.128205,4308.717948,4293.846153,4281.025641
48,4293.846153,4276.923076,4302.051282,4285.128205,4279.487179
49,4309.743589,4280.512820,4306.666666,4270.256410,4283.076923
50,4307.692307,4278.461538,4297.948717,4255.384615,4271.282051
51,4318.461538,4297.435897,4321.538461,4280.000000,4284.102564
52,4320.000000,4294.871794,4315.384615,4290.769230,4282.051282
53,4312.307692,4285.128205,4284.102564,4278.461538,4266.153846
54,4312.820512,4295.897435,4289.230769,4282.051282,4272.820512
55,4305.128205,4289.743589,4294.871794,4269.743589,4275.384615
56,4312.820512,4289.230769,4303.589743,4273.846153,4287.179487
57,4306.666666,4278.461538,4296.410256,4287.179487,4283.076923
58,4305.128205,4272.307692,4292.307692,4288.205128,4279.487179
59,4326.153846,4297.948717,4303.076923,4299.487179,4290.769230
60,4313.846153,4291.794871,4284.102564,4283.076923,4272.307692
61,4305.641025,4282.051282,4290.256410,4283.589743,4272.307692
62,4307.179487,4278.974358,4299.487179,4291.282051,4282.051282
63,4312.820512,4280.512820,4290.256410,4271.794871,4274.358974
64,4335.897435,4301.538461,4302.564102,4277.435897,4278.974358
65,4332.820512,4297.435897,4296.410256,4288.717948,4275.384615
66,4328.717948,4300.512820,4292.820512,4289.230769,4280.512820
67,4330.769230,4301.538461,4302.051282,4285.128205,4285.128205
68,4331.282051,4289.230769,4301.538461,4287.692307,4281.025641
69,4346.666666,4300.000000,4300.000000,4297.435897,4288.205128
70,4335.384615,4298.974358,4286.666666,4275.384615,4276.923076
71,4327.692307,4306.666666,4294.358974,4276.923076,4275.897435
72,4330.769230,4312.820512,4302.051282,4297.948717,4283.589743
73,4325.641025,4297.948717,4297.948717,4305.128205,4281.025641
74,4336.410256,4310.769230,4307.179487,4311.282051,4286.666666
75,4327.692307,4306.666666,4286.153846,4277.435897,4267.692307
76,4320.000000,4288.205128,4285.128205,4261.025641,4263.589743
77,4315.897435,4282.051282,4302.051282,4274.871794,4271.794871
78,4299.487179,4278.461538,4291.282051,4272.820512,4263.589743
79,4314.871794,4295.384615,4300.512820,4282.564102,4282.564102
80,4317.948717,4286.153846,4292.307692,4270.256410,4282.564102
81,4308.205128,4277.948717,4285.128205,4272.307692,4270.256410
82,4316.410256,4289.743589,4300.000000,4294.358974,4280.512820
83,4313.846153,4276.410256,4290.769230,4273.333333,4277.948717
84,4312.820512,4282.051282,4292.820512,4274.358974,4279.487179
85,4304.615384,4289.230769,4295.897435,4285.128205,4279.487179
86,4311.794871,4286.153846,4302.564102,4280.512820,4280.512820
87,4327.179487,4291.282051,4316.923076,4269.230769,4285.128205
88,4318.974358,4289.743589,4306.153846,4246.666666,4279.487179
89,4331.794871,4303.589743,4305.641025,4276.410256,4291.282051
90,4333.333333,4303.076923,4301.538461,4306.666666,4287.692307
91,4324.615384,4293.333333,4302.564102,4301.538461,4284.615384
92,4332.307692,4301.025641,4318.461538,4307.179487,4301.025641
93,4322.564102,4299.487179,4304.615384,4297.948717,4290.769230
94,4328.717948,4308.205128,4301.025641,4293.333333,4287.692307
95,4328.717948,4296.410256,4294.358974,4286.666666,4286.153846
96,4318.974358,4284.615384,4289.230769,4271.794871,4281.025641
97,4331.794871,4308.205128,4315.384615,4278.461538,4294.871794
98,4325.641025,4296.923076,4307.179487,4280.512820,4283.076923
99,4324.102564,4283.589743,4292.307692,4286.666666,4274.871794
100,4329.230769,4286.153846,4284.102564,4274.358974,4271.794871
101,4320.000000,4276.923076,4277.948717,4254.871794,4263.589743
102,4320.000000,4276.923076,4296.923076,4271.282051,4275.384615
103,4313.333333,4273.333333,4298.974358,4262.564102,4276.410256
104,4312.820512,4283.589743,4295.897435,4262.051282,4281.538461
105,4306.666666,4282.564102,4283.589743,4290.769230,4279.487179
106,4297.435897,4268.717948,4275.897435,4289.230769,4268.717948
107,4314.358974,4281.025641,4297.435897,4273.333333,4283.589743
108,4307.179487,4269.230769,4293.846153,4257.948717,4277.435897
109,4312.820512,4275.384615,4302.051282,4267.692307,4279.487179
110,4337.948717,4305.128205,4315.384615,4286.666666,4295.897435
111,4334.358974,4295.384615,4294.358974,4288.205128,4281.025641
112,4333.333333,4290.256410,4292.820512,4283.076923,4272.307692
113,4317.948717,4287.692307,4287.179487,4251.282051,4265.128205
114,4316.410256,4295.384615,4293.846153,4263.589743,4274.871794
115,4338.461538,4313.846153,4312.307692,4311.282051,4293.846153
116,4338.461538,4306.666666,4289.230769,4292.820512,4283.589743
117,4338.461538,4309.230769,4276.923076,4286.153846,4283.589743
118,4326.153846,4301.025641,4286.153846,4299.487179,4284.615384
119,4327.692307,4301.538461,4310.256410,4296.923076,4295.897435
120,4344.615384,4322.051282,4322.051282,4304.102564,4312.820512
121,4330.256410,4311.794871,4285.128205,4306.666666,4293.846153
122,4331.282051,4311.282051,4273.333333,4312.820512,4284.615384
123,4337.435897,4311.794871,4291.282051,4293.846153,4282.051282
124,4332.307692,4311.282051,4306.153846,4290.256410,4284.102564
125,4329.230769,4314.358974,4308.205128,4304.615384,4295.897435
126,4316.923076,4295.897435,4288.717948,4265.128205,4284.102564
127,4315.897435,4296.410256,4295.384615,4260.512820,4281.538461
128,4295.384615,4285.641025,4297.948717,4289.230769,4275.897435
129,4285.128205,4268.717948,4291.794871,4294.871794,4273.846153
130,4312.820512,4286.153846,4295.384615,4296.410256,4287.179487
131,4308.717948,4292.820512,4277.948717,4284.102564,4274.358974
132,4312.307692,4301.025641,4295.897435,4296.410256,4289.230769
133,4325.641025,4304.615384,4315.897435,4302.564102,4305.641025
134,4310.256410,4289.230769,4298.974358,4286.666666,4287.692307
135,4306.666666,4294.358974,4296.410256,4303.589743,4284.102564
136,4302.564102,4291.794871,4286.153846,4300.000000,4272.820512
137,4299.487179,4288.717948,4286.153846,4264.102564,4264.102564
138,4295.897435,4285.641025,4287.692307,4257.435897,4265.641025
139,4291.282051,4276.923076,4284.615384,4288.205128,4269.230769
140,4297.948717,4284.102564,4296.410256,4295.897435,4283.076923
141,4285.128205,4277.948717,4283.076923,4262.051282,4275.897435
142,4292.820512,4286.666666,4285.128205,4283.589743,4278.974358
143,4301.025641,4290.256410,4293.846153,4308.205128,4283.589743
144,4280.512820,4264.615384,4280.000000,4274.358974,4271.794871
145,4285.641025,4272.307692,4292.307692,4278.974358,4282.051282
146,4284.615384,4274.871794,4290.769230,4285.128205,4275.897435
147,4288.205128,4272.307692,4286.666666,4261.025641,4268.205128
148,4305.128205,4286.666666,4296.923076,4256.923076,4274.871794
149,4293.846153,4275.384615,4286.666666,4263.589743,4264.102564
150,4290.256410,4267.179487,4294.871794,4291.282051,4275.384615
151,4287.179487,4264.615384,4294.871794,4277.435897,4278.974358
152,4283.076923,4273.846153,4284.102564,4244.615384,4272.307692
153,4289.230769,4288.205128,4293.846153,4267.692307,4281.538461
154,4287.179487,4271.794871,4296.410256,4284.102564,4280.512820
155,4293.333333,4275.897435,4307.692307,4292.307692,4283.076923
156,4285.128205,4277.435897,4300.000000,4290.769230,4275.384615
157,4287.179487,4267.692307,4291.794871,4264.615384,4273.333333
158,4310.256410,4284.615384,4307.692307,4248.717948,4285.128205
159,4305.128205,4290.256410,4298.461538,4253.846153,4267.692307
160,4312.820512,4295.897435,4303.076923,4284.102564,4268.205128
161,4314.358974,4290.256410,4304.102564,4286.153846,4275.897435
162,4301.025641,4282.564102,4291.794871,4274.358974,4275.384615
163,4311.794871,4302.051282,4298.974358,4289.230769,4288.717948
164,4303.076923,4298.461538,4289.743589,4290.256410,4284.615384
165,4300.000000,4295.897435,4295.384615,4298.461538,4286.153846
166,4306.666666,4302.564102,4301.025641,4288.717948,4282.564102
167,4304.615384,4306.666666,4285.641025,4274.871794,4268.205128
168,4307.692307,4310.769230,4284.615384,4300.000000,4270.769230
169,4298.974358,4291.282051,4291.282051,4293.846153,4268.717948
170,4309.230769,4297.948717,4307.179487,4285.128205,4278.974358
171,4313.846153,4312.820512,4294.871794,4288.717948,4274.871794
172,4305.128205,4304.615384,4274.871794,4288.717948,4256.410256
173,4316.410256,4310.256410,4294.871794,4314.358974,4269.230769
174,4305.128205,4304.615384,4301.025641,4312.820512,4274.358974
175,4304.102564,4312.307692,4302.051282,4311.282051,4281.025641
176,4310.256410,4315.384615,4297.948717,4306.666666,4278.974358
177,4286.153846,4285.128205,4274.358974,4258.461538,4251.794871
178,4286.153846,4285.128205,4281.538461,4254.871794,4255.384615
179,4294.358974,4294.871794,4289.743589,4283.076923,4265.128205
180,4304.102564,4306.666666,4303.076923,4290.769230,4275.384615
181,4313.333333,4312.820512,4306.153846,4275.897435,4285.128205
182,4305.128205,4297.435897,4280.000000,4266.666666,4275.384615
183,4315.384615,4312.307692,4290.769230,4305.641025,4282.564102
184,4311.794871,4311.794871,4294.358974,4307.179487,4272.307692
185,4301.538461,4293.846153,4295.384615,4281.025641,4268.717948
186,4309.743589,4297.948717,4312.307692,4278.461538,4289.743589
187,4309.230769,4290.769230,4291.794871,4256.923076,4277.948717
188,4315.897435,4293.333333,4285.641025,4259.487179,4272.307692
189,4310.769230,4294.358974,4291.282051,4282.564102,4272.820512
190,4312.820512,4301.025641,4301.025641,4299.487179,4275.384615
191,4332.307692,4313.846153,4321.025641,4305.128205,4286.666666
192,4318.461538,4292.307692,4301.025641,4263.589743,4280.000000
193,4312.307692,4295.897435,4283.076923,4255.384615,4283.076923
194,4316.923076,4315.384615,4286.666666,4296.410256,4284.615384
195,4323.076923,4315.384615,4301.025641,4314.358974,4280.512820
196,4330.769230,4310.769230,4312.820512,4306.666666,4288.205128
197,4311.794871,4293.846153,4290.769230,4292.820512,4282.051282
198,4310.256410,4294.358974,4289.743589,4289.230769,4287.179487
199,4308.717948,4291.282051,4298.461538,4260.512820,4284.102564
200,4300.000000,4285.641025,4294.358974,4266.666666,4271.794871
201,4318.974358,4301.025641,4302.051282,4317.435897,4283.589743
202,4314.358974,4283.076923,4291.282051,4283.589743,4275.384615
203,4311.794871,4280.000000,4288.205128,4256.923076,4269.743589
204,4320.512820,4299.487179,4297.435897,4297.948717,4276.410256
205,4317.435897,4287.179487,4298.461538,4301.538461,4273.333333
206,4322.051282,4276.923076,4303.076923,4265.641025,4274.871794
207,4306.153846,4261.025641,4284.102564,4235.897435,4256.410256
208,4303.589743,4267.692307,4285.128205,4263.076923,4259.487179
209,4312.820512,4286.153846,4296.923076,4303.076923,4279.487179
210,4301.538461,4274.358974,4282.051282,4280.000000,4269.230769
211,4309.230769,4277.435897,4284.615384,4263.589743,4266.153846
212,4313.333333,4272.307692,4278.974358,4283.589743,4262.051282
213,4321.025641,4267.179487,4280.512820,4308.205128,4268.717948
214,4325.641025,4272.820512,4283.589743,4285.641025,4273.333333
215,4310.256410,4266.153846,4268.205128,4244.615384,4257.435897
216,4320.512820,4275.384615,4286.153846,4277.948717,4272.820512
217,4320.512820,4274.358974,4288.717948,4301.025641,4277.435897
218,4317.948717,4276.410256,4284.102564,4290.769230,4269.743589
219,4333.846153,4289.743589,4302.564102,4292.820512,4279.487179
220,4324.102564,4275.384615,4296.410256,4280.512820,4274.358974
221,4313.333333,4268.205128,4292.820512,4271.282051,4276.923076
222,4305.128205,4264.102564,4281.025641,4253.333333,4271.794871
223,4310.256410,4271.282051,4273.846153,4270.769230,4267.179487
224,4330.769230,4295.897435,4290.769230,4327.692307,4283.076923
225,4325.641025,4286.153846,4292.820512,4321.025641,4284.102564
226,4322.564102,4282.564102,4297.435897,4288.717948,4283.589743
227,4320.512820,4281.025641,4293.333333,4267.692307,4276.923076
228,4318.461538,4270.769230,4290.769230,4273.846153,4277.948717
229,4321.025641,4272.820512,4296.410256,4309.230769,4284.102564
230,4304.102564,4264.102564,4283.589743,4292.820512,4262.564102
231,4316.923076,4280.512820,4302.051282,4268.717948,4267.692307
232,4329.230769,4286.666666,4303.076923,4269.230769,4278.974358
233,4315.384615,4274.358974,4272.307692,4275.384615,4274.358974
234,4323.076923,4291.282051,4283.076923,4303.076923,4287.692307
235,4320.000000,4284.102564,4283.589743,4300.512820,4275.384615
236,4310.769230,4266.153846,4282.051282,4282.564102,4263.589743
237,4296.410256,4250.769230,4289.230769,4258.974358,4264.615384
238,4288.205128,4234.358974,4279.487179,4243.076923,4256.410256
239,4309.743589,4247.179487,4282.564102,4255.897435,4262.051282
240,4304.615384,4247.179487,4274.358974,4244.102564,4255.897435
241,4302.051282,4248.205128,4277.948717,4256.410256,4258.974358
242,4315.897435,4257.435897,4297.435897,4298.461538,4267.692307
243,4315.384615,4261.025641,4292.307692,4291.794871,4261.025641
244,4329.230769,4284.615384,4288.717948,4272.820512,4271.794871
245,4324.615384,4281.538461,4274.358974,4264.615384,4271.794871
246,4313.846153,4269.743589,4281.538461,4286.666666,4282.051282
247,4312.307692,4272.307692,4299.487179,4310.256410,4299.487179
248,4301.538461,4258.461538,4284.102564,4281.538461,4280.000000
249,4305.128205,4259.487179,4280.512820,4266.666666,4270.256410
250,4297.435897,4251.282051,4269.230769,4273.333333,4263.076923
251,4299.487179,4251.794871,4270.256410,4272.820512,4266.153846
