,AF3,AF4,T7,T8,PZ
0,4284.102564,4307.692307,4296.923076,4286.153846,4276.410256
1,4298.461538,4317.948717,4303.076923,4304.615384,4281.025641
2,4299.487179,4311.282051,4301.025641,4302.051282,4278.974358
3,4280.000000,4295.897435,4288.717948,4269.230769,4270.256410
4,4284.615384,4309.230769,4303.589743,4272.307692,4281.025641
5,4291.282051,4311.282051,4302.564102,4294.358974,4282.051282
6,4285.128205,4300.512820,4291.282051,4297.948717,4273.846153
7,4287.179487,4302.051282,4301.538461,4297.948717,4277.948717
8,4285.641025,4294.358974,4299.487179,4283.076923,4277.948717
9,4287.692307,4301.538461,4296.410256,4268.205128,4281.538461
10,4293.333333,4317.435897,4307.179487,4278.461538,4292.820512
11,4302.564102,4322.564102,4320.512820,4309.230769,4303.589743
12,4307.179487,4320.512820,4315.384615,4312.820512,4298.974358
13,4291.794871,4302.051282,4291.282051,4272.820512,4280.000000
14,4292.307692,4302.051282,4296.923076,4276.410256,4282.564102
15,4294.871794,4311.794871,4305.641025,4304.102564,4291.282051
16,4281.538461,4306.666666,4292.307692,4299.487179,4282.051282
17,4280.000000,4299.487179,4288.205128,4290.256410,4277.948717
18,4278.461538,4288.717948,4282.564102,4274.358974,4272.307692
19,4277.435897,4286.666666,4275.384615,4268.205128,4264.102564
20,4280.000000,4294.871794,4282.564102,4284.102564,4267.179487
21,4281.538461,4295.897435,4293.333333,4296.410256,4276.923076
22,4283.076923,4291.282051,4287.692307,4291.794871,4277.435897
23,4273.846153,4285.128205,4272.820512,4270.769230,4266.666666
24,4280.512820,4291.282051,4289.230769,4266.666666,4274.871794
25,4290.256410,4290.256410,4296.923076,4283.589743,4283.076923
26,4275.384615,4278.461538,4275.897435,4287.692307,4272.307692
27,4273.333333,4283.589743,4285.641025,4281.025641,4273.333333
28,4281.538461,4286.153846,4297.435897,4281.538461,4277.948717
29,4290.256410,4288.717948,4289.743589,4298.974358,4277.435897
30,4297.948717,4297.435897,4291.794871,4308.717948,4282.564102
31,4296.923076,4300.512820,4299.487179,4296.410256,4288.205128
32,4296.410256,4304.615384,4301.538461,4287.179487,4285.128205
33,4283.589743,4288.717948,4283.076923,4276.410256,4268.717948
34,4282.051282,4278.974358,4288.205128,4285.641025,4269.743589
35,4291.794871,4290.256410,4304.102564,4306.666666,4283.589743
36,4283.076923,4287.692307,4291.794871,4295.897435,4279.487179
37,4283.589743,4292.307692,4291.794871,4283.076923,4283.589743
38,4287.179487,4292.820512,4288.717948,4274.358974,4288.717948
39,4278.974358,4277.435897,4277.435897,4277.435897,4282.051282
40,4268.717948,4269.743589,4281.538461,4280.000000,4275.897435
41,4266.666666,4272.820512,4290.769230,4254.871794,4275.384615
42,4286.666666,4290.256410,4290.256410,4264.615384,4282.051282
43,4290.769230,4293.333333,4280.512820,4288.717948,4280.512820
44,4283.076923,4288.205128,4287.179487,4285.128205,4281.025641
45,4292.820512,4295.384615,4298.461538,4283.589743,4289.743589
46,4294.358974,4292.820512,4288.717948,4286.666666,4283.589743
47,4292.307692,4293.846153,4286.666666,4291.282051,4276.923076
48,4289.743589,4289.230769,4286.666666,4285.128205,4275.897435
49,4284.615384,4277.435897,4278.974358,4283.076923,4274.871794
50,4285.128205,4281.025641,4280.000000,4290.769230,4273.846153
51,4284.102564,4283.589743,4280.000000,4285.641025,4274.871794
52,4295.384615,4290.769230,4286.153846,4283.589743,4284.102564
53,4296.923076,4291.282051,4287.692307,4282.564102,4284.615384
54,4282.051282,4282.051282,4279.487179,4282.051282,4273.333333
55,4285.641025,4285.641025,4281.025641,4282.564102,4277.435897
56,4288.717948,4285.128205,4273.333333,4268.717948,4279.487179
57,4288.717948,4283.589743,4275.897435,4277.435897,4281.538461
58,4291.282051,4278.461538,4285.641025,4293.846153,4284.615384
59,4287.179487,4266.666666,4273.846153,4271.794871,4280.000000
60,4286.666666,4272.820512,4278.974358,4257.948717,4283.076923
61,4282.564102,4274.871794,4289.743589,4260.512820,4283.589743
62,4286.153846,4270.769230,4284.615384,4276.410256,4277.948717
63,4289.743589,4270.256410,4273.333333,4296.923076,4273.333333
64,4280.512820,4268.205128,4268.205128,4275.897435,4270.256410
65,4284.615384,4275.897435,4281.538461,4254.358974,4280.000000
66,4277.435897,4267.179487,4276.923076,4257.948717,4278.974358
67,4268.717948,4255.897435,4269.743589,4274.871794,4272.820512
68,4284.102564,4266.666666,4282.564102,4290.769230,4282.051282
69,4290.769230,4271.794871,4283.589743,4283.076923,4286.666666
70,4290.256410,4272.307692,4286.153846,4276.410256,4288.205128
71,4294.871794,4277.948717,4286.153846,4280.000000,4288.717948
72,4300.000000,4285.641025,4280.000000,4294.871794,4290.769230
73,4295.897435,4278.461538,4273.846153,4296.410256,4288.205128
74,4285.128205,4265.641025,4270.256410,4269.230769,4280.000000
75,4291.282051,4277.435897,4286.153846,4266.666666,4285.641025
76,4293.333333,4280.000000,4291.282051,4291.282051,4288.205128
77,4288.205128,4268.205128,4281.025641,4294.358974,4281.025641
78,4293.333333,4263.589743,4273.846153,4275.384615,4275.897435
79,4285.128205,4257.435897,4267.179487,4270.769230,4269.230769
80,4286.153846,4267.179487,4274.871794,4284.615384,4271.282051
81,4296.923076,4277.948717,4280.000000,4274.871794,4274.871794
82,4293.333333,4271.794871,4275.384615,4256.923076,4271.282051
83,4290.256410,4268.205128,4282.051282,4273.333333,4272.820512
84,4289.230769,4263.076923,4287.179487,4286.153846,4274.871794
85,4297.948717,4271.282051,4290.256410,4286.153846,4280.000000
86,4297.435897,4281.538461,4287.692307,4274.871794,4279.487179
87,4288.717948,4274.871794,4278.974358,4253.333333,4271.794871
88,4292.820512,4268.717948,4286.153846,4261.538461,4270.769230
89,4289.743589,4264.615384,4296.923076,4283.589743,4270.769230
90,4296.410256,4279.487179,4308.717948,4304.102564,4282.051282
91,4306.666666,4297.435897,4308.717948,4302.564102,4288.205128
92,4299.487179,4289.230769,4294.358974,4274.871794,4276.923076
93,4294.871794,4284.102564,4301.025641,4272.820512,4277.948717
94,4284.615384,4273.846153,4304.102564,4284.102564,4279.487179
95,4283.076923,4270.256410,4303.076923,4287.692307,4278.461538
96,4294.871794,4284.615384,4306.666666,4287.692307,4282.051282
97,4295.384615,4286.666666,4302.051282,4285.641025,4281.538461
98,4299.487179,4287.179487,4311.282051,4290.769230,4287.179487
99,4301.025641,4285.128205,4309.743589,4293.846153,4290.256410
100,4296.923076,4282.051282,4302.564102,4298.974358,4288.205128
101,4294.358974,4285.641025,4306.666666,4297.435897,4286.153846
102,4288.717948,4285.641025,4297.948717,4276.923076,4277.948717
103,4293.846153,4289.743589,4307.179487,4273.846153,4283.589743
104,4294.358974,4284.615384,4315.897435,4283.589743,4288.205128
105,4298.974358,4285.128205,4306.153846,4295.384615,4286.153846
106,4315.897435,4306.153846,4306.153846,4305.641025,4291.794871
107,4312.307692,4310.769230,4304.615384,4287.692307,4291.282051
108,4304.615384,4304.615384,4305.641025,4276.923076,4287.692307
109,4300.512820,4296.410256,4304.102564,4288.205128,4285.641025
110,4298.974358,4296.410256,4307.179487,4303.076923,4290.769230
111,4305.128205,4307.179487,4307.692307,4313.333333,4293.333333
112,4302.051282,4305.641025,4281.538461,4303.589743,4281.538461
113,4304.102564,4310.769230,4275.897435,4297.948717,4287.179487
114,4307.179487,4309.743589,4282.051282,4288.717948,4297.435897
115,4308.205128,4295.384615,4273.333333,4282.564102,4292.307692
116,4312.307692,4300.000000,4269.743589,4303.076923,4284.615384
117,4300.512820,4305.128205,4271.794871,4310.256410,4280.512820
118,4297.948717,4305.641025,4281.538461,4306.153846,4288.205128
119,4306.153846,4308.205128,4282.564102,4292.820512,4292.307692
120,4306.666666,4308.717948,4273.333333,4279.487179,4287.179487
121,4312.820512,4313.846153,4275.897435,4306.153846,4292.307692
122,4307.179487,4306.153846,4274.358974,4327.179487,4290.256410
123,4295.897435,4296.410256,4264.615384,4318.974358,4278.974358
124,4295.384615,4297.435897,4263.589743,4306.666666,4274.871794
125,4301.538461,4303.589743,4274.358974,4295.384615,4284.102564
126,4306.666666,4305.641025,4277.435897,4298.974358,4287.692307
127,4289.743589,4285.128205,4254.358974,4302.564102,4266.666666
128,4286.153846,4281.025641,4252.820512,4296.923076,4259.487179
129,4295.384615,4290.769230,4265.128205,4289.743589,4271.282051
130,4289.230769,4289.743589,4264.615384,4283.589743,4274.871794
131,4296.410256,4297.948717,4276.410256,4302.051282,4280.512820
132,4301.538461,4292.307692,4270.769230,4313.333333,4281.025641
133,4295.384615,4285.641025,4261.025641,4308.717948,4275.897435
134,4297.948717,4296.923076,4274.358974,4303.589743,4279.487179
135,4293.333333,4290.769230,4268.205128,4282.564102,4277.948717
136,4300.512820,4290.769230,4270.769230,4291.794871,4285.128205
137,4314.358974,4300.512820,4285.641025,4316.923076,4299.487179
138,4311.282051,4292.820512,4276.410256,4307.179487,4295.897435
139,4303.589743,4282.564102,4265.641025,4296.410256,4286.153846
140,4297.948717,4283.076923,4273.333333,4290.769230,4289.743589
141,4306.666666,4303.589743,4288.717948,4283.076923,4304.615384
142,4311.282051,4308.205128,4280.512820,4286.666666,4298.974358
143,4303.589743,4285.641025,4268.205128,4305.641025,4284.615384
144,4302.051282,4283.076923,4275.384615,4295.384615,4287.179487
145,4300.000000,4288.717948,4271.282051,4257.948717,4283.589743
146,4298.461538,4282.564102,4262.564102,4276.923076,4273.333333
147,4289.743589,4275.384615,4261.538461,4299.487179,4269.743589
148,4287.179487,4279.487179,4266.666666,4275.384615,4273.333333
149,4305.641025,4286.153846,4272.307692,4281.025641,4278.461538
150,4314.358974,4283.076923,4262.051282,4307.179487,4278.461538
151,4314.871794,4293.846153,4262.564102,4296.410256,4281.025641
152,4306.666666,4297.948717,4267.179487,4272.307692,4278.461538
153,4304.102564,4286.666666,4264.615384,4281.538461,4277.948717
154,4315.384615,4286.666666,4270.769230,4293.846153,4287.179487
155,4304.102564,4281.538461,4264.102564,4287.692307,4280.000000
156,4295.384615,4284.615384,4262.564102,4295.384615,4276.410256
157,4302.051282,4287.692307,4268.205128,4280.512820,4281.025641
158,4301.025641,4276.410256,4264.615384,4261.025641,4281.025641
159,4305.128205,4276.410256,4268.717948,4301.025641,4284.615384
160,4306.153846,4277.435897,4268.717948,4318.461538,4283.076923
161,4306.666666,4283.589743,4273.846153,4282.564102,4284.615384
162,4307.179487,4285.128205,4273.333333,4263.589743,4289.230769
163,4298.974358,4271.794871,4256.923076,4272.820512,4280.512820
164,4308.717948,4281.025641,4267.179487,4293.333333,4284.615384
165,4313.846153,4286.153846,4273.846153,4288.717948,4290.769230
166,4303.589743,4279.487179,4264.102564,4279.487179,4282.564102
167,4302.564102,4285.128205,4271.282051,4286.153846,4281.025641
168,4294.358974,4273.333333,4266.153846,4259.487179,4279.487179
169,4284.102564,4252.820512,4251.282051,4241.025641,4271.794871
170,4281.025641,4252.307692,4246.153846,4268.717948,4266.666666
171,4287.692307,4267.179487,4254.871794,4289.743589,4275.897435
172,4297.435897,4278.974358,4272.820512,4282.051282,4289.230769
173,4298.461538,4276.410256,4273.333333,4271.794871,4285.128205
174,4308.205128,4284.102564,4265.641025,4284.102564,4282.051282
175,4310.769230,4291.794871,4265.128205,4286.666666,4282.564102
176,4304.102564,4288.717948,4275.384615,4272.307692,4285.641025
177,4302.051282,4286.153846,4272.820512,4276.410256,4285.128205
178,4289.230769,4270.256410,4252.820512,4287.179487,4269.230769
179,4299.487179,4275.384615,4272.820512,4289.743589,4271.282051
180,4320.512820,4291.794871,4288.205128,4269.230769,4283.589743
181,4309.230769,4283.076923,4265.128205,4255.897435,4278.461538
182,4295.384615,4280.000000,4263.076923,4287.692307,4276.923076
183,4292.820512,4281.025641,4269.230769,4295.384615,4275.897435
184,4298.461538,4281.538461,4270.256410,4275.384615,4274.358974
185,4298.461538,4280.000000,4276.923076,4273.333333,4274.871794
186,4288.717948,4270.256410,4275.384615,4282.564102,4275.384615
187,4289.230769,4265.128205,4270.256410,4282.564102,4275.897435
188,4285.641025,4259.487179,4264.615384,4258.974358,4268.205128
189,4287.692307,4265.641025,4272.820512,4265.641025,4266.666666
190,4291.282051,4269.743589,4283.589743,4294.871794,4273.333333
191,4278.974358,4255.384615,4284.102564,4282.564102,4273.846153
192,4285.128205,4258.974358,4289.743589,4261.538461,4278.974358
193,4296.410256,4271.794871,4285.641025,4267.179487,4275.384615
194,4293.846153,4272.307692,4288.717948,4293.333333,4272.307692
195,4288.717948,4264.102564,4297.435897,4298.974358,4275.897435
196,4285.641025,4256.923076,4289.230769,4276.923076,4278.461538
197,4292.820512,4264.102564,4290.256410,4269.743589,4280.000000
198,4288.205128,4260.512820,4281.538461,4268.205128,4269.230769
199,4286.153846,4261.025641,4272.820512,4281.538461,4262.564102
200,4294.871794,4274.871794,4289.743589,4300.000000,4275.384615
201,4287.179487,4273.333333,4294.871794,4276.923076,4277.948717
202,4280.000000,4270.769230,4284.615384,4260.512820,4272.820512
203,4276.410256,4268.205128,4277.948717,4271.794871,4271.282051
204,4280.000000,4269.230769,4287.179487,4292.307692,4274.871794
205,4289.743589,4277.948717,4299.487179,4307.692307,4278.974358
206,4289.230769,4279.487179,4297.435897,4286.153846,4276.923076
207,4295.897435,4287.179487,4298.461538,4268.717948,4282.564102
208,4292.820512,4281.025641,4285.128205,4278.974358,4277.435897
209,4284.615384,4270.256410,4282.564102,4294.871794,4272.307692
210,4296.410256,4286.153846,4303.076923,4303.076923,4285.128205
211,4292.307692,4283.076923,4293.846153,4291.282051,4283.589743
212,4284.102564,4275.897435,4284.102564,4285.641025,4275.897435
213,4288.717948,4283.076923,4290.256410,4275.897435,4278.461538
214,4291.282051,4279.487179,4291.794871,4262.564102,4283.076923
215,4293.333333,4282.564102,4298.461538,4284.615384,4289.743589
216,4289.743589,4291.282051,4289.230769,4302.564102,4287.179487
217,4295.897435,4300.000000,4284.615384,4297.948717,4286.666666
218,4306.153846,4295.384615,4300.000000,4289.743589,4293.333333
219,4303.076923,4288.205128,4302.564102,4278.974358,4293.846153
220,4308.717948,4302.051282,4297.435897,4291.282051,4293.333333
221,4313.333333,4309.230769,4291.282051,4313.333333,4293.333333
222,4317.435897,4312.820512,4300.000000,4323.076923,4301.025641
223,4317.948717,4311.794871,4309.743589,4316.923076,4304.615384
224,4304.615384,4291.794871,4294.358974,4290.769230,4294.358974
225,4297.435897,4284.615384,4285.641025,4284.615384,4289.743589
226,4292.820512,4290.769230,4286.666666,4310.769230,4288.717948
227,4298.974358,4306.153846,4294.871794,4331.794871,4293.846153
228,4303.589743,4306.666666,4297.435897,4309.230769,4291.282051
229,4289.230769,4276.923076,4281.025641,4274.358974,4275.897435
230,4296.410256,4278.974358,4286.666666,4283.076923,4283.589743
231,4309.230769,4301.025641,4299.487179,4297.948717,4293.846153
232,4303.589743,4302.051282,4300.512820,4307.692307,4287.179487
233,4300.000000,4290.256410,4296.923076,4317.948717,4284.615384
234,4297.435897,4278.461538,4286.666666,4292.307692,4286.666666
235,4299.487179,4287.179487,4291.794871,4275.384615,4293.846153
236,4298.461538,4296.923076,4298.461538,4284.615384,4297.948717
237,4296.410256,4293.846153,4295.384615,4300.000000,4293.333333
238,4304.102564,4290.769230,4297.435897,4311.282051,4288.717948
239,4296.923076,4276.410256,4284.615384,4288.717948,4277.435897
240,4283.589743,4267.692307,4271.794871,4274.871794,4271.794871
241,4279.487179,4274.358974,4272.307692,4284.615384,4272.307692
242,4290.256410,4288.717948,4283.589743,4289.230769,4281.025641
243,4311.282051,4301.025641,4302.564102,4295.897435,4296.923076
244,4307.179487,4289.230769,4301.538461,4297.948717,4295.897435
245,4302.051282,4285.128205,4291.282051,4305.128205,4289.743589
246,4309.743589,4299.487179,4285.128205,4309.743589,4293.846153
247,4312.307692,4294.871794,4290.256410,4296.923076,4299.487179
248,4309.230769,4285.128205,4296.410256,4290.769230,4300.000000
249,4296.923076,4286.153846,4281.538461,4293.333333,4292.307692
250,4308.205128,4301.538461,4288.205128,4311.282051,4298.461538
251,4325.128205,4306.153846,4297.435897,4327.692307,4302.051282
