,AF3,AF4,T7,T8,PZ
0,4348.717948,4309.743589,4303.589743,4264.615384,4266.666666
1,4339.487179,4313.333333,4305.641025,4282.051282,4266.153846
2,4339.487179,4294.871794,4286.153846,4305.128205,4263.589743
3,4358.461538,4305.128205,4289.230769,4295.897435,4280.512820
4,4347.179487,4311.794871,4306.666666,4286.153846,4282.051282
5,4345.641025,4318.974358,4326.153846,4311.282051,4283.076923
6,4345.641025,4311.282051,4306.666666,4298.974358,4276.923076
7,4343.589743,4307.692307,4290.769230,4278.974358,4276.410256
8,4351.794871,4318.974358,4311.794871,4280.000000,4290.769230
9,4335.897435,4303.076923,4309.230769,4260.512820,4280.512820
10,4339.487179,4308.205128,4316.410256,4290.769230,4282.564102
11,4345.641025,4305.641025,4317.435897,4308.205128,4286.153846
12,4340.512820,4283.589743,4301.025641,4272.820512,4274.358974
13,4350.256410,4294.871794,4301.025641,4290.256410,4278.461538
14,4337.435897,4304.615384,4294.871794,4300.000000,4278.461538
15,4338.461538,4312.307692,4320.000000,4285.641025,4291.794871
16,4347.692307,4306.666666,4338.461538,4295.897435,4295.897435
17,4337.435897,4296.923076,4306.153846,4291.794871,4277.435897
18,4342.051282,4314.358974,4299.487179,4273.333333,4281.025641
19,4337.948717,4303.076923,4307.179487,4269.743589,4274.358974
20,4338.974358,4289.743589,4315.897435,4300.000000,4268.717948
21,4338.461538,4292.820512,4309.743589,4295.897435,4270.769230
22,4334.871794,4292.820512,4290.256410,4261.538461,4267.179487
23,4356.410256,4312.307692,4310.769230,4284.102564,4275.897435
24,4340.512820,4303.589743,4315.384615,4292.307692,4260.000000
25,4328.717948,4293.333333,4312.820512,4263.076923,4250.769230
26,4350.769230,4308.717948,4322.051282,4258.974358,4269.743589
27,4344.615384,4305.128205,4311.794871,4282.051282,4269.743589
28,4341.538461,4311.794871,4313.333333,4300.512820,4276.923076
29,4342.051282,4316.923076,4312.307692,4288.205128,4281.538461
30,4342.051282,4311.282051,4316.923076,4288.205128,4277.948717
31,4342.051282,4305.641025,4320.000000,4293.846153,4272.820512
32,4328.717948,4292.307692,4306.666666,4264.102564,4263.076923
33,4330.769230,4294.358974,4320.000000,4255.384615,4271.282051
34,4313.333333,4287.179487,4301.538461,4262.564102,4264.615384
35,4301.025641,4287.179487,4277.948717,4267.179487,4258.461538
36,4313.333333,4290.769230,4306.153846,4272.820512,4272.307692
37,4304.102564,4275.897435,4312.307692,4270.769230,4266.666666
38,4315.384615,4303.076923,4303.589743,4294.871794,4273.846153
39,4317.948717,4310.769230,4296.410256,4295.897435,4278.974358
40,4304.102564,4290.769230,4307.179487,4277.948717,4276.410256
41,4314.871794,4300.512820,4329.230769,4289.743589,4290.769230
42,4302.564102,4281.538461,4311.794871,4278.461538,4285.128205
43,4291.282051,4271.794871,4308.717948,4286.153846,4284.102564
44,4290.256410,4280.512820,4314.871794,4298.974358,4287.692307
45,4286.666666,4272.307692,4307.692307,4256.410256,4280.512820
46,4293.333333,4279.487179,4302.564102,4250.256410,4287.179487
47,4282.564102,4280.512820,4286.666666,4291.282051,4285.128205
48,4287.692307,4289.230769,4298.461538,4311.282051,4287.692307
49,4294.871794,4300.512820,4309.230769,4285.641025,4288.717948
50,4280.000000,4290.769230,4302.564102,4249.743589,4280.000000
51,4285.128205,4292.307692,4319.487179,4258.974358,4288.717948
52,4280.512820,4285.128205,4304.615384,4262.564102,4280.512820
53,4281.025641,4288.717948,4297.948717,4262.051282,4277.948717
54,4283.076923,4295.384615,4321.538461,4267.179487,4288.205128
55,4262.564102,4274.871794,4309.743589,4253.846153,4281.538461
56,4265.641025,4267.179487,4295.897435,4260.000000,4287.179487
57,4261.538461,4253.846153,4297.948717,4264.102564,4287.179487
58,4254.871794,4247.692307,4315.897435,4272.820512,4290.256410
59,4251.282051,4256.410256,4313.333333,4284.102564,4300.512820
60,4236.410256,4248.717948,4286.153846,4273.846153,4296.410256
61,4249.230769,4241.025641,4311.282051,4280.512820,4303.589743
62,4253.846153,4227.692307,4327.179487,4278.974358,4299.487179
63,4253.333333,4241.538461,4305.641025,4273.846153,4299.487179
64,4257.948717,4252.820512,4302.564102,4282.564102,4306.153846
65,4242.051282,4221.025641,4309.230769,4277.948717,4291.282051
66,4252.307692,4228.205128,4322.051282,4287.692307,4301.025641
67,4258.974358,4238.461538,4305.128205,4292.820512,4306.666666
68,4253.846153,4228.205128,4295.897435,4287.179487,4300.000000
69,4258.974358,4241.538461,4322.564102,4286.153846,4307.692307
70,4244.615384,4240.512820,4315.897435,4278.461538,4298.461538
71,4248.717948,4244.615384,4306.666666,4298.461538,4296.410256
72,4254.358974,4246.666666,4306.153846,4305.128205,4295.897435
73,4251.282051,4245.128205,4314.871794,4288.717948,4291.282051
74,4264.102564,4258.974358,4333.333333,4300.000000,4298.461538
75,4257.948717,4255.384615,4317.435897,4310.256410,4294.358974
76,4260.512820,4261.538461,4313.333333,4325.641025,4303.076923
77,4263.076923,4264.615384,4313.846153,4315.897435,4307.692307
78,4260.512820,4264.615384,4310.256410,4292.820512,4300.000000
79,4277.948717,4275.384615,4334.871794,4303.589743,4311.794871
80,4269.230769,4249.230769,4335.897435,4305.128205,4306.666666
81,4272.820512,4247.692307,4329.743589,4316.923076,4305.128205
82,4281.538461,4270.256410,4325.641025,4323.589743,4309.743589
83,4263.589743,4255.384615,4314.358974,4304.102564,4296.410256
84,4259.487179,4248.205128,4322.564102,4305.641025,4292.820512
85,4253.846153,4249.230769,4308.205128,4313.846153,4285.128205
86,4267.692307,4265.128205,4304.102564,4327.692307,4297.948717
87,4283.589743,4280.000000,4314.871794,4318.461538,4317.948717
88,4267.692307,4266.666666,4304.615384,4290.769230,4304.615384
89,4268.717948,4268.205128,4307.179487,4315.384615,4301.025641
90,4265.641025,4257.948717,4304.102564,4333.333333,4295.384615
91,4265.128205,4248.205128,4323.076923,4321.538461,4293.333333
92,4272.307692,4256.923076,4337.435897,4324.615384,4297.948717
93,4261.538461,4257.435897,4306.153846,4309.743589,4286.666666
94,4269.743589,4262.051282,4308.717948,4286.666666,4287.179487
95,4266.666666,4243.589743,4307.692307,4285.128205,4274.871794
96,4261.025641,4239.487179,4293.333333,4315.897435,4272.820512
97,4270.256410,4262.051282,4309.230769,4335.897435,4290.769230
98,4263.076923,4257.948717,4308.205128,4307.692307,4284.615384
99,4270.769230,4264.102564,4303.076923,4304.102564,4290.256410
100,4267.692307,4261.538461,4297.948717,4320.512820,4297.948717
101,4261.538461,4254.871794,4303.589743,4332.307692,4297.435897
102,4271.794871,4268.717948,4316.410256,4333.846153,4299.487179
103,4260.512820,4255.384615,4301.025641,4312.307692,4281.025641
104,4268.717948,4258.461538,4304.615384,4330.256410,4281.538461
105,4276.923076,4270.256410,4308.717948,4340.512820,4290.769230
106,4272.820512,4266.153846,4304.615384,4310.256410,4290.769230
107,4283.589743,4275.384615,4314.871794,4306.153846,4290.256410
108,4276.923076,4273.846153,4306.666666,4312.307692,4275.897435
109,4281.025641,4276.410256,4316.923076,4302.051282,4285.128205
110,4278.461538,4258.461538,4322.051282,4276.410256,4295.384615
111,4255.897435,4232.820512,4307.179487,4291.282051,4286.666666
112,4252.307692,4249.230769,4314.871794,4333.333333,4288.205128
113,4247.179487,4254.358974,4305.641025,4317.435897,4275.384615
114,4258.974358,4254.871794,4309.230769,4304.615384,4272.307692
115,4265.128205,4258.974358,4316.923076,4302.564102,4280.000000
116,4256.410256,4259.487179,4302.051282,4285.128205,4279.487179
117,4274.871794,4273.846153,4310.256410,4310.769230,4293.846153
118,4264.615384,4250.256410,4311.282051,4314.871794,4287.692307
119,4253.333333,4235.384615,4317.948717,4303.589743,4280.512820
120,4272.307692,4260.512820,4325.128205,4318.461538,4285.641025
121,4280.000000,4268.717948,4306.666666,4309.743589,4278.974358
122,4290.256410,4269.230769,4309.743589,4310.256410,4285.641025
123,4281.025641,4259.487179,4301.025641,4325.641025,4281.025641
124,4280.512820,4268.717948,4300.000000,4329.743589,4279.487179
125,4290.256410,4285.641025,4320.000000,4311.282051,4288.717948
126,4272.820512,4268.717948,4312.820512,4298.461538,4278.461538
127,4272.820512,4267.692307,4316.410256,4327.179487,4286.666666
128,4266.153846,4249.230769,4325.128205,4326.153846,4285.641025
129,4252.307692,4223.076923,4312.820512,4290.769230,4269.230769
130,4258.974358,4240.000000,4282.051282,4283.076923,4271.794871
131,4268.717948,4265.128205,4279.487179,4300.000000,4279.487179
132,4292.820512,4282.564102,4328.205128,4320.512820,4295.897435
133,4289.230769,4269.230769,4329.743589,4308.717948,4293.333333
134,4288.205128,4267.179487,4310.256410,4300.512820,4284.615384
135,4312.307692,4287.179487,4325.128205,4320.512820,4288.205128
136,4304.615384,4275.897435,4318.974358,4305.128205,4283.589743
137,4304.615384,4280.000000,4332.307692,4292.307692,4295.897435
138,4303.076923,4275.897435,4327.179487,4305.128205,4295.384615
139,4289.743589,4257.948717,4284.615384,4306.666666,4284.615384
140,4291.282051,4264.615384,4291.794871,4301.025641,4286.153846
141,4280.000000,4256.410256,4315.384615,4292.307692,4268.717948
142,4284.615384,4260.512820,4334.871794,4313.846153,4273.333333
143,4287.179487,4259.487179,4330.769230,4313.333333,4283.589743
144,4274.358974,4235.384615,4324.102564,4273.333333,4277.948717
145,4281.025641,4240.000000,4339.487179,4272.820512,4289.230769
146,4263.076923,4230.256410,4311.282051,4282.564102,4278.461538
147,4246.153846,4213.333333,4300.512820,4276.410256,4263.589743
148,4256.410256,4215.897435,4316.410256,4252.307692,4271.282051
149,4270.256410,4224.102564,4296.410256,4248.205128,4283.076923
150,4292.820512,4243.589743,4283.076923,4293.333333,4298.974358
151,4287.179487,4246.153846,4290.256410,4306.666666,4292.307692
152,4283.076923,4256.410256,4315.384615,4313.846153,4292.307692
153,4284.615384,4255.897435,4320.512820,4330.256410,4294.871794
154,4273.333333,4232.820512,4310.769230,4300.512820,4278.974358
155,4289.743589,4250.769230,4335.897435,4268.205128,4289.743589
156,4290.256410,4251.794871,4325.128205,4260.512820,4290.256410
157,4285.641025,4236.410256,4304.102564,4293.333333,4283.589743
158,4288.717948,4240.000000,4317.948717,4316.923076,4290.769230
159,4263.076923,4229.743589,4316.410256,4283.076923,4279.487179
160,4257.948717,4229.230769,4314.358974,4278.974358,4276.923076
161,4265.641025,4226.153846,4303.589743,4298.461538,4277.948717
162,4277.948717,4229.743589,4298.461538,4303.589743,4286.153846
163,4299.487179,4255.897435,4313.333333,4306.666666,4304.615384
164,4301.025641,4258.461538,4317.435897,4308.205128,4306.666666
165,4300.512820,4255.897435,4320.512820,4324.102564,4309.743589
166,4281.538461,4243.589743,4305.128205,4314.871794,4295.897435
167,4269.230769,4243.076923,4311.794871,4304.615384,4284.102564
168,4285.128205,4257.948717,4338.974358,4311.794871,4297.948717
169,4280.000000,4241.538461,4314.358974,4286.666666,4288.717948
170,4284.615384,4243.589743,4307.692307,4287.179487,4282.051282
171,4284.102564,4251.282051,4322.051282,4309.230769,4278.974358
172,4276.923076,4238.461538,4316.923076,4300.512820,4272.820512
173,4292.820512,4247.692307,4322.564102,4296.410256,4289.743589
174,4287.692307,4252.820512,4317.435897,4294.358974,4286.666666
175,4290.769230,4266.666666,4311.794871,4307.692307,4276.923076
176,4296.923076,4273.333333,4297.435897,4320.512820,4275.384615
177,4292.820512,4270.769230,4292.820512,4314.358974,4280.000000
178,4305.641025,4289.743589,4326.666666,4315.384615,4302.564102
179,4291.282051,4276.410256,4338.461538,4305.641025,4304.102564
180,4284.615384,4255.384615,4341.538461,4308.717948,4303.589743
181,4285.128205,4247.692307,4326.153846,4301.025641,4294.358974
182,4272.820512,4238.461538,4300.000000,4274.871794,4269.230769
183,4283.589743,4252.820512,4325.641025,4308.205128,4274.358974
184,4275.897435,4246.153846,4314.358974,4317.435897,4270.256410
185,4268.205128,4238.461538,4273.846153,4288.205128,4267.179487
186,4282.564102,4249.230769,4282.051282,4306.153846,4280.512820
187,4293.333333,4255.384615,4308.205128,4320.512820,4283.589743
188,4309.743589,4277.435897,4320.512820,4304.102564,4291.794871
189,4302.051282,4275.897435,4296.923076,4302.564102,4284.102564
190,4303.589743,4275.897435,4294.871794,4334.358974,4280.512820
191,4315.897435,4291.794871,4316.923076,4344.615384,4293.846153
192,4299.487179,4291.794871,4321.025641,4337.948717,4299.487179
193,4307.179487,4304.102564,4337.435897,4349.230769,4320.512820
194,4313.846153,4291.282051,4318.461538,4328.205128,4319.487179
195,4306.666666,4275.897435,4302.051282,4318.974358,4302.564102
196,4307.692307,4291.794871,4330.769230,4347.179487,4298.461538
197,4291.794871,4287.179487,4316.923076,4319.487179,4283.589743
198,4298.974358,4283.589743,4292.307692,4282.564102,4289.230769
199,4298.461538,4270.256410,4299.487179,4285.641025,4290.769230
200,4277.948717,4254.358974,4331.282051,4296.410256,4282.564102
201,4278.974358,4261.025641,4353.333333,4296.923076,4284.615384
202,4282.051282,4258.461538,4328.205128,4290.256410,4269.230769
203,4301.025641,4265.641025,4322.564102,4304.102564,4271.282051
204,4303.076923,4261.538461,4323.589743,4290.769230,4276.410256
205,4285.641025,4247.179487,4315.897435,4279.487179,4273.333333
206,4290.769230,4255.897435,4314.871794,4308.205128,4285.641025
207,4283.076923,4247.692307,4286.153846,4274.871794,4273.846153
208,4289.230769,4256.923076,4290.256410,4248.717948,4263.076923
209,4298.461538,4271.794871,4299.487179,4285.641025,4260.512820
210,4300.512820,4268.205128,4283.076923,4301.538461,4255.384615
211,4329.230769,4282.051282,4303.076923,4301.538461,4274.358974
212,4330.769230,4284.615384,4315.384615,4304.102564,4283.589743
213,4324.102564,4289.230769,4312.307692,4305.641025,4287.179487
214,4318.461538,4281.538461,4315.897435,4289.743589,4282.564102
215,4302.564102,4266.666666,4323.589743,4284.615384,4277.435897
216,4309.743589,4285.641025,4340.512820,4309.230769,4300.000000
217,4290.256410,4270.769230,4323.076923,4302.564102,4294.358974
218,4264.615384,4250.769230,4306.153846,4301.538461,4280.512820
219,4265.641025,4260.512820,4310.769230,4312.820512,4282.564102
220,4270.769230,4253.333333,4303.589743,4297.435897,4266.153846
221,4285.128205,4259.487179,4305.128205,4295.897435,4253.333333
222,4283.076923,4267.179487,4298.974358,4293.846153,4249.230769
223,4291.794871,4264.615384,4313.333333,4287.692307,4262.564102
224,4306.666666,4270.256410,4323.076923,4283.076923,4279.487179
225,4303.589743,4277.948717,4296.923076,4277.435897,4273.846153
226,4318.461538,4295.897435,4307.179487,4297.948717,4276.923076
227,4306.666666,4274.871794,4302.051282,4297.948717,4263.076923
228,4304.102564,4263.589743,4283.589743,4299.487179,4255.384615
229,4339.487179,4307.179487,4309.230769,4324.615384,4282.564102
230,4341.025641,4322.051282,4318.461538,4315.384615,4289.743589
231,4338.974358,4316.410256,4315.897435,4310.256410,4296.923076
232,4329.230769,4298.461538,4312.307692,4290.769230,4295.384615
233,4311.282051,4281.025641,4315.897435,4246.666666,4281.025641
234,4316.923076,4283.076923,4311.282051,4246.666666,4276.410256
235,4314.358974,4272.307692,4280.512820,4263.076923,4260.000000
236,4317.948717,4276.410256,4302.564102,4286.153846,4265.641025
237,4311.794871,4273.333333,4324.615384,4290.769230,4272.307692
238,4302.564102,4263.589743,4303.076923,4265.641025,4263.076923
239,4311.794871,4270.769230,4303.076923,4264.102564,4264.615384
240,4296.410256,4247.179487,4298.974358,4257.435897,4257.435897
241,4299.487179,4248.717948,4304.615384,4254.358974,4267.692307
242,4313.333333,4274.358974,4308.717948,4267.692307,4274.871794
243,4310.256410,4271.794871,4291.282051,4285.128205,4259.487179
244,4328.717948,4277.948717,4293.333333,4298.974358,4273.333333
245,4333.333333,4284.102564,4307.692307,4276.923076,4286.666666
246,4336.923076,4298.461538,4330.769230,4286.153846,4291.794871
247,4341.025641,4305.128205,4323.076923,4298.974358,4285.128205
248,4331.282051,4294.358974,4297.435897,4251.282051,4266.666666
249,4342.051282,4303.076923,4310.769230,4236.410256,4276.923076
250,4337.435897,4290.769230,4309.230769,4269.230769,4280.000000
251,4332.820512,4284.102564,4302.564102,4295.897435,4273.846153
252,4334.358974,4292.307692,4303.076923,4280.000000,4270.256410
253,4320.000000,4277.435897,4290.256410,4268.205128,4257.435897
254,4325.641025,4273.846153,4294.871794,4286.666666,4262.051282
255,4319.487179,4271.282051,4282.564102,4255.384615,4257.948717
256,4322.051282,4287.692307,4286.666666,4255.897435,4269.743589
